#   1 NUMBER                 Running object number                                     
#   2 X_IMAGE                Object position along x                                    [pixel]
#   3 Y_IMAGE                Object position along y                                    [pixel]
#   4 ALPHA_J2000            Right ascension of barycenter (J2000)                      [deg]
#   5 DELTA_J2000            Declination of barycenter (J2000)                          [deg]
#   6 FLUX_APER              Flux vector within fixed circular aperture(s)              [count]
#   7 FLUXERR_APER           RMS error vector for aperture flux(es)                     [count]
#   8 FLUX_RADIUS            Fraction-of-light radii                                    [pixel]
#   9 FWHM_IMAGE             FWHM assuming a gaussian core                              [pixel]
#  10 BACKGROUND             Background at centroid position                            [count]
#  11 THRESHOLD              Detection threshold above background                       [count]
#  12 FLUX_MAX               Peak flux above background                                 [count]
#  13 ISOAREA_IMAGE          Isophotal area above Analysis threshold                    [pixel**2]
#  14 A_IMAGE                Profile RMS along major axis                               [pixel]
#  15 B_IMAGE                Profile RMS along minor axis                               [pixel]
#  16 THETA_IMAGE            Position angle (CCW/x)                                     [deg]
#  17 FLAGS                  Extraction flags                                          
         1    519.2847     17.3190 300.3326440 +22.5431888      1189.99     72.46027      1.553     2.87     6.417275     20.40689     135.6043        18     1.122     0.931  80.26   0
         2    422.8753     15.3686 300.3032600 +22.5137687     821.8705     72.33142      1.342     2.72     6.034049     20.40689     110.4317        13     1.105     0.748  53.24   0
         3    194.3441      5.1373 300.2354748 +22.4423979     3728.295     71.94349      1.646     3.04     6.294279     20.40689     421.0851        35     1.374     1.253  58.89  24
         4    762.6831      5.9700 300.4121562 +22.6127570     628.8799     72.34985      1.505     3.75     6.340055     20.40689     79.24374        12     1.152     0.826 -12.25  16
         5    520.3994      2.9870 300.3376348 +22.5394004     311.5552      64.6045      1.275     3.33     6.495333     20.40689     52.88205         8     0.972     0.651 -24.97  16
         6    616.8218      2.1100 300.3679516 +22.5680047     307.5614     60.51461      1.330     4.87      6.67882     20.40689     38.74098         8     0.876     0.766  89.46  24
         7    186.3426    967.9850 299.9204071 +22.7164256     757.8352       72.313      3.880     7.43     54.62946     20.40689     45.92699        14     2.020     0.765  27.35   2
         8    270.9562   1017.7122 299.9305399 +22.7560789     2617.629     72.33142      6.826    31.80     36.13965     20.40689     61.26926       210     7.055     3.980 -85.91  27
         9    254.5176   1002.1217 299.9305001 +22.7466746     3581.663     72.42348      7.305    21.01     46.93219     20.40689     103.3227       186     4.996     3.315 -14.30  19
        10    223.6721    987.4402 299.9256846 +22.7332076     4580.375       72.313      8.841    28.97     63.61629     20.40689     96.66024       361     6.671     4.779 -76.63  19
        11    261.1332    976.0108 299.9410520 +22.7411711     8949.758     72.33142     12.613    39.08      29.6151     20.40689     184.0329      1042    13.233     5.338  63.87  19
        12    656.4320    988.4989 300.0600318 +22.8633256     8714.162       72.313      2.002     4.63     4.357067     20.40689     473.8117        51     1.605     1.478  12.37   3
        13    520.6085    977.5638 300.0212882 +22.8194569     478.2213     72.33142      2.008     5.05     4.017918     20.40689     33.04217         7     0.923     0.820 -28.59   0
        14    243.2885    986.5100 299.9320871 +22.7388275     6142.246     72.49705     11.801    48.61     48.93049     20.40689     110.2114       689    11.806     5.554 -52.74  19
        15    949.1719    972.4154 300.1565223 +22.9464539     831.2607     72.34985      2.079     7.08     3.787239     20.40689     40.99123        17     1.372     1.024  -0.12   0
        16      5.8831    963.7205 299.8657133 +22.6610363     903.3715     72.46027      4.874     4.69    -8.583916     20.40689      37.8976         5     1.212     0.514  64.83  17
        17    661.9424    986.1412 300.0625156 +22.8643010     9337.631     72.40508      1.940     4.64     4.357181     20.40689     576.4932        48     1.488     1.468  29.38   3
        18    165.3627    956.8483 299.9175075 +22.7069356     1577.856     72.34985      5.119    12.36     49.83075     20.40689     50.28629        32     2.542     1.672   1.89   2
        19    674.7105    955.4721 300.0764711 +22.8593249      6820.73     72.49705      1.887     4.13     4.357415     20.40689     436.2469        46     1.527     1.392  37.52   0
        20    186.9166    948.1494 299.9270377 +22.7109094     675.2222     72.34985      3.240     8.80     37.55359     20.40689     31.51952        10     2.079     1.039  73.36   0
        21     14.1872    994.7978 299.8581837 +22.6724378     1873.356     72.16542      8.786    16.21    -11.30291     20.40689     44.33731        58     3.243     2.253 -12.91  19
        22    110.1507   1010.2118 299.8829867 +22.7056650     3776.057     72.34985     14.420   110.33     86.19556     20.40689     144.0666      2124    22.481    15.023  58.91  27
        23    377.4249    999.6099 299.9695498 +22.7828326     502.5228     72.33142      1.801     6.78     5.102881     20.40689     47.79988        11     1.194     1.079  70.29   0
        24    583.3604    946.2479 300.0510161 +22.8292874     1468.268     72.36826      1.722     4.28     4.315575     20.40689     133.5239        24     1.402     1.069   0.33   0
        25    477.0287    942.7219 300.0190551 +22.7963879     1027.737     72.33142      1.731     4.91     3.941041     20.40689     78.51272        19     1.293     1.046 -14.56   0
        26    755.0000    989.8644 300.0903016 +22.8932691     318.2775     72.34985      1.426     3.45     4.061895     20.40689     37.50496         5     0.779     0.528  68.53   3
        27    407.5995    940.5515 299.9981515 +22.7749406     6663.936     72.33142      1.835     4.21      4.57179     20.40689     496.2443        43     1.446     1.393 -13.93   0
        28      4.7094    974.9363 299.8617004 +22.6638990     2018.253     71.04882     10.755    16.80    -13.05808     20.40689     64.61345        67     3.553     2.208 -77.56  27
        29    439.8816    927.8213 300.0123390 +22.7809706     533.2963     72.29457      1.842     6.52     4.336011     20.40689     43.36393        12     1.448     0.824 -53.16   0
        30      3.2077    984.4456 299.8581406 +22.6661741     1554.918     65.85074      8.847    13.37    -17.93021     20.40689     47.25424        42     2.448     2.033  78.71  27
        31     99.6444    918.8578 299.9094373 +22.6763181     4363.313     72.36826     19.785    55.19     10.39077     20.40689     90.98354      1181    12.974     7.769 -22.53   3
        32    955.0000    919.9510 300.1754076 +22.9331289      1403.14       72.313      1.736     3.77     4.176838     20.40689      117.377        19     1.350     0.863 -74.57   3
        33    953.0000    919.4426 300.1749491 +22.9323836     1429.858       72.313      1.707     4.51     4.177733     20.40689      107.014        17     1.572     0.752 -76.16   3
        34      6.4961   1011.7400 299.8502827 +22.6749850         2896     72.40508     12.427    45.74    -25.00641     20.40689     73.10089       519    10.485     5.537  88.42  27
        35    137.3946    919.8192 299.9208574 +22.6879232     1231.172     72.29457      9.081     9.75     19.34451     20.40689     50.33185        20     2.135     1.241  48.20   3
        36    140.9657    919.3524 299.9221193 +22.6888611     1186.664     72.36826      3.882     4.17     20.07665     20.40689      42.6986         5     1.062     0.467 -48.18   3
        37    603.8773    917.0627 300.0668993 +22.8270615     476.1628     72.40508      2.037     6.48     4.314459     20.40689     32.14048         9     1.208     0.974  84.23   0
        38    743.2940    908.5139 300.1131170 +22.8664013     809.4622     72.51543      1.975     6.75      4.36693     20.40689     55.49597        17     1.647     0.972  75.02   0
        39    777.9351    902.5746 300.1258457 +22.8750785     1003.465       72.313      1.854     5.33     4.394262     20.40689     67.99457        20     1.263     1.172 -10.95   0
        40    569.8043    993.1660 300.0315309 +22.8386885      2367.03     72.33142      1.895     4.81     4.358274     20.40689     145.3763        27     1.387     1.243 -11.52   0
        41    799.8730    896.2809 300.1347312 +22.8798457     11426.31     72.46027      1.818     4.09     4.425076     20.40689     751.2888        49     1.455     1.392 -16.99   0
        42    845.7789    895.8120 300.1491958 +22.8934680     406.0579       72.313      1.618     5.74     4.363653     20.40689     48.59102         9     1.429     0.744  81.61   0
        43     99.6751    951.8217 299.8987256 +22.6857794     5176.294       72.313     20.624    85.25     32.10378     20.40689     1375.633      2477    16.548    12.187  -7.40  19
        44    757.5269    989.4163 300.0912350 +22.8938979     510.8412     72.33142      1.809     5.40     4.022209     20.40689     42.66868         7     1.287     0.664 -82.47   2
        45    934.3959    889.9334 300.1787439 +22.9183320     273.4017       72.313      1.525     3.87     4.351191     20.40689     28.48022         5     0.881     0.487 -86.75   0
        46    111.2826    887.3734 299.9232929 +22.6707822      967.324       72.313      5.460     6.12     8.990303     20.40689     61.07689        16     1.551     1.278  10.04   0
        47    505.3142    884.3596 300.0468424 +22.7881205     450.4207       72.313      1.771     4.15     4.279045     20.40689     48.09625         9     1.114     0.832 -20.23   0
        48    851.7512    883.4157 300.1550896 +22.8916970     450.8248     72.36826      1.728     3.74     4.444596     20.40689     35.96609         5     0.848     0.576  52.41   0
        49    190.4685    979.0679 299.9180846 +22.7208421     1751.259     72.38667      4.023    13.12     63.13006     20.40689     77.67503        46     3.126     1.677 -81.94   3
        50    808.4613    878.2798 300.1432629 +22.8772493      1370.83     72.40508      1.823     4.06     4.478745     20.40689     104.6978        25     1.369     1.142   4.73   0
        51    102.0958    878.7147 299.9232533 +22.6655421     654.9471     72.51543      2.850     5.00     7.080715     20.40689     38.76592         8     1.158     0.626  31.11   0
        52    991.2074    878.0656 300.2003266 +22.9319420     418.9501     72.33142      1.653     6.43     4.074679     20.40689     38.84069         9     1.401     0.829  18.72   0
        53    660.7927    875.1920 300.0982463 +22.8321033     317.5315     72.18388      1.552     3.92     4.415255     20.40689     27.20616         5     0.973     0.453 -44.64   0
        54    846.4672    871.9760 300.1571624 +22.8868276     751.1223       72.313      1.663     5.23     4.517297     20.40689      49.4793        15     1.141     0.976   3.67   0
        55    895.0132    863.3718 300.1750988 +22.8989018     506.7747     72.33142      1.635     5.11     4.575413     20.40689     51.50424        11     1.257     0.779  35.33   0
        56    746.0772    862.0532 300.1290942 +22.8538930      698.911     72.36826      1.602     4.99     4.458696     20.40689     56.51344        16     1.203     1.102  60.09   0
        57    458.7834    858.2596 300.0408445 +22.7666760     4357.002     72.29457      1.707     3.63     4.397773     20.40689     373.4679        36     1.376     1.296 -80.84   0
        58    757.7504    859.1570 300.1336742 +22.8565597     733.0152     72.36826      1.723     6.19     4.479998     20.40689     55.90474        14     1.197     0.900  -9.13   0
        59      5.2766    860.1907 299.8991930 +22.6311725      365.735     72.09152      1.800     5.90     4.263474     20.40689     41.48989         8     1.345     0.729  40.66  16
        60    237.6126    846.9886 299.9756981 +22.6971040     351.0276     72.23925      1.212     2.54     5.902514     20.40689     51.33343         6     0.788     0.484  84.55   0
        61    502.9968    846.2280 300.0585204 +22.7764802     287.5222     72.29457      1.401     3.82     4.436316     20.40689      27.0229         5     0.824     0.508  54.45   0
        62    183.9665    844.1465 299.9599417 +22.6801940     865.5331     72.34985      2.212     5.57     7.116779     20.40689      60.8396        21     1.397     1.294  -1.10   0
        63    195.6948    999.5249 299.9130544 +22.7282769     2777.905     72.47866      6.176    27.17     79.86958     20.40689     66.98298       189     5.231     4.015  73.46  18
        64    160.9292    840.8138 299.9538633 +22.6723259     1637.824     72.33142      2.055     4.24     7.554744     20.40689      158.563        30     1.639     1.382  -1.16   0
        65    987.4290    828.7195 300.2151945 +22.9166305     2260.417     72.34985      1.975     4.31     4.355318     20.40689     128.3846        34     1.482     1.349 -62.87   0
        66     36.1337    830.5378 299.9184200 +22.6319306     428.4506     72.36826      1.744     4.00     4.655652     20.40689     46.59317         7     0.992     0.839 -22.23   0
        67    692.8484    828.9263 300.1232781 +22.8284262     331.0794     72.33142      1.661     4.51     4.610461     20.40689     38.51588         5     0.850     0.681 -41.52   0
        68    770.8818    822.5354 300.1496750 +22.8499765     572.5032     72.44188      1.757     5.78     4.575115     20.40689     45.68091        13     1.217     0.962  -4.26   0
        69    193.4828    822.8282 299.9698311 +22.6769336     371.4052     72.33142      1.612     5.03     6.088966     20.40689     45.83297         7     1.293     0.594  -4.15   0
        70    638.8740    816.5459 300.1104870 +22.8086932     4913.556     72.34985      1.614     3.31     4.673286     20.40689      446.426        34     1.290     1.178  -7.92   0
        71    128.7889    816.9481 299.9516314 +22.6558367     314.7881     72.33142      1.621     4.73     5.672745     20.40689     44.75485         6     1.142     0.555 -19.59   0
        72    441.0278    813.7324 300.0497950 +22.7485711     572.9445       72.313      1.547     4.52     4.681674     20.40689     58.68873        16     1.179     1.024  53.54   0
        73    189.1531    810.1208 299.9726160 +22.6719891     1302.068     72.34985      1.774     4.06     5.622642     20.40689     111.5224        24     1.281     1.189   9.52   0
        74    659.5772    808.9318 300.1194123 +22.8127121     622.2938     72.34985      1.507     4.70     4.739291     20.40689     60.52589        14     1.213     0.848 -10.45   0
        75    208.3881    807.0818 299.9795845 +22.6768878     333.4155       72.313      1.495     4.77     5.432203     20.40689     49.45495         7     1.337     0.663  50.31   0
        76    814.9700    796.2975 300.1719491 +22.8556501     4217.699     72.27613      1.663     3.52     4.641036     20.40689     317.2993        35     1.323     1.243  -9.91   0
        77    223.8401    790.5878 299.9897508 +22.6767910     429.1187     72.33142      1.504     4.08     5.213334     20.40689     56.42129         9     1.079     0.767  14.21   0
        78    531.8502    788.6208 300.0862328 +22.7685930     569.7952     72.33142      1.526     4.53     4.731771     20.40689     69.20412        14     1.211     0.972  33.21   0
        79    178.7216    786.5381 299.9770387 +22.6620941     1021.196     72.40508      1.719     3.72     5.193775     20.40689     96.40574        17     1.210     0.944 -31.84   0
        80    593.6946    781.7853 300.1077144 +22.7851693     454.3671     72.25769      1.586     5.62     4.753793     20.40689     51.05983        10     1.164     0.854  83.21   0
        81    327.9234    778.6632 300.0259997 +22.7045878     54037.13     72.40508      1.665     3.35     4.945749     20.40689     5550.952        92     1.477     1.403  24.23   0
        82    585.7792    777.7991 300.1065449 +22.7816520     1577.954     72.25769      1.548     3.39     4.762288     20.40689      143.646        21     1.253     1.022 -21.22   0
        83    998.9543    777.1396 300.2355601 +22.9052590     912.3733     72.34985      2.057     6.60     4.645099     20.40689     52.73655        16     1.230     1.049 -58.87   0
        84    302.1565    776.8023 300.0185890 +22.6963260      289.944     72.33142      1.482     4.39     4.977586     20.40689     31.23687         5     0.766     0.718   3.80   0
        85    256.4816    776.7779 300.0043905 +22.6826196     518.5444     72.29457      1.682     5.71     5.071523     20.40689      51.4783         9     1.163     0.791 -72.64   0
        86    614.9831    773.8429 300.1169271 +22.7892695     889.2906     72.34985      1.446     3.39     4.764184     20.40689     99.34255        15     1.105     0.927  39.64   0
        87     14.2685    773.2289 299.9302555 +22.6089337     839.2909       72.313      1.911     4.15     4.743087     20.40689     69.83929        18     1.306     1.062 -40.68   0
        88    624.6315    770.2244 300.1211088 +22.7911222     1396.759     72.33142      1.597     6.56     4.773414     20.40689     840.6592        14     1.836     0.657  62.26   0
        89    946.2084    769.7834 300.2214957 +22.8873471     307.7838     72.25769      1.525     4.73     4.836631     20.40689     40.17903         7     1.103     0.576  17.37   0
        90    731.0715    768.8380 300.1547238 +22.8226228     333.0706     72.29457      1.354     5.19     4.640886     20.40689     41.55732         8     1.256     0.605   8.73   0
        91    525.9998    765.3962 300.0919604 +22.7601710     283.0425        72.11      1.281     4.43     4.795533     20.40689     31.73298         6     0.846     0.661 -34.64   0
        92    768.7390    758.8619 300.1697067 +22.8310437     804.8779     72.36826      1.536     3.92     4.679669     20.40689     71.32059        15     1.031     0.992  28.40   0
        93    377.6732    755.9265 300.0488687 +22.7129812      31466.5     72.38667      1.601     3.39     4.919935     20.40689     3142.258        68     1.382     1.319   0.65   0
        94    391.9796    756.3715 300.0531760 +22.7173988     2028.521     72.33142      1.596     3.30     4.912806     20.40689     190.9711        24     1.254     1.102 -23.93   0
        95    266.8811    755.2477 300.0146227 +22.6795606     308.3237     72.33142      1.472     4.42     4.992572     20.40689       37.192         5     0.786     0.709 -11.52   0
        96    900.8030    751.9898 300.2131171 +22.8686333     2814.513     72.14695      1.632     3.36     4.926312     20.40689     215.5955        29     1.257     1.192 -20.87   0
        97    388.4077    750.4133 300.0540009 +22.7146175     710.9766     72.22079      2.039     5.40     4.925402     20.40689     51.78054        10     1.263     0.671  43.66   1
        98    658.8745    747.9151 300.1390279 +22.7949777     918.6647     72.44188      1.529     3.32     4.797496     20.40689     91.00285        16     1.099     0.933  73.13   0
        99    260.2207    747.7466 300.0149891 +22.6754104     904.9932     72.33142      1.786     3.91      4.98029     20.40689     100.3411        19     1.299     1.049 -19.30   0
       100    495.1215    748.0853 300.0879730 +22.7459439     436.8188     72.46027      1.332     3.90     4.792861     20.40689     50.40108         7     0.966     0.646  68.75   0
       101    505.9109    742.9408 300.0930042 +22.7477013     947.8268     72.40508      1.598     3.44     4.821109     20.40689     89.82367        19     1.179     1.009 -32.51   0
       102     64.8408    743.4431 299.9556489 +22.6155653     514.8099     72.42348      1.602     5.98     5.038738     20.40689     42.70774        10     1.275     0.789 -19.50   0
       103    907.1047    739.6514 300.2190930 +22.8669752     497.3108     72.40508      1.501     3.50     4.977808     20.40689      56.5654         9     0.942     0.899 -11.11   0
       104    407.5398    738.9037 300.0636954 +22.7170503     359.3536     72.40508      1.363     5.85     4.943688     20.40689     44.42422        13     1.139     1.019  52.86   0
       105    451.2082    737.5652 300.0777219 +22.7297586     437.7087     72.33142      1.630     5.06     4.860089     20.40689     41.40103         9     1.026     0.705  24.10   0
       106    364.1903    738.5071 300.0503348 +22.7039383     290.9135     72.27613      1.368     3.88     4.946046     20.40689     54.85246         5     0.774     0.636  52.44   0
       107     93.3119    736.3846 299.9667905 +22.6220826     634.4948     72.27613      1.966     6.53     5.059841     20.40689      52.9002        11     1.351     0.917  47.84   0
       108    884.6726    734.7774 300.2136810 +22.8588554     428.4974     72.36826      1.736     4.20     5.001032     20.40689      36.5955         6     0.752     0.670  -1.49   0
       109    257.9176    732.1803 300.0193317 +22.6702526     523.7822     72.29457      1.603     3.96      4.95195     20.40689     62.11108         8     1.052     0.681  17.94   0
       110    550.6221    721.0875 300.1140284 +22.7548287     648.4465     72.25769      1.518     5.39     4.929619     20.40689     65.20246        14     1.299     0.886 -42.79   0
       111    581.4342    722.4106 300.1231942 +22.7644438     403.3819       72.313      1.545     4.04     4.876535     20.40689     46.63441         6     0.990     0.471  36.71   0
       112    459.9557    720.0339 300.0861422 +22.7273478     329.1971     72.38667      1.718     5.36     4.875427     20.40689     41.57742         8     1.120     0.723 -83.32   0
       113    967.2902    717.4271 300.2450901 +22.8786136     4551.305     72.29457      1.739     3.41      4.99799     20.40689     379.1539        42     1.418     1.325 -14.50   0
       114    572.6743    718.2525 300.1218173 +22.7606242     1325.268     72.34985      1.499     3.39     4.897816     20.40689      138.671        20     1.142     0.999  24.36   0
       115    493.1441    717.7437 300.0972182 +22.7366394     343.4746     72.40508      1.363     3.41     4.861619     20.40689     57.73785         8     0.912     0.773   1.08   0
       116    701.4025    713.5993 300.1634316 +22.7978649     341.7233        72.11      1.105     3.40     4.805593     20.40689     28.39789         5     1.031     0.325  67.95   0
       117    654.2648    713.3053 300.1488400 +22.7836555     379.1648     72.44188      1.708     4.63     4.860166     20.40689     30.62211         8     0.978     0.624 -81.45   0
       118    955.7491    708.7355 300.2443144 +22.8726591     1765.428     72.38667      1.744     3.78     5.090794     20.40689     148.9166        24     1.281     1.137 -16.64   0
       119    318.5674    702.3568 300.0478882 +22.6798813     948.5227     72.36826      1.616     3.64     4.953437     20.40689     97.56564        18     1.137     1.064  54.08   0
       120    782.0936    699.9872 300.1930041 +22.8181300     2497.816     72.25769      1.563     3.16     4.924181     20.40689     231.5819        30     1.277     1.175  12.29   0
       121    986.8323    698.9737 300.2571841 +22.8791615     1867.272     72.33142      1.715     4.02     4.972298     20.40689     138.6968        26     1.342     1.182 -25.86   0
       122      4.5015    689.8466 299.9543171 +22.5820872     843.2167     70.44606      1.880     4.06     5.094846     20.40689     87.61987        16     1.193     1.136 -37.03  16
       123    864.5612    685.5783 300.2233983 +22.8386928     685.5475     72.34985      1.796     5.52     5.215872     20.40689     61.52456        19     1.410     1.146  12.36   0
       124    167.5787    686.2870 300.0061539 +22.6299876     573.1051     72.25769      1.527     3.89     5.051201     20.40689     64.79845        11     1.140     0.682 -20.06   0
       125    900.5382    676.9368 300.2374262 +22.8469845     149046.3     72.36826      1.625     3.33     5.385658     20.40689     12210.14       151     1.478     1.450 -19.04   0
       126    662.7440    680.8271 300.1620357 +22.7768669      426.027     72.33142      1.672     2.77     4.946416     20.40689     51.59374         6     0.736     0.609  -0.83   0
       127    752.9043    677.0231 300.1913679 +22.8027873     897.5984     72.23925      1.700     3.89     4.950373     20.40689      77.1055        13     1.149     0.814 -32.46   0
       128     63.9345    675.5607 299.9774246 +22.5958200     269.9787     72.29457      1.695     4.84     5.107095     20.40689     32.25739         6     1.309     0.506  40.02   0
       129    933.2335    669.6233 300.2500006 +22.8546741     406.6887     72.34985      1.496     5.60     5.488355     20.40689     46.52623        11     1.023     0.963  40.91   0
       130    586.7912    665.7076 300.1432881 +22.7497639      1575.28     72.25769      1.403     2.73     5.030428     20.40689     200.6085        18     1.032     0.960  -8.80   0
       131    767.9906    663.0511 300.2006101 +22.8032922     9317.979     72.33142      1.450     2.98      5.05975     20.40689      947.107        38     1.216     1.158  21.21   0
       132    269.4899    658.0071 300.0470318 +22.6524350     5002.547     72.23925      1.551     3.12     4.976061     20.40689     571.3118        31     1.200     1.167  12.09   0
       133    351.4834    655.9741 300.0731991 +22.6764363     1149.134       72.313      1.506     3.27     5.025365     20.40689     133.7095        16     1.163     0.933  53.46   0
       134    227.5455    653.8037 300.0353527 +22.6386505      430.853     72.29457      1.388     3.10     5.034812     20.40689     51.16629         7     0.842     0.599  12.28   0
       135    559.6794    651.8065 300.1393609 +22.7376463     768.8492     72.25769      1.376     3.31     5.217336     20.40689     82.48787        12     1.003     0.791  37.03   0
       136    551.4938    643.7439 300.1394311 +22.7328775     3233.595     72.38667      1.419     2.55     5.312376     20.40689     438.5018        27     1.146     1.061 -68.43   0
       137    541.6343    637.5291 300.1383798 +22.7281377     1479.124     72.33142      1.436     2.67     5.378635     20.40689      197.412        17     1.026     0.939  56.26   0
       138    935.4659    635.6725 300.2617279 +22.8455834      495.706     72.36826      1.609     4.10      5.48306     20.40689     55.72858         9     1.152     0.685  65.17   0
       139    470.5223    636.6675 300.1165188 +22.7065773     298.8028     72.44188      1.373     3.51     5.283892     20.40689     39.59175         5     1.038     0.342 -19.31   0
       140    452.6740    634.7584 300.1115830 +22.7006793     190.3279       72.313      1.335     3.47     5.236515     20.40689     38.34286         5     1.117     0.311 -36.38   0
       141    205.0012    633.5266 300.0349296 +22.6260701     573.3277     72.22079      1.450     4.32     5.066948     20.40689       70.817        15     1.167     0.955  37.98   0
       142    219.1176    631.7940 300.0398819 +22.6298060     619.9632     72.25769      1.601     5.01     5.063277     20.40689     68.60317        12     1.214     0.905  27.74   0
       143    276.1704    628.9672 300.0585436 +22.6461025     372.8815     72.34985      1.416     5.02     4.972608     20.40689     43.74712         9     1.111     0.675  74.33   0
       144    988.4266    628.9909 300.2804210 +22.8595204     520.4204     72.33142      1.644     2.93     5.179586     20.40689     72.78857         9     0.889     0.741 -62.95   0
       145    244.8818    628.8831 300.0488396 +22.6366964      616.275     72.46027      1.610     4.42     5.028235     20.40689     49.63084        11     0.959     0.848  42.53   0
       146    565.4961    628.1339 300.1488629 +22.7325900     482.0573     72.44188      1.529     4.26     5.450594     20.40689     62.58514        12     1.192     0.694  -4.08   0
       147    466.3662    627.2534 300.1182833 +22.7026281     1886.112     72.34985      1.522     2.87     5.347833     20.40689     208.9852        22     1.161     1.018  28.98   0
       148    499.9700    626.1184 300.1291135 +22.7123738     321.9892     72.34985      1.464     5.05     5.446027     20.40689     33.43785         8     1.020     0.708  59.71   0
       149    120.4061    622.0304 300.0123647 +22.5974001     20011.38     72.33142      1.716     3.39     5.164623     20.40689      2002.78        66     1.487     1.374  23.72   0
       150    551.3511    622.6509 300.1462390 +22.7267762     1037.049     72.36826      1.419     2.74     5.522628     20.40689      119.746        16     1.105     0.862 -28.55   0
       151    586.4798    621.7023 300.1574876 +22.7370305     459.8836     72.46027      1.584     4.29       5.4785     20.40689     38.56807         7     0.881     0.647 -13.02   0
       152    468.7257    619.6357 300.1214923 +22.7011477     175.6354     72.27613      1.451     4.47     5.419468     20.40689     31.01244         5     1.191     0.476  -3.64   0
       153    969.6989    609.0975 300.2810407 +22.8481938     1122.408     72.55217      1.777     3.57     5.325314     20.40689     102.8816        19     1.165     1.067  41.98   0
       154     66.3589    606.0831 300.0007472 +22.5766131     1583.802     72.29457      2.069     5.11     5.325105     20.40689     114.1549        30     1.665     1.217 -83.89   0
       155    836.0793    607.3325 300.2399389 +22.8076742     400.3618     72.44188      1.384     3.64     5.507902     20.40689     45.87858         7     0.772     0.624   4.18   0
       156     42.3544    623.4673 299.9876416 +22.5744007     729.8359     72.33142      1.838     4.16     5.284876     20.40689     68.81364        13     1.263     0.859  35.88   0
       157    514.9193    603.2934 300.1411824 +22.7102985     469.6576     72.47866      1.153     3.14     5.641253     20.40689     55.84156         8     0.788     0.687  34.37   0
       158    908.8627    601.3813 300.2645698 +22.8277596     894.1446     72.29457      1.953     6.96       5.5158     20.40689     69.33489        20     1.899     0.862  10.52   0
       159    471.5572    595.4373 300.1302340 +22.6950467     808.7194     72.40508      1.579     2.63     5.558075     20.40689     88.33941        13     0.937     0.853  46.50   0
       160    619.3968    594.1389 300.1766942 +22.7389753     438.3088       72.313      1.260     3.33     5.733907     20.40689       56.971        10     1.027     0.690 -19.55   0
       161    666.8463    592.4103 300.1920381 +22.7526944     409.3838     72.34985      1.428     4.09     5.785501     20.40689     52.88545         9     0.981     0.722  43.46   0
       162    637.3392    592.1570 300.1829273 +22.7437815      667.874     72.33142      1.419     3.54     5.764128     20.40689     61.94307        10     0.976     0.676 -22.37   0
       163    515.6635    591.2768 300.1453173 +22.7070700     933.3542     72.40508      1.531     3.37     5.664061     20.40689     83.93517        14     0.990     0.913  85.64   0
       164    949.5812    587.0290 300.2819332 +22.8358256     3277.257     72.33142      1.530     3.10     5.437727     20.40689     300.9549        29     1.204     1.142  40.55   0
       165    481.3820    586.7443 300.1361161 +22.6954946     1706.364       72.313      1.354     2.50     5.614183     20.40689     229.7101        18     1.006     0.948  26.05   0
       166     43.1833    580.1817 300.0019578 +22.5622295     5089.252       72.313      1.772     3.37     5.716754     20.40689     486.5658        38     1.373     1.308  -3.55   0
       167    511.0260    577.6893 300.1482865 +22.7017775     401.6874     72.27613      1.296     3.23     5.678538     20.40689     49.07056         6     0.892     0.545 -60.65   0
       168    988.9299    577.2426 300.2973882 +22.8447925     363.5563     72.29457      1.492     4.40     5.308072     20.40689     40.50442         6     0.946     0.581  23.30   0
       169    344.6791    573.4736 300.0978803 +22.6507097     9124.972     72.44188      1.481     2.75     5.241639     20.40689     1104.055        39     1.207     1.163  57.62   0
       170    467.1228    570.5328 300.1369422 +22.6865651     9127.899     72.42348      1.404     2.57     5.590399     20.40689     1097.764        45     1.250     1.154  58.55   0
       171    232.8896    567.2292 300.0651350 +22.6154028     296.3953     72.29457      1.409     3.63     5.284745     20.40689     39.42821         6     0.769     0.612  78.29   0
       172    111.0935    566.9006 300.0273753 +22.5787862     348.4939     72.51543      1.367     3.47      5.55863     20.40689     41.61482         5     0.976     0.357 -33.59   0
       173    878.9327    564.4966 300.2672158 +22.8081941     1816.845     72.44188      1.487     3.19     5.509789     20.40689     209.8867        23     1.203     1.016 -70.76   0
       174    963.5062    562.0545 300.2943892 +22.8328140     12647.86     72.38667      1.546     3.13     5.416226     20.40689     1163.374        47     1.287     1.244 -36.87   0
       175    527.7332    560.1579 300.1591824 +22.7017481     11693.93       72.313      1.374     2.60     5.742587     20.40689     1397.794        43     1.162     1.151  60.84   0
       176    697.0534    556.2233 300.2132037 +22.7513452     579.9247     72.34985      1.383     4.79      5.78715     20.40689     73.56748        12     1.119     0.813 -39.96   0
       177    255.1615    555.4717 300.0758798 +22.6187049      1330.91     72.29457      1.487     3.04       5.3069     20.40689     155.5461        20     1.183     1.000   9.54   0
       178    413.3635    554.8959 300.1252870 +22.6659623     228.6442     72.33142      1.095     2.55     5.508677     20.40689      49.1988         6     0.732     0.588  29.20   0
       179    502.0500    553.2273 300.1534362 +22.6920612       421.65     72.34985      1.265     3.03     5.703356     20.40689     61.32566         8     0.845     0.672  39.05   0
       180    802.3624    548.4506 300.2485515 +22.7806522     635.4491     72.33142      1.224     2.60     5.567785     20.40689      97.0008        14     0.937     0.858  -9.47   0
       181    459.3992    548.2598 300.1417712 +22.6778532     4359.603     72.29457      1.383     2.63     5.632687     20.40689      525.996        28     1.130     1.054  29.56   0
       182    437.7662    546.7249 300.1355358 +22.6709292     1334.002     72.33142      1.368     2.58     5.603802     20.40689     182.2696        17     1.028     0.926  -2.62   0
       183    879.1440    544.0732 300.2739146 +22.8023860     1700.724     72.36826      1.519     3.42     5.507859     20.40689     153.1963        23     1.248     1.018 -47.11   0
       184    125.3792    543.5480 300.0393990 +22.5763680     245.4943     72.33142      1.501     5.89     5.686369     20.40689     31.26193         5     1.094     0.892  58.43   0
       185    576.0381    535.8912 300.1821060 +22.7092501       205532       72.313      1.392     2.62     6.025148     20.40689     26154.21       189     1.439     1.360 -10.34   0
       186    399.6099    542.0539 300.1251769 +22.6581521     447.8203     72.33142      1.404     2.28     5.522055     20.40689     58.27897         6     0.782     0.479 -81.59   0
       187    759.7612    541.0172 300.2376855 +22.7657573      732.363     72.34985      1.280     2.47     5.688618     20.40689     111.6921        10     0.828     0.745 -10.02   0
       188    262.1893    535.7906 300.0844565 +22.6151615      3562.74     72.22079      1.479     2.75     5.369597     20.40689     464.4204        33     1.281     1.126  48.36   0
       189    963.4987    537.3794 300.3024006 +22.8257168     279.6255     72.25769      1.066     4.19     5.418425     20.40689     30.27519         6     1.058     0.473  34.73   0
       190    828.2250    532.4028 300.2618265 +22.7837840     357.3141     72.27613      1.276     3.02     5.519114     20.40689     60.11424         8     0.815     0.743 -21.92   0
       191    192.0613    546.0044 300.0593317 +22.5970682      699.431       72.313      1.377     3.33     5.470234     20.40689      88.9165        12     1.037     0.801  24.91   0
       192    846.6193    530.5791 300.2681542 +22.7887678     317.4475     72.33142      1.441     4.99     5.500817     20.40689     30.36965         7     1.009     0.697 -42.48   0
       193    607.6245    522.8947 300.1961646 +22.7149789     181.3928     72.23925      1.140     3.48     6.204759     20.40689     32.08466         5     0.796     0.439  72.01   0
       194    466.6198    516.1347 300.1544507 +22.6707895     2847.938       72.313      1.430     2.47     5.712533     20.40689     344.2792        25     1.139     1.006  87.78   2
       195    310.5608    518.7421 300.1050386 +22.6247667     358.6205       72.313      1.585     4.14     5.436775     20.40689     53.63473         7     0.924     0.762  -0.85   0
       196    877.9218    512.2862 300.2838559 +22.7928813      404.452     72.47866      1.426     3.68     5.446786     20.40689     51.98152         8     0.882     0.635  42.48   0
       197    498.2749    508.7946 300.1666890 +22.6781663     604.2271     72.25769      0.675     1.15     5.802028     20.40689     310.6802         5     0.519     0.400   9.43   0
       198    784.3394    505.0256 300.2570343 +22.7627726     441.6666     72.33142      1.493     3.73     5.553409     20.40689     50.16711         6     0.968     0.493 -31.84   0
       199    863.6882    502.4038 300.2826259 +22.7857784     1752.168     72.23925      1.434     2.64     5.441013     20.40689     214.8785        19     1.099     0.939 -74.53   0
       200    735.0026    500.0150 300.2432828 +22.7465574       2417.9     72.16542      1.364     2.55     5.754968     20.40689     322.9653        22     1.067     0.974 -45.44   0
       201     94.2425    500.2146 300.0437908 +22.5545934     294.6009     72.34985      1.357     3.10     5.700077     20.40689     37.75266         6     0.734     0.579  45.43   0
       202    977.8612    493.5857 300.3211024 +22.8174226     1046.778     72.29457      2.185     4.83     5.272093     20.40689     80.39233        18     1.558     0.874  86.17   2
       203    944.3983    497.0215 300.3095471 +22.8083938      257.543     72.25769      1.408     4.46     5.336463     20.40689     35.30417         8     1.084     0.801 -53.62   0
       204    639.7578    496.8328 300.2146370 +22.7171158      405.228     72.38667      1.253     1.87     6.074882     20.40689      67.3381         6     0.673     0.542  31.20   0
       205    522.0443    496.0460 300.1782292 +22.6816256     755.7412     72.36826      1.363     2.96     5.945705     20.40689     96.33195        10     0.881     0.799 -16.61   0
       206    992.1710    494.1561 300.3253820 +22.8218700     1338.964     72.36826      1.527     3.24     5.249413     20.40689     119.3133        21     1.148     1.024 -19.52   0
       207    864.0007    492.6599 300.2858872 +22.7830705     2403.593     72.29457      1.712     5.03     5.426993     20.40689      240.884        29     1.521     1.084  79.19   0
       208    616.9724    489.6088 300.2098842 +22.7082146     771.2305     72.33142      2.108     6.65     6.175313     20.40689     81.16499        15     1.872     0.664  80.85   0
       209    403.2645    490.3914 300.1430888 +22.6444095     290.3242       72.313      1.137     3.07      5.75617     20.40689     53.00768         5     0.759     0.414  23.94   0
       210    902.1636    487.6332 300.2994213 +22.7930507     4380.806     72.36826      1.460     2.75     5.368432     20.40689     530.8447        33     1.189     1.155 -52.59   0
       211    455.7262    489.3152 300.1597672 +22.6598212     376.2729     72.44188      1.226     4.34     5.766463     20.40689     48.29382         8     0.932     0.675  18.02   0
       212    543.2651    487.4116 300.1876406 +22.6855027     205.6765     72.27613      0.937     3.01     6.085452     20.40689     38.13084         5     0.745     0.425  23.95   0
       213    562.5030    483.3578 300.1949479 +22.6901013     454.0364     72.33142      1.287     3.08     6.141787     20.40689     49.92485         9     0.929     0.674  55.09   0
       214    993.8178    478.0827 300.3311147 +22.8177402     690.1164     72.27613      1.449     4.11     5.222121     20.40689     91.27944        12     1.146     0.819 -84.09   0
       215    795.3907    471.6652 300.2713109 +22.7564917     151.7059     72.29457      0.963     3.32      5.44718     20.40689     46.72649         5     0.989     0.323  21.62   0
       216    126.7792    468.0119 300.0643580 +22.5551058     575.8669       72.313      1.607     3.12     5.687984     20.40689     68.21982         9     0.969     0.639 -60.72   0
       217    133.9196    477.6554 300.0634471 +22.5600150       1028.7     72.36826      1.575     3.37     5.665236     20.40689     124.5836        17     1.088     1.029 -33.05   0
       218    734.1707    462.0678 300.2553436 +22.7354007     458.3611       72.313      1.130     3.22     5.753432     20.40689     58.36187         9     0.907     0.683 -81.46   0
       219    623.3538    459.8152 300.2215447 +22.7015642     467.7895     72.34985      1.443     2.92     6.126219     20.40689     56.64264         6     0.738     0.609  21.88   0
       220    675.6680    458.0080 300.2384302 +22.7167135     769.4167       72.313      1.313     2.89     5.917817     20.40689     91.66508        11     0.851     0.818 -49.67   0
       221     35.3222    452.0179 300.0411263 +22.5230914     369.0385     72.33142      2.040     5.05     5.673973     20.40689     41.46712         5     1.460     0.495 -10.15   0
       222    990.0948    450.7952 300.3388121 +22.8087777     610.7702     72.23925      1.465     3.46     5.291397     20.40689     67.95121        13     1.108     0.793  29.72   0
       223    736.4427    450.2624 300.2598842 +22.7326875     852.3886     72.33142      1.402     2.83     5.747517     20.40689     93.34768        15     0.978     0.899 -46.46   0
       224    893.4775    446.5802 300.3100402 +22.7786456     1070.796     72.33142      1.437     2.78     5.379163     20.40689      146.692        17     1.060     0.970 -85.61   0
       225    877.8912    443.0509 300.3063248 +22.7729648     609.5029     72.36826      1.435     3.18     5.395404     20.40689     83.42299        11     0.969     0.792  81.04   0
       226    858.2537    442.8392 300.3002695 +22.7670251     303.5139     72.33142      1.366     4.39     5.404708     20.40689     50.40991         6     1.072     0.512 -61.16   0
       227    622.1383    440.8627 300.2273183 +22.6957534     3254.751     72.36826      1.328     2.43      6.10731     20.40689     449.6871        23     1.026     0.989 -83.18   0
       228    982.2731    440.0838 300.3398488 +22.8033559     619.9376     72.44188      1.486     2.78     5.321528     20.40689     70.00304         9     0.913     0.669  16.11   0
       229     98.3094    431.9475 300.0672148 +22.5362169     330.1277     72.36826      1.393     3.83     5.769876     20.40689     38.83017         9     0.912     0.691  21.71   0
       230    393.6277    428.4998 300.1601808 +22.6237438     323.4486     72.27613      1.407     3.77     5.658257     20.40689     45.92993         7     0.891     0.834  -9.06   0
       231    462.2188    428.0292 300.1816830 +22.6441602     314.5166     72.33142      1.397     3.13     5.725055     20.40689     50.48827         7     0.919     0.571 -11.07   0
       232   1006.9834    426.7823 300.3518769 +22.8069253     338.1415       72.313      1.858     3.79     5.344252     20.40689     37.57732         5     1.151     0.358 -10.85   0
       233    991.9915    418.9015 300.3497570 +22.8001718     1030.624     72.20234      1.411     3.28     5.366891     20.40689     119.4599        14     1.043     0.895  59.09   0
       234    905.4471    419.8949 300.3224357 +22.7745545     541.0592     72.34985      1.523     2.82      5.38346     20.40689     67.03775        11     0.966     0.831 -13.92   0
       235    732.8404    414.7769 300.2702799 +22.7214078     1163.627     72.36826      1.389     2.58     5.754237     20.40689     162.5831        14     0.997     0.856  74.24   0
       236    528.6067    415.2011 300.2065165 +22.6603628     410.1842     72.14695      1.372     3.62     5.783169     20.40689     51.83133         6     0.827     0.603 -59.46   0
       237    236.6623    413.2578 300.1162950 +22.5723255     840.3371     72.38667      1.854     3.18     5.729334     20.40689     84.20987        10     0.919     0.823   6.93   0
       238    299.0431    408.5663 300.1372206 +22.5896742     3615.819     72.38667      1.385     2.58     5.907209     20.40689     452.5641        28     1.174     1.048  57.40   0
       239    246.2256    403.2691 300.1225110 +22.5723233     7594.436     72.33142      1.443     2.67     5.810798     20.40689     876.0707        38     1.273     1.143  56.85   0
       240   1012.2610    398.3445 300.3627542 +22.8003243     1880.331     72.40508      1.535     2.90     5.307447     20.40689     209.7814        25     1.165     1.146 -16.11   0
       241    387.0812    397.5653 300.1681833 +22.6128957     4916.371     72.27613      1.390     2.53     5.688108     20.40689      614.713        29     1.168     1.023  63.09   0
       242    631.3058    394.3800 300.2452613 +22.6851393     18633.78     72.25769      1.310     2.36     6.014402     20.40689     2455.949        53     1.208     1.123  76.56   0
       243    648.8784    394.5272 300.2506882 +22.6904442      828.674     72.44188      1.804     6.06     5.971461     20.40689     65.22691        16     1.558     0.844 -34.24   0
       244    477.3741    395.3148 300.1970188 +22.6393011     538.4791       72.313      2.374     8.36     5.767028     20.40689      42.8642        12     2.368     0.825  13.59   0
       245    258.2801    392.3074 300.1298175 +22.5727880     175.4708     72.44188      1.389     4.83     5.892194     20.40689     37.25703         6     0.963     0.687 -17.44   0
       246    874.4240    390.7687 300.3222135 +22.7568921     241.5959     72.33142      1.186     3.48     5.399665     20.40689      34.9916         5     0.739     0.474 -75.76   0
       247    828.2965    385.2152 300.3096317 +22.7414871     301.3365     72.23925      1.179     2.77     5.371062     20.40689     66.92466         7     0.914     0.646 -46.72   0
       248    251.3099    381.5677 300.1311348 +22.5676146     429.0673     72.29457      1.593     4.11     5.917392     20.40689      51.1544         6     0.723     0.699  58.22   0
       249    964.8439    377.0310 300.3548764 +22.7800034     764.9379     72.36826      1.574     4.60      5.29041     20.40689     78.20071        18     1.302     1.054  61.91   0
       250    501.9574    376.5421 300.2107648 +22.6412710     420.9588       72.313      1.342     2.89     5.798245     20.40689     44.26002         6     0.770     0.496   4.86   0
       251    185.8737    374.4052 300.1131099 +22.5459453     1912.217     72.27613      1.414     3.13     5.945301     20.40689     215.4042        21     1.086     1.046  -2.04   0
       252    571.9680    363.7865 300.2367059 +22.6585750      6617.35       72.313      1.356     2.36     5.912364     20.40689     978.9904        32     1.119     1.055  72.04   0
       253    985.7452    364.1960 300.3655629 +22.7825660     1286.044     72.29457      1.589     3.18     5.232028     20.40689     173.2405        20     1.122     1.031 -15.52   0
       254    286.9444    363.2123 300.1481749 +22.5730217     671.9482     72.33142      1.336     2.79     6.022558     20.40689     85.88979        11     0.874     0.802   7.09   0
       255    144.3412    356.4413 300.1060261 +22.5283379     477.3712     72.33142      1.465     3.25      5.96038     20.40689     58.65614         9     0.987     0.676 -25.45   0
       256    831.8726    355.6858 300.3203295 +22.7340658     356.1962     72.44188      1.528     1.67     5.375394     20.40689     64.98786         5     0.694     0.405  23.64   0
       257    685.8218    354.1374 300.2753064 +22.6898960     439.9337       72.313      1.223     2.84     5.904859     20.40689     76.87509         9     0.921     0.650  33.08   0
       258    776.1822    352.7967 300.3039044 +22.7165640     1084.197     72.23925      1.409     2.72      5.50035     20.40689     142.9452        15     0.966     0.918 -44.62   0
       259    478.5883    350.0398 300.2120887 +22.6266551      6358.01       72.313      1.346     2.43     5.787476     20.40689     853.7452        33     1.151     1.058  87.75   0
       260    870.5553    344.5954 300.3359910 +22.7424546     1673.879     72.33142      1.592     2.59     5.400728     20.40689     193.3752        19     1.121     0.919 -86.23   0
       261    968.0963    344.8421 300.3663368 +22.7717171     686.9051     72.33142      1.681     3.26     5.248607     20.40689     66.27938        11     0.892     0.821  75.04   0
       262    463.2921    339.0348 300.2108974 +22.6189107     461.6029     72.27613      1.141     2.14     5.793261     20.40689     60.86051         7     0.680     0.648  13.21   0
       263    546.1759    336.7763 300.2374375 +22.6430872     440.5948     72.29457      1.245     2.34     5.870591     20.40689     77.67651         8     0.858     0.572   3.22   0
       264    526.4147    334.3357 300.2320755 +22.6364673     360.5122     72.29457      1.364     3.45     5.848873     20.40689     37.11432         5     0.758     0.455  71.83   0
       265    843.3412    332.2647 300.3315055 +22.7307628     696.3493     72.36826      1.503     3.14     5.406525     20.40689     72.55177        12     0.982     0.795  30.89   0
       266    366.2102    329.1965 300.1838731 +22.5870007     2507.177     72.14695      1.340     2.55     5.788474     20.40689     284.6119        20     1.042     0.970  66.18   0
       267     84.4857    326.6752 300.0970782 +22.5018487     1124.582     72.44188      1.601     3.40     5.841421     20.40689     129.6453        17     1.165     0.995 -75.83   0
       268    713.8212    324.4160 300.2936756 +22.6897340     202.3695     72.29457      1.182     2.82     5.875812     20.40689     34.25365         5     0.721     0.455 -19.76   0
       269    335.4690    318.6401 300.1777326 +22.5747576     29660.09     72.29457      1.423     2.50     5.825986     20.40689     4072.472        66     1.293     1.192  58.99   0
       270    870.2189    316.2305 300.3450895 +22.7341956     1363.465     72.33142      1.436     2.73     5.405195     20.40689     182.0317        20     1.145     0.984  83.04   0
       271    825.1562    314.3712 300.3316407 +22.7201735     253.2114     72.36826      1.066     3.43     5.435225     20.40689     36.72533         5     0.741     0.460  14.66   0
       272     31.7991    306.3176 300.0873093 +22.4802096     4956.638     72.22079      1.642     3.22     5.942316     20.40689     503.7213        40     1.384     1.258  46.54   0
       273    785.4853    305.3727 300.3221917 +22.7057112     456.9785     72.33142      1.208     2.61     5.580677     20.40689     68.74307        10     0.860     0.759 -50.29   0
       274    209.3445    305.2619 300.1428411 +22.5331221     459.4499     72.40508      1.386     4.01     5.983704     20.40689       63.757         8     1.068     0.610 -16.00   0
       275    434.1588    303.8965 300.2132284 +22.6000865       488.76     72.34985      1.276     2.77     5.790687     20.40689      75.3781         9     0.895     0.654 -70.30   0
       276    745.9969    298.5944 300.3120813 +22.6919415     1901.111     72.14695      1.314     2.30     5.855487     20.40689     302.5889        19     1.027     0.918 -38.14   0
       277    554.4474    293.4030 300.2540850 +22.6330975     243.3046       72.313      1.217     3.70     5.895504     20.40689     41.99057         7     0.845     0.686  82.40   0
       278    961.3368    291.8743 300.3814135 +22.7544561     657.6703     72.36826      1.483     3.41     5.341856     20.40689     70.71314        10     1.079     0.649  18.18   0
       279    407.7523    283.0056 300.2117861 +22.5861732     2185.656       72.313      1.575     3.49     5.779267     20.40689     232.7293        24     1.286     1.040  65.51   0
       280    839.2010    277.3400 300.3480336 +22.7137262     325.2926     72.29457      1.246     1.98     5.446749     20.40689     50.02137         5     0.702     0.435  19.83   0
       281    847.1135    276.1693 300.3508807 +22.7157574     616.7385       72.313      1.201     2.65     5.430695     20.40689     78.53914        10     0.886     0.697  -5.26   0
       282    728.9134    273.9020 300.3147668 +22.6797268     450.0894     72.49705      1.325     2.26     5.903356     20.40689     71.44334         6     0.732     0.542  45.76   0
       283    697.4128    273.1401 300.3051967 +22.6700778     220.0952     72.29457      1.223     3.43     5.926764     20.40689     32.32471         5     0.776     0.438  69.37   0
       284    483.5703    262.3662 300.2420823 +22.6029504     1146.197     72.34985      1.323     2.37     5.854524     20.40689     167.2206        17     1.113     0.845  70.99   0
       285     56.3605    262.8180 300.1090511 +22.4750820     435.5628     72.34985      2.078     2.09     5.937334     20.40689     43.02737         5     0.706     0.438 -69.14   0
       286    290.8316    262.6112 300.1820203 +22.5452869     357.2437     72.33142      1.488     3.38     5.879285     20.40689      38.2136         5     0.827     0.399  22.78   0
       287    994.7322    258.8580 300.4025435 +22.7549482     369.0544     72.36826      1.507     2.54     5.297122     20.40689     66.64983         7     0.931     0.524  17.97   0
       288    866.3484    255.8434 300.3634723 +22.7156669     291.5251     72.36826      1.385     3.33     5.375122     20.40689      44.2405         5     0.960     0.352  43.20   0
       289    728.4005    254.3466 300.3209501 +22.6739496      2168.14     72.29457      1.299     2.39      5.84766     20.40689     290.5175        24     1.126     1.029  76.82   0
       290    989.7896    248.8354 300.4042522 +22.7505855     3283.009       72.313      1.478     2.83     5.300932     20.40689     353.5004        29     1.215     1.117 -76.93   0
       291    436.6683    238.2045 300.2353176 +22.5819590      637.704     72.29457      1.341     3.25     5.830312     20.40689     91.88881        12     0.968     0.881  58.10   0
       292    111.7346    232.3277 300.1361497 +22.4829222     1349.763     72.36826      1.731     3.43     5.922361     20.40689     126.8367        24     1.301     1.199 -31.06   0
       293    142.5345    232.5862 300.1456404 +22.4922265     519.7598     72.29457      1.259     3.11     5.948829     20.40689     71.30653         9     0.881     0.720   6.39   0
       294   1005.4440    229.6924 300.4153460 +22.7497600     593.1545     72.33142      1.536     3.23     5.295289     20.40689     55.78319        10     0.919     0.800 -63.48   0
       295    848.9637    226.0583 300.3677114 +22.7018961       313.84     72.33142      1.480     4.16     5.388502     20.40689      37.9898         7     0.898     0.551 -45.78   0
       296    195.5635    224.1773 300.1648549 +22.5057013     541.1264     72.34985      1.429     3.33     6.036905     20.40689     68.91114         9     0.941     0.748 -73.73   0
       297     51.2811    221.5811 300.1208458 +22.4617178     315.8823       72.313      1.530     3.53     5.970148     20.40689     36.48335         5     0.789     0.456 -16.93   0
       298    799.9993    215.7934 300.3557731 +22.6842905     637.2114     72.14695      1.342     2.69     5.557496     20.40689     104.2086        12     0.925     0.860 -67.14   0
       299    890.9547    209.1232 300.3862993 +22.7095887     391.2734       72.313      1.322     2.98     5.396055     20.40689     43.94142         5     0.631     0.582   5.37   0
       300    898.3405    204.9077 300.3899700 +22.7105857     2149.907     72.40508      1.505     2.79     5.426626     20.40689     244.6962        28     1.225     1.129  38.18   0
       301    316.7446    201.9881 300.2097420 +22.5356309     2125.486       72.313      1.402     2.43     5.900258     20.40689     304.3896        26     1.166     1.036  58.87   0
       302    394.5854    197.1216 300.2355420 +22.5575476     948.7874     72.34985      1.348     2.82     5.832941     20.40689     105.4875        14     0.983     0.857 -48.55   0
       303    796.7565    196.7413 300.3609406 +22.6778396     578.4672     72.29457      1.414     2.43     5.636244     20.40689     82.78847        11     0.882     0.765  37.03   0
       304    146.3368    197.5550 300.1581820 +22.4833035     413.4795     72.34985      1.845     3.45     5.998559     20.40689     36.80421         5     0.774     0.445 -20.37   0
       305    211.6107    189.4094 300.1811190 +22.5005212     794.9847     72.22079      1.556     2.65     6.062704     20.40689     99.31588        11     0.883     0.807 -32.04   0
       306    329.2296    188.7091 300.2179322 +22.5355547     143.8879     72.29457      1.260     3.89     5.877232     20.40689     36.74359         6     0.784     0.554 -44.46   0
       307    749.3697    186.2029 300.3495856 +22.6606268     1689.773     72.29457      1.347     2.43     5.740267     20.40689     222.4218        22     1.134     1.000 -79.81   0
       308    814.2465    185.8786 300.3699161 +22.6799485     613.9676     72.33142      1.419     3.57     5.611137     20.40689     59.70923        11     0.902     0.810  69.98   0
       309    232.8506    182.3150 300.1900247 +22.5048462      578.384       72.313      1.423     3.71     6.054445     20.40689     64.47353        10     1.069     0.779  54.06   0
       310   1020.8791    178.9624 300.4366143 +22.7397772     869.2185      69.2248      1.458     3.43     5.716022     20.40689     92.87032        12     1.004     0.797  30.37  16
       311    522.5911    178.7984 300.2813330 +22.5906125     404.2271     72.14695      1.444     3.20     5.900502     20.40689     60.52111         9     0.911     0.798 -67.91   0
       312    753.4414    177.6614 300.3536244 +22.6593885     861.9575       72.313      1.532     2.77     5.745836     20.40689     100.3663        13     0.928     0.900  19.47   0
       313    673.8990    176.9500 300.3290651 +22.6353772     1204.839     72.40508      1.357     2.76      5.81248     20.40689     165.0876        18     1.051     0.936 -44.62   0
       314    495.2395    173.1893 300.2746349 +22.5808103     383.2419     72.33142      1.487     3.81     5.865751     20.40689     43.69301         8     1.032     0.769  51.29   0
       315    600.1448    169.0257 300.3086560 +22.6110209     903.5789     72.33142      1.228     2.17     5.848219     20.40689       149.76        12     0.901     0.760 -51.99   0
       316    881.4285    167.8016 300.3967276 +22.6948493     778.7413     72.29457      1.408     3.33     5.496133     20.40689     96.29688        15     1.171     0.857 -69.56   0
       317    869.4884    168.3554 300.3928242 +22.6914363     1369.013     72.33142      1.424     2.80     5.415389     20.40689     194.9267        20     1.299     0.933 -58.56   0
       318    998.0690    157.9857 300.4362979 +22.7269171     1106.607     72.34985      1.441     3.43      5.88592     20.40689     129.7415        16     1.166     0.833  76.43   0
       319     22.2802    154.8625 300.1334661 +22.4338652     313.2938     72.44188      1.187     2.18     6.823859     20.40689     54.80165         6     0.714     0.578   8.55   0
       320    232.1746    150.9486 300.1999837 +22.4956313     878.5629     72.34985      1.586     3.15     6.047219     20.40689     86.52546        14     1.056     0.862  -1.06   0
       321     94.0362    145.4489 300.1588175 +22.4526643     2227.123     72.34985      1.627     2.80     6.110937     20.40689     269.1137        25     1.275     1.100  14.10   0
       322    917.2537    142.7950 300.4160096 +22.6983712     800.6509       72.313      1.590     3.29     5.856465     20.40689      107.828        14     1.106     0.909   6.65   0
       323     43.8832    142.5997 300.1441543 +22.4368172     423.3518     72.20235      1.301     3.55     6.606022     20.40689     51.71672         9     0.921     0.742 -37.71   0
       324    251.4025    138.8496 300.2098863 +22.4979145     5868.574     72.33142      1.493     2.65     6.012369     20.40689     727.1461        39     1.337     1.168  58.19   0
       325    233.3606    139.8219 300.2039597 +22.4927894     264.8849     72.36826      1.204     3.50     6.048844     20.40689     45.02861         5     1.006     0.469 -31.63   0
       326     35.4901    133.1897 300.1445964 +22.4315992      1323.93     72.27613      1.702     3.89     6.695137     20.40689      132.978        24     1.317     1.217   3.76   0
       327    234.6347    129.6097 300.2076664 +22.4902366     662.2156       72.313      1.519     3.96     6.047921     20.40689     69.30158        13     1.119     0.885  20.46   0
       328    895.6423    120.6182 300.4164582 +22.6855243     3599.389     72.34985      1.512     2.73     5.843212     20.40689     443.5388        32     1.274     1.123 -79.90   0
       329    999.3020    119.4397 300.4491796 +22.7161913     2913.452     72.33142      1.616     2.76     5.943498     20.40689     353.4337        31     1.298     1.174  77.20   0
       330    445.0270    115.7323 300.2776294 +22.5492572      715.363       72.313      1.277     2.92     5.923797     20.40689     106.7778        11     1.001     0.725 -75.60   0
       331    197.9988    116.5193 300.2005163 +22.4755006     364.8803     72.22079      1.440     3.68     6.066813     20.40689     41.98475         6     0.791     0.492   8.26   0
       332    559.4000    113.9251 300.3138281 +22.5829790     276.0224     72.20235      1.099     2.55      5.96432     20.40689     51.52446         5     0.747     0.542  -9.95   0
       333    369.2974    107.4170 300.2567542 +22.5241905     738.1987     72.23925      2.421     4.17     5.895804     20.40689     62.79335        13     1.218     0.901 -41.20   2
       334    904.1730    106.3147 300.4237558 +22.6839599     228.9794     72.33142      1.227     4.13      5.94976     20.40689     33.89104         6     0.769     0.632 -45.99   0
       335    135.1109    104.8997 300.1847294 +22.4533221     526.2006     72.49705      1.402     3.42     6.067023     20.40689     70.10815        11     1.094     0.623 -28.14   0
       336    496.3696    102.9106 300.2977701 +22.5609427     1641.332     72.29457      1.355     2.79     5.977003     20.40689     198.4779        17     1.053     0.899  69.91   0
       337    424.3700    103.4340 300.2751856 +22.5395364      437.761     72.34985      1.364     4.52     5.931347     20.40689     67.01647         9     1.141     0.780  70.54   0
       338     33.6049    103.8204 300.1535302 +22.4225985     172.5761       72.313      1.128     2.58     6.705039     20.40689     39.67105         5     0.724     0.441  68.53   0
       339    557.9555    102.3208 300.3171397 +22.5792095     444.7366       72.313      1.375     3.26     5.978198     20.40689     47.52173         8     0.948     0.616  -9.68   0
       340    240.0360     98.6358 300.2193861 +22.4829538     489.6496     72.40508      1.572     3.37      6.04631     20.40689     68.71138         9     1.073     0.660 -23.59   0
       341    784.8185     92.8108 300.3909138 +22.6443673     335.7194     72.29457      1.212     2.61      5.88876     20.40689     61.94284         6     0.746     0.538  36.15   0
       342    369.8039     88.4794 300.2630499 +22.5188984     172.8285     72.23925      0.921     2.27     5.945223     20.40689     42.39376         5     0.696     0.469 -19.61   0
       343    681.2674     84.3312 300.3613866 +22.6109425     202.5613     72.38667      1.110     3.77     6.039859     20.40689     38.03561         5     0.897     0.454  46.23   0
       344    270.4049     82.6783 300.2340040 +22.4874637     6094.805     72.23925      1.546     2.82     5.999044     20.40689     754.7653        37     1.335     1.151  55.38   0
       345    776.7386     83.4006 300.3914449 +22.6392423     501.5461     72.29457      1.939     4.97     5.930982     20.40689     44.11466         7     1.005     0.696  -6.37   0
       346    121.4539     82.3175 300.1878029 +22.4427426     757.4116     72.36826      1.470     2.87     6.042234     20.40689     85.30809        14     1.026     0.828 -15.35   0
       347    899.8771     80.6746 300.4307268 +22.6752958     331.6147     72.42348      1.319     2.62     6.112221     20.40689     45.42023         5     0.846     0.468   0.94   0
       348    242.4756     76.9762 300.2271648 +22.4774599     318.6632     72.36826      1.120     2.24     6.154652     20.40689      53.6372         6     0.744     0.489 -79.72   0
       349    746.1866     74.4245 300.3848304 +22.6275184       264.86     72.33142      1.163     3.35      5.95169     20.40689     39.95514         5     0.738     0.449  20.59   0
       350     32.2509     73.2809 300.1630071 +22.4134203     489.8884     72.34985      1.586     4.76     6.458563     20.40689     56.23417        10     1.185     0.764  -7.25   0
       351    516.5166     68.1369 300.3153141 +22.5569747     6308.917     72.42348      1.379     2.53     6.142082     20.40689     738.7211        38     1.218     1.142  82.62   0
       352    401.9646     67.8181 300.2797552 +22.5225885     624.0016     72.33142      1.395     4.52     5.982241     20.40689     81.06742        12     1.120     0.883  51.79   0
       353    709.9783     59.3514 300.3784300 +22.6123477     312.0773     72.33142      1.361     5.09     6.125556     20.40689     40.39808         8     0.949     0.770  60.54   0
       354    768.9705     57.8989 300.3972885 +22.6295806      783.062     72.25769      1.435     2.82     6.057147     20.40689     111.4933        11     1.083     0.761  82.15   0
       355    861.6025     56.9877 300.4264666 +22.6570299     443.5399     72.16542      1.339     3.85     6.204497     20.40689     59.14359         9     1.073     0.787 -23.13   0
       356     80.8913     54.8132 300.1841079 +22.4226882     288.6423     72.27613      1.770     4.10     6.092072     20.40689     28.62874         6     1.165     0.412 -29.03   0
       357    209.8245     51.9570 300.2251182 +22.4604901     536.6171     72.38667      1.246     2.04     6.317463     20.40689     74.82722         8     0.768     0.614 -45.49   0
       358    567.8251     50.3847 300.3370464 +22.5672272     486.1657     72.34985      1.637     3.51     6.293453     20.40689     63.45589        11     1.114     0.829 -73.80   0
       359    644.8821     48.2316 300.3617488 +22.5896695     6256.815     72.33142      1.394     2.63     6.332891     20.40689     848.1495        33     1.232     1.072  73.94   0
       360    419.6880     47.1309 300.2919758 +22.5219472      1466.17     72.49705      1.403     2.76     5.986994     20.40689     172.4158        19     1.086     0.976  62.50   0
       361    686.0579     45.8700 300.3753445 +22.6013116     730.3511     72.34985      1.290     2.76     6.300229     20.40689     137.6324        11     0.872     0.841  85.62   0
       362    756.1527     43.6918 300.3978970 +22.6216578     272.5886     72.34985      1.360     2.37     6.129468     20.40689     48.44488         6     0.711     0.601  76.20   0
       363    702.1380     41.7505 300.3816906 +22.6049380     531.9561     72.38667      1.303     2.77     6.268909     20.40689     88.98195        11     0.987     0.752 -28.34   0
       364    971.9740     39.8368 300.4664538 +22.6851042     561.2941     72.34985      1.556     3.24     6.524158     20.40689     62.72473        10     0.901     0.780  54.24   0
       365    168.7016     39.9466 300.2162227 +22.4447213     635.9476     72.42348      1.406     2.67     5.938293     20.40689     85.55081         9     0.897     0.644 -16.50   0
       366     15.6636     40.0477 300.1686221 +22.3989035     340.7677     72.34985      1.145     2.14     6.109757     20.40689     47.70417         5     0.819     0.472  88.31   0
       367   1011.1713     38.9821 300.4789618 +22.6965796     230.7431       72.313      1.251     3.77     6.528952     20.40689     34.87453         5     0.808     0.506  32.98   0
       368    740.4488     37.3734 300.3950495 +22.6151413     447.9801     72.34985      1.374     3.01     6.167659     20.40689     54.33594         6     0.843     0.482  -3.23   0
       369    704.0389     31.9889 300.3854463 +22.6026983     982.0411     72.33142      1.680     4.14     6.329396     20.40689      112.367        16     1.428     0.771  50.39   0
       370    689.1605     33.1821 300.3804229 +22.5985897     2810.281     72.34985      1.367     2.63     6.382159     20.40689     364.0388        25     1.151     1.054 -62.96   0
       371    330.0840     34.2734 300.2682569 +22.4914222     460.7059     72.44188      1.312     2.17     6.105484     20.40689     74.50992         7     0.798     0.555 -32.26   0
       372    775.5910     24.7629 300.4100906 +22.6220264     1554.988     72.33142      1.476     2.77     6.233412     20.40689     184.5222        21     1.147     0.994  88.97   0
       373    853.4254     19.8375 300.4359555 +22.6438920     272.8686     72.34985      1.267     2.93     6.459878     20.40689     32.38114         5     0.731     0.447 -68.54   0
       374    713.5443     18.1799 300.3928834 +22.6015692     697.5844       72.313      1.179     2.29     6.381425     20.40689     110.6798        10     0.872     0.650 -30.02   0
       375    756.4664   1016.2611 300.0821697 +22.9012873     500.7355     72.36826      2.201     4.93     3.926273     20.40689     43.55219         8     1.059     0.649  89.08   2
       376     91.9207     17.5292 300.1996170 +22.4152800      570.467     72.44188      1.528     4.01     5.987583     20.40689     52.93898         7     0.971     0.473 -10.83   0
       377    318.0196   1013.9313 299.9464085 +22.7691169     1402.033       72.313      2.255     4.60     10.40319     20.40689     112.2646        28     1.476     1.345  -1.73   0
       378    805.4902     14.2982 300.4228032 +22.6279593      504.954     72.51543      1.666     3.51     6.298339     20.40689     51.23473         9     1.008     0.689 -20.16   0
       379    160.3305   1011.6695 299.8981093 +22.7211451     81.06075     72.38667      1.759     5.42     95.59442     20.40689     31.78873         5     1.764     0.470 -56.24   2
       380    153.7207   1009.1522 299.8968736 +22.7184394     1472.681     72.34985      3.087    12.28     92.19273     20.40689     66.61248        40     2.752     1.645  -0.28  18
       381    156.6609   1005.9688 299.8988233 +22.7184092     272.2774     72.36826      1.120     3.88     90.18735     20.40689     39.25914         5     1.267     0.341  61.01   3
