#   1 NUMBER                 Running object number                                     
#   2 X_IMAGE                Object position along x                                    [pixel]
#   3 Y_IMAGE                Object position along y                                    [pixel]
#   4 ALPHA_J2000            Right ascension of barycenter (J2000)                      [deg]
#   5 DELTA_J2000            Declination of barycenter (J2000)                          [deg]
#   6 FLUX_APER              Flux vector within fixed circular aperture(s)              [count]
#   7 FLUXERR_APER           RMS error vector for aperture flux(es)                     [count]
#   8 FLUX_RADIUS            Fraction-of-light radii                                    [pixel]
#   9 FWHM_IMAGE             FWHM assuming a gaussian core                              [pixel]
#  10 BACKGROUND             Background at centroid position                            [count]
#  11 THRESHOLD              Detection threshold above background                       [count]
#  12 FLUX_MAX               Peak flux above background                                 [count]
#  13 ISOAREA_IMAGE          Isophotal area above Analysis threshold                    [pixel**2]
#  14 A_IMAGE                Profile RMS along major axis                               [pixel]
#  15 B_IMAGE                Profile RMS along minor axis                               [pixel]
#  16 THETA_IMAGE            Position angle (CCW/x)                                     [deg]
#  17 FLAGS                  Extraction flags                                          
         1    277.1206     27.5940 300.2940648 +22.4782635     518.4352     72.48127      2.215     3.52     4.724368     20.47004     63.91629        10     1.070     0.731 -52.62   0
         2    516.3494     16.1219 300.3722236 +22.5466162      1945.39     72.55523      1.275     2.29     4.538666     20.47004     266.3589        19     1.030     0.875  70.55   0
         3    239.2812     13.4273 300.2868902 +22.4628581     806.8905     72.57371      1.386     2.75     4.525991     20.47004     95.94662        12     0.948     0.798  71.25   0
         4    473.5329     10.0662 300.3608581 +22.5320549     1253.691     72.61065      1.182     2.29     4.462732     20.47004      192.019        16     0.972     0.815  87.77   0
         5    578.9780      6.6945 300.3947805 +22.5626576     1246.617     72.46277      1.273     2.12     5.079155     20.47004     208.3657        15     0.962     0.824 -81.33  16
         6    174.0228      5.6304 300.2691283 +22.4410668     616.6423     72.53675      1.795     3.90      4.38821     20.47004      67.5944        14     1.192     0.916  78.59  16
         7    399.5482      1.3824 300.3406476 +22.5074035     1301.435     56.68093      0.979     2.22     4.658868     20.47004     282.3069        13     1.114     0.567   3.88  26
         8    223.2560      3.6815 300.2850665 +22.4552576     503.5229     67.89636      1.494     3.38     4.361343     20.47004     54.98007        10     0.941     0.774  41.91  16
         9     97.7647   1014.5654 299.9176889 +22.7076150     1379.758     72.62911      6.237     8.18     39.41269     20.47004     54.00613        19     2.322     0.806  38.98  19
        10    181.2040   1002.2462 299.9476278 +22.7291397     1417.688     72.53675     11.825    27.35     14.00385     20.47004     54.32333        76     5.233     3.968  66.51  19
        11    190.3501   1021.5370 299.9441910 +22.7374139     4873.354     67.08178     10.632    36.68     14.37207     20.47004     105.3443       297    10.441     3.577  27.90  27
        12    182.2903   1023.3296 299.9411024 +22.7355075     2236.581     58.54287      8.310    16.33     16.33528     20.47004     100.5895        71     5.582     1.328   9.19  27
        13    153.3431   1023.6213 299.9320109 +22.7268993     779.6154     56.65727      9.576    11.79     24.09886     20.47004     44.68142        17     3.143     1.231 -16.50  27
        14    118.9061   1023.2336 299.9214360 +22.7164473     966.2324     58.88543     12.567    13.93     35.32318     20.47004     41.76307        21     4.854     1.112  -1.24  27
        15    120.6470   1017.5415 299.9238299 +22.7153391     994.5171     72.61065      9.021     9.81     33.17269     20.47004     46.07727        15     2.129     1.262  58.84  19
        16    102.3606   1015.8903 299.9186856 +22.7093747     1863.348     72.55523     12.502    19.85     38.53044     20.47004      64.1056        69     3.612     3.030  37.63  19
        17     36.6975    990.3672 299.9065947 +22.6823432     1092.159     72.53675     13.450    13.39     52.11086     20.47004     50.27753        28     3.548     1.405 -72.94   3
        18     30.0879    993.5886 299.9034932 +22.6812810     1812.721     72.49976      8.769    13.86     57.81459     20.47004     52.43613        49     2.695     1.981  41.97   3
        19     35.0052   1013.6797 299.8984810 +22.6885133     2474.214     72.48127      6.343    22.94     71.09978     20.47004     56.85413       122     4.428     3.300 -47.91  19
        20     44.1332   1021.3815 299.8988092 +22.6934611     1932.201     67.67878      8.050    17.33     71.42422     20.47004     65.17048        79     4.037     2.068 -17.76  27
        21    196.9769   1006.2623 299.9512230 +22.7350263      555.209     72.53675      1.475     4.82     11.37151     20.47004     61.62791        10     1.066     0.761 -40.92   0
        22    757.2670   1004.8578 300.1260512 +22.9027500     345.9761     72.59219      2.117     5.89      2.87097     20.47004     32.74019         6     1.547     0.630  50.62   0
        23    514.0719   1002.6984 300.0510151 +22.8291785     1514.692     72.70293      1.584     3.44     3.283211     20.47004     133.8721        20     1.098     1.076  56.58   0
        24    485.0396   1006.6019 300.0407082 +22.8215865     432.4821     72.57371      1.430     4.23     3.279448     20.47004     51.29612         8     0.982     0.764 -66.91   0
        25    408.0390    999.1498 300.0191735 +22.7963429     1043.624     72.57371      1.715     3.86     3.326767     20.47004     95.19352        18     1.227     0.998  15.31   0
        26    691.3976    999.5882 300.1072447 +22.8814826      370.867     72.37019      1.751     4.04     2.862783     20.47004      35.8764         6     1.105     0.422  34.35   0
        27    338.4904    997.3260 299.9981324 +22.7749465     6412.711     72.72137      1.697     3.35      3.67845     20.47004     576.6613        39     1.304     1.292  59.10   0
        28     64.6435    996.5021 299.9132787 +22.6924934     1437.129     72.55523      5.579    12.57     45.98701     20.47004     55.84789        33     2.979     1.475   4.82   0
        29     45.9025    985.1599 299.9111487 +22.6836158     817.3919     72.55523      2.960     7.27     45.39074     20.47004       51.995        15     1.437     1.125 -29.47   0
        30    371.2453    984.1246 300.0126179 +22.7809928     424.7408     72.53675      1.499     4.10     3.534888     20.47004     48.51987        11     1.055     0.788 -64.74   0
        31     34.0397    979.5475 299.9092907 +22.6784453     1621.553     72.53675      9.620    11.91     45.52428     20.47004     51.72637        39     2.458     1.678  58.83   3
        32     40.1942    975.7776 299.9124293 +22.6792136      1344.15     72.53675      9.871    13.25     40.80773     20.47004     44.52406        32     2.710     1.801  43.42   3
        33     28.0306    980.7943 299.9070184 +22.6769979     1448.591     72.55523      4.842    10.73     48.12651     20.47004     50.85617        29     2.237     1.566  51.10   3
        34     41.4802    964.1084 299.9166265 +22.6762566      1186.45     72.68448      6.590    11.84     31.85085     20.47004     37.53662        23     2.200     1.774  34.50   3
        35     26.7989    970.9273 299.9098471 +22.6738012     1648.899     72.44426      4.667    13.86     40.32195     20.47004     44.52891        45     2.823     1.893 -56.41   3
        36     33.7530    967.2217 299.9132131 +22.6748280     1691.535     72.59219      5.191    11.15     35.54961     20.47004     49.16919        38     2.019     1.714  80.65   3
        37     37.4109    964.7195 299.9151636 +22.6752096     917.3165     72.53675      2.603     6.93     33.39761     20.47004     46.59803        14     2.107     0.639  71.38   3
        38    884.7438    975.8466 300.1752283 +22.9326486     2127.706     72.59219      1.692     3.76     3.109402     20.47004     155.6089        25     1.259     1.156  57.41   0
        39     70.4060    974.4431 299.9222485 +22.6879039      487.914     72.57371      1.862     6.11     31.48613     20.47004     26.61036         7     1.621     0.647 -57.31   0
        40    534.7366    973.1619 300.0670621 +22.8269078     352.6022     72.53675      1.196     3.12     3.286833     20.47004     44.73311         7     0.839     0.581  55.04   0
        41    673.6071    964.7384 300.1130471 +22.8661486     766.3463     72.53675      1.872     5.30     3.005773     20.47004     61.29581        15     1.356     0.853  67.26   0
        42   1000.0448    963.7737 300.2151154 +22.9637460     376.3734     72.57371      1.686     4.87     3.197984     20.47004     39.99839         8     0.872     0.770 -11.28   0
        43     49.4898    962.7739 299.9195488 +22.6782795     913.7141     72.51826      4.279     9.22     29.58087     20.47004     39.37233        14     1.928     1.231  67.06   0
        44    708.3428    959.0613 300.1257155 +22.8749376     1083.156     72.62911      1.593     3.13     3.176822     20.47004     106.3507        18     1.062     1.031 -46.17   0
        45    485.4999    959.8441 300.0560712 +22.8083161     467.2633     72.57371      1.554     5.31     3.299472     20.47004     46.35913         9     1.044     0.762  22.75   0
        46    730.6792    952.6594 300.1347581 +22.8797991     11372.79     72.59219      1.584     3.11     3.343742     20.47004     1035.928        51     1.336     1.273 -81.79   0
        47    921.3544    952.2834 300.1943135 +22.9368604     557.6317     72.51826      1.654     5.10     3.196522     20.47004     48.26876        12     1.020     0.866  20.68   0
        48    776.1823    952.6675 300.1489341 +22.8934465     484.4842     72.55523      1.541     4.81     3.263177     20.47004     43.18631         9     0.986     0.665  73.41   0
        49    863.8527    945.8726 300.1784717 +22.9177822     285.2164     72.55523      1.476     5.43      3.17272     20.47004     32.60775         9     1.244     0.670 -73.03   0
        50     42.1551    944.3701 299.9232596 +22.6708040     293.3086     72.59219      1.425     5.89      17.3058     20.47004     50.56304        12     1.313     0.841  63.62   0
        51    782.1546    940.3671 300.1547988 +22.8917074     351.3619     72.61065      1.567     4.60     3.305837     20.47004     42.26532        10     1.002     0.777  45.81   0
        52    436.2447    940.7062 300.0469717 +22.7880490     395.2017     72.57371      1.546     3.00     3.344547     20.47004     57.32276         8     0.954     0.546  19.65   0
        53    922.4187    934.0536 300.2005787 +22.9319462     487.6831     72.53675      1.399     3.84     3.210468     20.47004      47.9362        12     0.953     0.912 -24.78   0
        54    739.1893    934.6906 300.1432579 +22.8771950     1276.641     72.49976      1.433     3.13     3.575223     20.47004     126.5159        18     1.083     0.989   7.66   0
        55    591.5009    931.8209 300.0981900 +22.8320782     476.4361     72.48127      1.633     4.01     3.292629     20.47004     61.08273         8     0.993     0.748  33.39   2
        56    777.5456    928.2023 300.1573215 +22.8868343     776.2082     72.51826      1.549     3.13     3.387627     20.47004     90.79362        15     1.070     0.888 -11.35   0
        57    115.9661    927.6573 299.9516292 +22.6881779     468.6058     72.57371      2.235     5.32     6.959344     20.47004      44.0737         7     1.494     0.535  26.50   0
        58    886.1315    925.0944 300.1921800 +22.9184968     335.6988     72.70293      1.716     6.53     3.239379     20.47004     43.94739         9     1.371     0.874 -43.06   0
        59    825.8238    919.4432 300.1752188 +22.8987953      664.121     72.61065      1.582     3.19     3.287354     20.47004     64.80936        11     0.913     0.822  37.51   0
        60    677.1428    918.6349 300.1291532 +22.8539813     661.3521     72.57371      1.424     3.07     3.225368     20.47004     68.15361        10     0.901     0.784   5.42   0
        61    280.2386    918.4588 300.0056846 +22.7348536     223.6725     72.57371      1.112     3.40     3.856381     20.47004     37.33389         5     0.794     0.421  23.34   0
        62    389.6382    915.0004 300.0408361 +22.7666929     4122.702     72.55523      1.500     2.84     3.481284     20.47004     458.0771        32     1.215     1.145  24.09   0
        63    688.5807    915.4692 300.1337464 +22.8565031     519.1326     72.55523      1.223     3.23     3.333221     20.47004     70.69889        12     1.065     0.752  35.88   0
        64     52.1072    903.7833 299.9395575 +22.6621630     640.8891     72.48127      2.498     5.31     5.738619     20.47004      42.8816         8     1.147     0.791 -69.10   0
        65    168.4752    903.6971 299.9757433 +22.6970749      375.812     72.70293      1.765     3.38     4.860635     20.47004     39.74216         5     0.734     0.449 -67.96   0
        66    433.1844    902.9774 300.0582970 +22.7763111     430.4897     72.55523      1.295     4.19     3.394303     20.47004     41.99082         7     0.731     0.685  15.00   0
        67    114.9000    900.4872 299.9601386 +22.6800714      871.354     72.72137      1.991     5.67      5.68776     20.47004     64.13955        18     1.371     1.071 -54.15   0
        68     91.8437    897.8821 299.9538224 +22.6724027     1670.171     72.51826      1.850     3.94     5.854342     20.47004     149.5648        26     1.308     1.234  61.67   0
        69     23.1157    899.3066 299.9320087 +22.6521751     760.9296      72.7398      5.380     7.02     5.270936     20.47004     48.35851        15     1.397     1.049   4.15   0
        70    720.2274    894.3629 300.1504736 +22.8599364     288.2564     72.57371      1.523     5.83     3.590034     20.47004     34.32114         7     1.116     0.857 -48.42   0
        71    963.7558    886.5417 300.2289320 +22.9306953     2064.064     72.57371      1.627     3.35     3.332877     20.47004     169.7875        30     1.333     1.216 -38.54   0
        72    918.0996    885.1788 300.2151372 +22.9166203     2131.519     72.48127      1.592     3.35     3.353142     20.47004     183.9429        27     1.218     1.180  -7.29   0
        73    623.6460    885.4941 300.1232752 +22.8284287     437.2059     72.57371      1.613     5.29     3.444993     20.47004     39.93575         8     1.366     0.580 -48.96   0
        74   1015.9689    881.2437 300.2469425 +22.9448212     320.5499     72.61065      1.704     5.81      3.35011     20.47004     30.46433         8     1.396     0.680 -23.91  16
        75    701.6263    878.9081 300.1497073 +22.8499237     713.4104     72.49976      1.502     2.85     3.561988     20.47004     79.07326        14     0.991     0.882  70.79   0
        76    124.1954    879.6052 299.9698209 +22.6768771     536.4423     72.40723      1.759     4.90     4.681647     20.47004     49.31608         8     1.168     0.582 -43.51   0
        77     59.1984    874.2976 299.9513534 +22.6558427     620.3585     72.46277      2.405     7.10     4.544514     20.47004     40.31443        13     1.307     1.081  43.63   0
        78    569.6630    873.0026 300.1105299 +22.8086543     4944.836     72.55523      1.425     2.60     3.413212     20.47004     596.0969        29     1.137     1.075 -39.59   0
        79    371.9864    870.3915 300.0498593 +22.7486042     544.6761     72.44426      1.334     3.56     3.553739     20.47004     70.57407        11     0.970     0.803 -86.13   0
        80    119.8814    867.0122 299.9725772 +22.6719728     1376.225     72.53674      1.617     3.43     4.141135     20.47004     124.6606        22     1.213     1.087  36.30   0
        81    590.2536    865.5500 300.1193659 +22.8126917     744.6876     72.59219      1.315     2.49     3.469806     20.47004     89.93068        11     0.894     0.756 -52.47   0
        82    388.3235    864.8746 300.0567365 +22.7519239     290.7166     72.64758      1.420     5.19     3.506642     20.47004     42.88811         8     1.425     0.535  -4.70   0
        83    139.4647    863.8814 299.9796812 +22.6769541     454.9621     72.66603      1.420     3.75     4.026983     20.47004     50.85456         6     0.960     0.495 -85.58   0
        84    506.6245    856.2009 300.0963718 +22.7849261      299.768     72.49976      1.435     4.92     3.510271     20.47004     50.89238         8     1.118     0.614 -12.35   0
        85   1000.9615    853.4167 300.2513152 +22.9323330     441.2341     72.57371      1.713     4.05     3.458755     20.47004     37.13398         5     1.056     0.444  61.51   0
        86    962.5674    852.9047 300.2395061 +22.9206806     1184.083     72.53675      1.654     3.54     3.458755     20.47004     91.16291        18     1.147     0.998  54.04   0
        87    745.7285    852.7308 300.1719650 +22.8556343     4142.486     72.62911      1.397     2.63     3.751353     20.47004     457.4062        30     1.134     1.079 -10.66   0
        88    153.9686    846.7650 299.9897567 +22.6764016      575.433     72.57371      2.051     5.08     4.004791     20.47004     58.12398        13     1.172     1.065 -84.63   0
        89    462.6240    845.3575 300.0862049 +22.7686168      668.326     72.61065      1.393     2.85     3.592102     20.47004     89.84664        12     0.916     0.824 -46.22   0
        90    108.8993    843.5875 299.9767849 +22.6619621     1011.652     72.46277      1.801     4.11     4.044713     20.47004     94.40837        19     1.230     1.105   8.10   0
        91    258.7111    835.4847 300.0259858 +22.7046040     53062.93     72.68448      1.531     2.83     4.029737     20.47004      5409.03       100     1.403     1.391  55.88   0
        92    524.4408    838.5747 300.1076518 +22.7852135     533.3449     72.61065      1.505     4.30     3.568615     20.47004     56.19764        12     1.122     0.804 -56.61   0
        93    516.6026    834.3244 300.1065946 +22.7816431     1722.909     72.46277      1.450     2.40     3.614356     20.47004     208.8513        18     0.980     0.960  89.91   0
        94    929.3954    833.3727 300.2355154 +22.9051309     908.7391     72.51826      1.635     3.22     3.563237     20.47004     93.62083        18     1.117     1.007  54.77   0
        95    187.1767    833.0524 300.0045385 +22.6824380     587.8731     72.57371      1.722     5.35     4.031177     20.47004     52.99889        14     1.319     0.907  76.46   0
        96    545.8189    830.5270 300.1169249 +22.7893165     862.3667     72.55523      1.323     2.63     3.561608     20.47004     102.4662        13     0.896     0.868 -50.03   0
        97    556.3373    828.9662 300.1207073 +22.7920234     523.9972     72.55523      1.382     3.65     3.578113     20.47004      65.7713        13     1.102     0.792 -12.15   0
        98    876.1544    825.9875 300.2213168 +22.8870540     270.4905     72.55523      1.046     2.84     3.810043     20.47004     52.88039         6     0.876     0.464 -53.86   0
        99    662.0202    824.7610 300.1549858 +22.8225088     469.6228     72.59219      1.470     3.86     3.634133     20.47004     46.72009        10     0.949     0.713  87.27   0
       100    456.7569    822.4296 300.0918375 +22.7602799     172.5876     72.59219      1.121     4.05     3.691961     20.47004     38.23639         6     0.902     0.521  42.34   0
       101    699.5688    815.2018 300.1697920 +22.8310235     672.3661     72.51826      1.310     2.65     3.791575     20.47004     97.42991        13     1.000     0.778 -54.49   0
       102    308.4375    812.6816 300.0488662 +22.7129868     31014.06     72.51826      1.446     2.51     4.074722     20.47004     3835.508        77     1.315     1.293  -3.15   0
       103    322.6583    813.1547 300.0531351 +22.7173893      2021.71     72.59219      1.397     2.61     4.051437     20.47004     259.6777        23     1.080     1.014  34.72   0
       104    831.6035    808.3734 300.2131583 +22.8686439     2708.651     72.51826      1.340     2.53     4.025899     20.47004     297.3996        22     1.035     0.967 -31.64   0
       105    319.5107    806.9698 300.0541678 +22.7146712     593.9177     72.51826      1.401     3.83     4.094084     20.47004     74.89978        10     1.063     0.679  40.55   0
       106    589.6298    804.4482 300.1390486 +22.7949726     820.2992     72.57371      1.219     3.58     3.684644     20.47004     115.6141        16     1.200     0.845 -36.61   0
       107    425.8970    804.8694 300.0879463 +22.7459856     418.6825     72.68448      1.360     3.45     3.639597     20.47004     55.29249         9     0.894     0.763 -17.66   0
       108    190.9201    804.6288 300.0149471 +22.6754127     765.6274     72.57371      1.409     3.36     4.069689     20.47004     83.79348        14     1.068     0.864  29.51   0
       109    484.1783    802.5597 300.1068346 +22.7628049     230.8635     72.59219      1.228     2.56     3.886481     20.47004     43.80138         5     0.704     0.480 -14.17   0
       110    436.5773    799.3446 300.0930666 +22.7476046     802.4638     72.59219      1.300     2.43     3.716918     20.47004     108.8771        12     0.929     0.757  25.71   0
       111    837.7914    796.2074 300.2190445 +22.8670057     524.7363     72.40723      1.221     3.45     4.079877     20.47004     63.75971        10     1.039     0.655  43.99   0
       112    585.1597    796.2359 300.1403278 +22.7912756      304.865     72.61065      1.576     3.40     3.716754     20.47004     31.53794         5     0.969     0.345 -43.73   0
       113    382.4452    794.4406 300.0778190 +22.7299593     413.3165     72.62911      1.319     3.34     3.915576     20.47004     58.43947         9     0.981     0.729 -46.01   0
       114    339.1164    795.6283 300.0639544 +22.7173009     402.7115     72.55523      1.305     3.44     4.129187     20.47004     39.50965         5     0.759     0.450 -16.80   0
       115    294.6933    794.9723 300.0503517 +22.7037843     242.5959     72.46277      1.223     2.54     4.174878     20.47004     46.02024         7     0.711     0.656  65.11   0
       116     23.9526    794.0526 299.9665061 +22.6222638     611.1055     72.59218      1.808     5.59     3.427456     20.47004     53.39595         8     1.058     0.922 -68.80   0
       117    590.5885    793.3087 300.1429703 +22.7920635      309.116     72.49977      1.331     3.40      3.72193     20.47004     38.12975         5     0.727     0.461 -72.22   0
       118    815.4683    790.7562 300.2138593 +22.8587498     414.8004     72.51826      1.202     2.85     4.084188     20.47004     56.57324         7     0.824     0.624 -13.42   0
       119    188.7464    788.9499 300.0193707 +22.6702651     560.8374     72.59219      1.514     3.60     4.086311     20.47004     67.50827         8     1.019     0.621 -57.88   0
       120    511.9098    779.1489 300.1230804 +22.7644057     390.9039     72.57371      1.346     3.54     3.919139     20.47004     67.92965         8     0.935     0.696  20.65   0
       121    481.5055    777.5172 300.1141475 +22.7548187     660.0531     72.73981      1.370     3.15     3.991161     20.47004     81.82864        12     0.982     0.839 -86.34   0
       122    897.9529    773.7806 300.2450952 +22.8785962     3241.949     72.59219      1.424     2.62     3.969717     20.47004     524.4733        35     1.243     1.128 -62.82   0
       123    390.9573    776.2371 300.0863875 +22.7272914     377.2729     72.62911      1.334     4.53     3.960941     20.47004       54.334         8     1.126     0.634  80.04   0
       124    503.3435    774.8371 300.1218163 +22.7605994      1280.72     72.55523      1.318     2.32     3.956967     20.47004     190.7621        17     0.998     0.898  65.96   0
       125    423.1581    774.4764 300.0969789 +22.7364455     384.3808     72.51826      1.198     3.72     3.833954     20.47004      52.9461         6     0.805     0.494  -6.78   0
       126    585.3005    769.4105 300.1490962 +22.7836198     317.7589     72.46277      1.374     4.00     3.816693     20.47004     47.90089         8     1.028     0.613 -49.83   0
       127    886.5151    765.1261 300.2443437 +22.8726833     1657.786     72.66603      1.343     2.59     4.025579     20.47004     193.8302        17     1.006     0.921  81.06   0
       128    654.7101    764.2710 300.1723837 +22.8029563     415.1446     72.72137      1.507     3.83     3.646131     20.47004     37.55569         5     0.950     0.443 -44.66   0
       129    249.2716    759.1321 300.0478834 +22.6798776     922.1125     72.59219      1.384     2.72     4.220994     20.47004     110.7256        11     0.961     0.686   0.45   0
       130    712.8356    756.3951 300.1930520 +22.8181211     2615.556     72.57371      1.394     2.41     3.795734     20.47004     309.5074        27     1.299     1.010   1.00   0
       131    917.5329    755.2365 300.2572317 +22.8791380     1634.499     72.55523      1.353     2.54     3.977963     20.47004     185.6859        21     1.108     0.996  86.99   0
       132    795.3231    742.3114 300.2233361 +22.8388028      569.567     72.70293      1.472     3.73     4.067505     20.47004     83.62006        12     1.110     0.783  42.08   0
       133     98.0588    742.9230 300.0061545 +22.6298523      639.127     72.59218      1.441     2.97     4.108295     20.47004     77.67869        11     0.930     0.805 -32.61   0
       134    831.1723    733.3735 300.2374165 +22.8469804     146656.8     72.51826      1.350     2.37      4.10048     20.47004     17732.49       154     1.367     1.329 -64.85   0
       135    593.3972    737.0674 300.1621353 +22.7767656     355.2585     72.53675      1.193     4.17     3.907349     20.47004     63.21483         7     0.805     0.760 -18.97   0
       136    978.1954    735.1561 300.2826812 +22.8915463     1204.839     72.57371      1.373     2.92     4.027992     20.47004     158.9318        16     1.061     0.889  35.56   0
       137    683.6203    733.6862 300.1913352 +22.8028444     767.7816     72.48127      1.364     2.71     3.602444     20.47004     97.39522        12     0.966     0.777 -42.51   0
       138    864.0549    726.1491 300.2500165 +22.8547598     483.9262     72.59219      1.281     3.57     4.103458     20.47004     59.55627         8     0.865     0.712  84.53   0
       139    517.4567    722.3087 300.1432909 +22.7497593     1544.999     72.61065      1.147     2.16     4.114791     20.47004     230.7503        15     0.878     0.861  -9.08   0
       140    180.2535    722.1093 300.0384656 +22.6485513     254.1883     72.61065      1.529     4.19     4.146854     20.47004     34.10401         6     1.164     0.429 -59.86   0
       141    698.6243    719.5464 300.2006071 +22.8032830     9211.067     72.57371      1.246     2.17     3.742998     20.47004     1288.958        37     1.107     1.062  26.87   0
       142    200.1374    714.7487 300.0470394 +22.6524070     4690.873     72.61065      1.390     2.56     4.175441     20.47004     568.8527        30     1.153     1.086 -67.45   0
       143    282.1403    712.7556 300.0731832 +22.6764386     1114.146     72.57371      1.302     2.41     4.270813     20.47004     151.3074        13     1.011     0.764  61.76   0
       144    157.7502    710.5945 300.0352149 +22.6384968     510.7657     72.53675      1.491     4.14     4.120484     20.47004     56.50372         9     1.086     0.784 -60.06   0
       145    490.6346    708.2461 300.1395143 +22.7376807     643.0873     72.57371      1.225     2.63     4.168579     20.47004       88.866        13     0.985     0.766 -21.15   0
       146    482.0896    700.4186 300.1393995 +22.7328722     3256.708     72.48127      1.260     2.25     4.194989     20.47004     435.9613        25     1.024     0.966  37.91   0
       147    472.2867    694.1654 300.1383815 +22.7281381     1409.382     72.53675      1.218     2.17     4.191428     20.47004     206.5312        16     0.917     0.884 -63.24   0
       148    866.0168    691.7039 300.2618282 +22.8454554     362.0327     72.46277      1.193     2.09     4.110764     20.47004     81.25344         7     0.793     0.554  31.21   0
       149    135.8057    690.5656 300.0349063 +22.6261687      636.781     72.55523      1.368     2.76     4.131304     20.47004     92.61456        12     0.939     0.818  66.75   0
       150    150.0593    688.7825 300.0399156 +22.6299344     589.9352     72.49976      1.270     2.72     4.125026     20.47004     77.20838        10     0.842     0.799  20.63   0
       151    175.5008    685.6285 300.0488483 +22.6366639     480.7667     72.46277      1.431     3.45     4.141137     20.47004     67.88445        13     1.055     0.905 -35.12   0
       152    919.1644    685.2286 300.2805050 +22.8595196     460.5173     72.57371      1.235     3.13     4.052943     20.47004     67.76393         9     0.940     0.657  23.72   0
       153    496.0152    684.4050 300.1489401 +22.7324527     463.5051     72.42575      1.132     3.18     4.184709     20.47004     60.27735         9     0.952     0.646  26.17   0
       154    397.1225    683.8833 300.1183347 +22.7026463     1808.052     72.66603      1.286     2.19     4.185899     20.47004      259.627        20     1.003     0.901  56.32   0
       155    206.6385    685.7031 300.0585031 +22.6460279     400.0483     72.53675      1.278     3.77     4.185446     20.47004     58.92384         5     0.931     0.437  -9.26   0
       156    447.9295    682.8409 300.1344828 +22.7175843     2002.771     72.51826      0.531     0.90     4.164043     20.47004     1302.599         8     0.459     0.400  64.53   0
       157     51.0219    678.9434 300.0123409 +22.5973929     19704.48     72.57371      1.523     2.95      4.37856     20.47004     2088.887        66     1.407     1.300  37.30   0
       158    972.8074    681.1509 300.2985608 +22.8744188     830.6471     72.55523      1.420     2.42     4.029391     20.47004     88.31889        10     0.839     0.703   9.21   0
       159    481.9107    679.2195 300.1462358 +22.7267352     996.2443     72.49976      1.287     2.18     4.222978     20.47004     157.7459        16     1.092     0.802  73.92   0
       160    517.0690    677.7466 300.1576582 +22.7368548     551.0842     72.57371      1.559     4.36     4.140855     20.47004     60.54753         9     1.334     0.716  49.37   0
       161    853.8118    674.6453 300.2635692 +22.8368991     174.4763     72.55523      1.356     3.80     4.147405     20.47004     40.69624         5     0.734     0.721  44.32   0
       162    235.5967    672.3903 300.0718335 +22.6508977      300.707     72.37019      1.994     4.82     4.216065     20.47004     46.47013         7     1.340     0.490 -89.39   0
       163    565.1306    666.7236 300.1762044 +22.7481011     359.9626     72.64758      1.380     2.41     4.085789     20.47004     48.75544         6     0.719     0.576 -53.49   0
       164    900.2320    665.3436 300.2810662 +22.8481357     1096.748     72.57371      1.275     2.73     4.087335     20.47004     134.8075        15     1.041     0.907 -43.74   0
       165     63.2567    663.7288 300.0210874 +22.5967026     414.7058     72.57371      1.343     3.52     4.357936     20.47004     55.53349        10     0.995     0.708  33.11   0
       166    767.0020    663.0786 300.2402715 +22.8075642     491.4932     72.46277      1.255     3.13     4.170808     20.47004      72.7289         9     0.875     0.742 -69.93   0
       167    445.6532    659.6605 300.1413099 +22.7102500     469.0027     72.61065      1.082     2.56     4.219168     20.47004      79.3069         8     0.875     0.592 -55.67   0
       168    840.2062    657.8538 300.2647866 +22.8279998     741.3056     72.53675      1.255     2.88     4.181596     20.47004     102.4135        11     1.051     0.620  61.57   0
       169    836.0212    658.0848 300.2634068 +22.8268122     220.2809     72.49976      1.221     4.48     4.191974     20.47004     46.33801         7     1.091     0.523 -58.53   0
       170    536.8186    671.2347 300.1659233 +22.7409075     336.5819     72.55523      1.250     2.33      4.11359     20.47004     45.63712         6     0.725     0.543 -44.94   0
       171    584.8913    656.2014 300.1857778 +22.7510050     238.6466     72.46277      1.177     3.81     4.156306     20.47004     42.18106         5     0.825     0.505  43.60   0
       172    402.0046    651.9764 300.1302256 +22.6949556     716.5791     72.51826      1.266     2.62     4.204625     20.47004     106.9534        10     0.862     0.736  63.72   0
       173    549.9106    650.6924 300.1766769 +22.7389367     564.3848     72.72137      1.167     1.95     4.289528     20.47004     94.42911         7     0.695     0.604 -16.07   0
       174    567.9016    648.8969 300.1828621 +22.7438150     654.7208      72.7398      1.304     2.60      4.27058     20.47004     94.34288         9     0.846     0.684 -79.04   0
       175    597.3328    648.9638 300.1920047 +22.7526571     493.4477     72.55523      1.339     2.12     4.206592     20.47004     79.64358         7     0.782     0.560  62.09   0
       176    446.4136    647.9247 300.1453613 +22.7071103      964.744     72.57371      1.398     2.42     4.266022     20.47004     112.6221        11     0.829     0.799 -33.68   0
       177    633.0361    647.2800 300.2036710 +22.7628764      91.4318     72.49976      1.052     3.77     4.178745     20.47004     33.34274         7     0.729     0.689  -2.39   0
       178    880.1262    643.3867 300.2819349 +22.8358052     3248.146     72.57371      1.274     2.30     4.117847     20.47004     424.8116        22     1.003     0.950 -74.94   0
       179    411.9335    643.3858 300.1361073 +22.6954682       1609.6     72.51826      1.220     2.28     4.189609     20.47004     249.1568        16     0.917     0.846 -88.64   0
       180    978.2932    641.4437 300.3131804 +22.8646546      694.549     72.55523      1.210     2.84     4.047938     20.47004     93.52708        13     0.995     0.813  29.70   0
       181    776.6364    640.5501 300.2505973 +22.8039819     306.7206     72.57371      1.254     3.64     4.191279     20.47004     50.26124         7     0.850     0.692  74.75   0
       182    387.2586    638.4342 300.1300395 +22.6866476     243.1192     72.57371      1.513     2.82     4.271135     20.47004     38.66401         5     0.707     0.466  18.52   0
       183    441.0240    634.1796 300.1481517 +22.7015497     230.7444     72.55523      1.299     2.50     4.298611     20.47004     48.80522         5     0.767     0.482 -60.97   0
       184    919.3313    633.2914 300.2974412 +22.8446504     235.7229     72.68448      1.099     3.55     4.143181     20.47004     51.97692         7     0.969     0.541 -23.22   0
       185    275.2623    630.2184 300.0978744 +22.6506999     9038.521     72.51826      1.305     2.33     4.282346     20.47004      1095.65        38     1.166     1.063  66.33   0
       186    532.3914    631.3420 300.1775124 +22.7281302     207.4818     72.53675      0.988     3.56     4.504126     20.47004     39.33488         6     0.868     0.497 -44.55   0
       187    397.7096    627.2206 300.1369357 +22.6865641     8756.979     72.49976      1.245     2.13     4.256696     20.47004     1364.403        41     1.114     1.074  38.13   0
       188    643.9474    623.4500 300.2148152 +22.7593054     259.1526     72.59219      1.040     2.56     4.425072     20.47004     63.72702         8     0.916     0.559  45.65   0
       189    163.0639    624.3004 300.0649165 +22.6153443     334.3501     72.64758      1.503     4.53     4.199292     20.47004     36.33027         6     0.899     0.650 -38.56   0
       190   1002.4212    622.4943 300.3268665 +22.8664370     1020.807     72.48127      1.485     3.26     4.002205     20.47004     108.7416        16     1.070     0.931  -4.98   0
       191    809.3779    621.0560 300.2671382 +22.8081941     1837.649     72.59219      1.255     2.27     4.215197     20.47004     248.8351        19     1.000     0.898  80.39   0
       192    893.9927    618.4176 300.2943746 +22.8327869     12513.45     72.49976      1.317     2.25     4.149013     20.47004     1715.699        50     1.201     1.148  37.27   0
       193    458.3188    616.8058 300.1591806 +22.7017496     11599.96     72.48127      1.222     2.05     4.453407     20.47004     1720.869        42     1.119     1.044  61.40   0
       194    627.9539    612.7239 300.2133200 +22.7514321     521.8181     72.55523      1.174     3.20     4.558342     20.47004     80.24118        10     0.951     0.747  65.79   0
       195    185.6233    612.2736 300.0758372 +22.6186628     1275.397     72.61065      1.365     2.50     4.346865     20.47004     173.4132        17     0.974     0.937  36.22   0
       196    343.8112    611.2247 300.1253668 +22.6658105     345.3253     72.55523      1.228     2.78     4.363869     20.47004     43.86698         8     0.793     0.668  46.53   0
       197    432.4920    609.7300 300.1534430 +22.6919749     456.2017     72.68448      1.247     2.87     4.330564     20.47004     56.66602         8     0.831     0.665  43.61   0
       198    389.9964    605.0013 300.1417572 +22.6778752     4261.231     72.33312      1.289     1.99     4.316806     20.47004     730.2476        26     1.033     0.964  50.11   0
       199    732.9679    604.8817 300.2485826 +22.7806530     769.0114     72.55523      1.196     2.43     4.152248     20.47004     120.4419        11     0.824     0.778  45.53   0
       200    368.2362    603.3914 300.1355106 +22.6708878     1344.085     72.55523      1.249     2.11      4.36032     20.47004     182.9962        17     0.995     0.840  81.66   0
       201    122.4041    602.7492 300.0592838 +22.5969646     852.5897     72.55523      1.481     2.70     4.400006     20.47004      115.934        17     1.090     0.904  41.56   0
       202    506.5926    592.5140 300.1821004 +22.7092507     199043.5     72.48127      1.222     2.06     4.720383     20.47004     28878.08       204     1.396     1.374 -28.04   0
       203    809.7600    600.3480 300.2739878 +22.8023608     1655.691     72.55523      1.351     2.61     4.201679     20.47004     172.8095        19     1.073     0.924 -26.53   0
       204     56.4759    600.7814 300.0394385 +22.5766187     292.1936     72.55523      1.235     4.21     4.504181     20.47004     40.73972         5     1.054     0.479 -30.57   0
       205    910.5392    598.8348 300.3058989 +22.8321179     303.8838     72.57371      1.324     3.94      4.20073     20.47004     43.02869         6     1.028     0.432 -30.84   0
       206    690.1301    597.4130 300.2376633 +22.7656708     656.8988     72.55523      1.107     2.17     4.448022     20.47004     138.5408        12     0.866     0.728  83.07   0
       207    330.2395    598.4153 300.1253081 +22.6580650     342.0278     72.57371      1.067     2.49     4.334139     20.47004     50.21325         7     0.756     0.620 -26.74   0
       208    759.6202    593.6185 300.2605482 +22.7854048     249.0272     72.55523      0.985     2.97     4.205207     20.47004     45.96627         5     0.726     0.463  75.03   0
       209    192.7585    592.5686 300.0844586 +22.6151513     3129.087     72.59219      1.197     2.24      4.41763     20.47004     469.8651        25     1.091     0.966  51.31   0
       210    894.7673    593.6017 300.3026816 +22.8258900     208.6971     72.51826      0.990     2.89     4.184357     20.47004     40.84852         5     0.703     0.477  12.29   0
       211    274.6373    592.5867 300.1099097 +22.6397166     250.4763     72.55523      1.521     4.10     4.306441     20.47004     28.62797         5     0.975     0.491   2.22   0
       212    758.4272    588.1390 300.2619572 +22.7834736     496.1415     72.55523      1.210     2.65     4.231891     20.47004     72.56692         8     0.869     0.634  16.63   0
       213    777.3104    586.8275 300.2682681 +22.7887549     302.9063     72.53675      1.156     2.60     4.227186     20.47004      46.8175         5     0.694     0.655   5.58   0
       214    538.1154    578.5233 300.1964601 +22.7146845     169.1765     72.66603      0.939     1.75     4.791509     20.47004     61.76672         5     0.671     0.466  21.79   0
       215    397.2706    576.7675 300.1531954 +22.6719541     407.1282     72.55523      1.040     2.27     4.420781     20.47004     63.32821         5     0.714     0.487  62.08   3
       216    397.2343    572.7487 300.1544900 +22.6707899     2567.658     72.57371      1.250     2.19      4.43748     20.47004     379.8763        20     0.955     0.923  72.34   2
       217    241.3676    575.4320 300.1051391 +22.6248163     373.4388     72.61065      1.057     2.88     4.419981     20.47004      77.6581         7     0.892     0.600  76.25   0
       218    847.0249    572.9125 300.2945201 +22.8056445      189.091     72.49976      1.063     2.53     4.183647     20.47004     42.59019         5     0.631     0.569  88.30   0
       219    553.5164    570.5817 300.2038356 +22.7170213     334.4608     72.49977      1.134     3.53     4.798115     20.47004     46.62468         6     0.879     0.490  -4.67   0
       220    808.7544    569.1522 300.2838124 +22.7930990     391.7234     72.59219      1.159     2.26     4.213212     20.47004     60.93066         6     0.676     0.578 -51.78   0
       221    714.6128    561.0854 300.2570961 +22.7625752      501.946     72.49976      1.100     3.06     4.482236     20.47004     64.12191         8     0.878     0.586 -76.85   0
       222    794.2151    558.8516 300.2826278 +22.7857843     1801.666     72.55523      1.233     1.96     4.243405     20.47004     314.7046        16     0.898     0.852  27.62   0
       223    665.3955    556.5994 300.2432209 +22.7465384     2596.625     72.37019      1.165     2.19     4.621657     20.47004     374.3406        18     0.957     0.842  73.94   0
       224    875.1154    554.2230 300.3093511 +22.8086901     286.8287     72.51826      1.360     4.81     4.214254     20.47004     29.74301         7     1.030     0.636 -85.75   0
       225    909.8556    553.8718 300.3202975 +22.8189951     492.2975     72.57371      1.248     1.79     4.269318     20.47004     88.02232         8     0.729     0.630 -55.41   0
       226    569.9352    553.1154 300.2146232 +22.7169282     369.9095     72.64758      1.108     2.11     4.802098     20.47004     88.17226         8     0.787     0.615  47.16   0
       227    452.7299    552.5588 300.1783190 +22.6816342     635.5223     72.51826      1.122     2.01      4.72264     20.47004     112.2343        10     0.810     0.664  85.72   0
       228    922.7251    550.5413 300.3253930 +22.8218928      1333.79     72.61065      1.290     2.27     4.294504     20.47004       176.69        16     0.978     0.848  40.75   0
       229    794.4813    548.8049 300.2859753 +22.7829782     2343.356     72.48127      1.515     4.32     4.252146     20.47004     276.5382        25     1.584     0.866  78.41   0
       230    908.5468    549.4390 300.3213298 +22.8173295     874.6884     72.55523      1.452     2.73     4.275525     20.47004     99.93824        11     0.989     0.730 -89.46   1
       231    547.7838    547.0662 300.2096916 +22.7085519     634.5524     72.53675      1.205     2.05     4.860568     20.47004     91.73245         7     0.669     0.650  77.27   0
       232    333.8364    546.7253 300.1432228 +22.6443115     397.4838     72.49976      1.520     3.48     4.344578     20.47004     49.30876         6     0.884     0.582  62.39   0
       233    386.2264    546.0320 300.1597459 +22.6598218        384.7     72.55523      1.190     2.86     4.509554     20.47004      57.9464         6     0.749     0.542  52.09   0
       234    832.6156    544.0105 300.2994198 +22.7930251     4157.968     72.48127      1.225     2.08     4.217772     20.47004     639.7108        26     1.035     0.940  71.92   0
       235    473.3114    543.6425 300.1876215 +22.6852450     200.7635     72.55523      1.044     3.42      4.83727     20.47004     47.49528         5     0.736     0.460 -13.51   0
       236    629.4189    539.7401 300.2374929 +22.7309156     205.5556     72.49976      1.333     3.42     4.709909     20.47004     29.80851         5     0.777     0.436 -68.92   0
       237    493.1991    539.9892 300.1949986 +22.6901582     446.8617     72.37019      1.324     2.03      4.88896     20.47004     79.05977         6     0.784     0.472 -55.65   0
       238     64.6463    534.6862 300.0634519 +22.5601156     961.6146     72.53675      1.466     2.93     4.589912     20.47004      123.672        16     1.043     0.930  59.15   0
       239    924.4384    534.4963 300.3311408 +22.8177957     743.9508     72.53675      1.258     2.21     4.310722     20.47004     103.7653        10     0.817     0.696 -86.14   0
       240    889.0376    532.7930 300.3206551 +22.8067033     157.2531     72.57371      1.075     3.94     4.260731     20.47004     30.05567         5     0.862     0.516 -54.86   0
       241    694.2864    532.3468 300.2601012 +22.7482309     259.5426     72.59219      1.114     3.42     4.580901     20.47004     44.22658         5     0.734     0.462  11.57   0
       242    725.3177    528.3949 300.2710534 +22.7563939     332.6452     72.48127      1.230     4.32     4.499401     20.47004       43.752         7     0.969     0.548  59.93   0
       243    112.2573    526.5189 300.0808986 +22.5720565     216.2628     72.59219      1.425     2.53      4.57853     20.47004     42.49654         5     0.716     0.472  17.81   0
       244     57.1207    524.6446 300.0643760 +22.5549778     545.4899     72.53675      1.700     3.10     4.586534     20.47004     52.89687         7     0.854     0.584 -78.44   0
       245    920.9528    523.6420 300.3335805 +22.8136328     349.7789     72.57371      1.265     2.02     4.311419     20.47004     71.81588         6     0.767     0.470  -8.91   0
       246    664.9398    518.5239 300.2554500 +22.7354674     437.2784     72.61065      1.025     1.63     4.652183     20.47004     75.70889         6     0.669     0.499   1.79   0
       247    553.6600    516.2952 300.2215185 +22.7014785     267.2987     72.62911      1.096     2.60     4.989244     20.47004     53.05242         5     0.717     0.450 -74.70   0
       248    606.0587    514.4246 300.2384425 +22.7166454     879.3265     72.55523      1.255     1.97     4.828613     20.47004     134.4493         9     0.764     0.662 -60.98   0
       249   1013.4976    512.1395 300.3661835 +22.8380413     955.2723     72.62911      1.239     2.24     4.461985     20.47004     156.2268        16     0.976     0.865 -86.07   0
       250    920.6370    506.7397 300.3389734 +22.8086814     635.4056     72.57371      1.273     2.28     4.320017     20.47004     99.57544        11     0.859     0.765 -80.36   0
       251    666.7744    506.7831 300.2598358 +22.7326453     911.3875     72.57371      1.243     2.02     4.651073     20.47004     152.9331        12     0.842     0.762  34.15   0
       252    824.0117    503.0210 300.3100551 +22.7786720     939.9508     72.53674      1.197     1.88     4.236554     20.47004     184.0777        11     0.833     0.699   7.22   0
       253    808.0803    499.2932 300.3063002 +22.7728288     743.4687     72.68448      1.287     2.60     4.227263     20.47004     110.3771         9     0.804     0.716  65.77   0
       254    782.8999    500.6644 300.2980065 +22.7656797     457.2729     72.64758      1.589     2.94     4.266683     20.47004     42.92695         5     0.859     0.465  -6.74   0
       255    788.9424    499.1962 300.3003667 +22.7670681     420.1018     72.51826      1.266     3.92     4.250694     20.47004      55.3861         7     0.796     0.729 -46.27   0
       256    552.5729    497.3559 300.2273327 +22.6957148     3152.589     72.57371      1.160     2.06     5.083118     20.47004     441.8357        23     1.031     0.902  41.96   0
       257    913.1193    496.2618 300.3400330 +22.8034190     531.0931     72.64758      1.182     2.70     4.317639     20.47004     81.08519         8     0.823     0.637  66.78   0
       258     28.2305    488.7082 300.0670742 +22.5360036     387.1482     72.49976      1.326     4.73     4.561292     20.47004     51.75671         8     1.108     0.574  55.17   0
       259   1023.5545    484.8664 300.3781814 +22.8332136     342.3362      57.1521      0.981     2.19     4.615619     20.47004     99.09614         7     0.871     0.481  80.18  24
       260    392.4689    484.3522 300.1817255 +22.6439902     432.2844     72.53675      1.165     2.45      4.85441     20.47004     59.65172         7     0.855     0.488 -81.35   0
       261    964.0460    476.3119 300.3623966 +22.8129365     1243.214     72.53675      1.246     2.39      4.44238     20.47004     185.8757        17     1.010     0.949  30.85   0
       262    922.1241    474.9683 300.3497583 +22.7999967     969.0281     72.55523      1.225     2.05     4.343184     20.47004     171.9023        13     0.959     0.756  63.81   0
       263    835.9322    475.9086 300.3225786 +22.7744529     590.1447     72.68448      1.263     2.86     4.266992     20.47004     113.1342        11     0.969     0.741 -23.72   0
       264    458.7831    472.1126 300.2063367 +22.6603558     299.6284     72.48127      1.193     3.14     5.080539     20.47004     60.87053         8     0.895     0.600  84.51   0
       265    663.2303    471.3447 300.2702436 +22.7214052     1098.836     72.57371      1.194     2.02     4.674321     20.47004     188.9641        14     0.871     0.854   4.08   0
       266    167.1388    469.7355 300.1163997 +22.5722289     661.7828     72.59219      1.261     2.72     4.597385     20.47004     90.11038        11     0.905     0.835 -37.66   0
       267    229.5162    465.2679 300.1372420 +22.5896539     3580.679     72.66603      1.274     2.27     4.443604     20.47004     435.2826        28     1.067     1.037  12.33   0
       268    962.6524    463.5605 300.3661039 +22.8088544     4202.325     72.53675      1.205     2.10     4.425308     20.47004     632.1995        26     1.056     0.961 -87.97   0
       269    942.5682    454.7181 300.3627119 +22.8002990     1736.118     72.55523      1.174     2.07     4.392603     20.47004     259.1644        19     0.989     0.894 -61.58   0
       270    317.4979    454.3387 300.1681515 +22.6128987     4781.479     72.62911      1.202     2.15     4.800381     20.47004     653.3318        26     1.011     0.949  54.51   0
       271    561.7068    450.9641 300.2452453 +22.6851307     18146.95     72.51826      1.198     1.94     5.008873     20.47004     3197.598        50     1.112     1.027  63.03   0
       272    176.7614    460.1720 300.1224968 +22.5723709     7625.439     72.57371      1.317     2.26     4.593845     20.47004     1061.042        38     1.171     1.061  53.85   0
       273    579.3334    450.7505 300.2508032 +22.6903515     831.6598     72.53675      1.940     6.28     4.956391     20.47004     78.54283        15     1.443     0.768 -38.24   0
       274    188.3078    449.2971 300.1296177 +22.5727134      268.651      72.7398      1.273     4.90     4.586552     20.47004     37.97131         5     1.242     0.546  62.65   0
       275    805.2416    447.2737 300.3223127 +22.7570330     360.6057     72.53675      1.083     2.60     4.268609     20.47004     71.48229         7     0.878     0.526  62.07   0
       276    758.8889    441.2042 300.3098374 +22.7414049     300.5416     72.46277      1.040     3.36     4.291584     20.47004     74.47266         8     1.015     0.586 -45.08   0
       277    181.4954    438.1739 300.1311124 +22.5674787     393.0543     72.49976      1.266     3.21     4.641928     20.47004     49.51963         8     0.905     0.769 -64.27   0
       278    895.3919    433.3468 300.3549411 +22.7800300     767.9666     72.55523      1.371     2.93     4.402154     20.47004     85.61414        12     1.043     0.731 -69.27   0
       279    431.6253    433.3181 300.2104847 +22.6410778     313.5748     72.53675      1.240     3.81     5.020593     20.47004     62.38968         7     1.205     0.523 -39.69   0
       280    605.0156    432.1465 300.2648430 +22.6927041     320.6835     72.53675      1.332     2.94     4.843553     20.47004     47.11224         6     0.771     0.665  -3.44   0
       281    116.3930    431.2697 300.1131203 +22.5459731     2177.132     72.51826      1.357     2.41     4.612104     20.47004     246.1945        22     1.119     0.944  56.35   0
       282    502.3720    420.4608 300.2366791 +22.6585899     6561.999     72.55523      1.146     1.98     5.030401     20.47004     943.4756        33     1.081     0.961  86.29   0
       283    915.9604    420.6057 300.3654930 +22.7825274     1160.642     72.57371      1.169     2.00     4.425735     20.47004     194.6268        15     0.947     0.822  77.37   0
       284    217.1747    419.8940 300.1481402 +22.5729326     680.9297     72.48127      1.232     2.31     4.550258     20.47004     113.1707         8     0.801     0.619  41.80   0
       285     74.7736    412.9611 300.1061328 +22.5282375     586.0055     72.57371      1.609     3.81     4.555778     20.47004     60.94064        11     0.972     0.841 -41.47   0
       286    762.5385    412.2463 300.3203792 +22.7341782     360.5823     72.57371      1.305     2.36     4.297811     20.47004     46.70586         5     0.700     0.444 -65.21   0
       287    706.4222    409.4435 300.3038034 +22.7165638     1205.746     72.61065      1.261     2.30     4.447545     20.47004      163.382        16     1.115     0.894  81.87   0
       288    616.0847    410.4287 300.2753430 +22.6897830     532.3784     72.55523      1.337     3.04      4.78224     20.47004     70.65131        10     0.881     0.782  43.63   0
       289    408.9977    406.6797 300.2120939 +22.6266476     6152.432     72.46277      1.242     2.09     5.015635     20.47004     1048.641        31     1.081     0.961  79.48   0
       290    796.1521    408.0485 300.3322186 +22.7430398     264.6511     72.59219      1.366     3.05     4.299374     20.47004     40.49043         6     0.889     0.463  55.02   0
       291    986.9384    404.5270 300.3928524 +22.7991573     328.1252     72.59219      1.538     5.26     4.322739     20.47004     30.07748         6     0.973     0.804 -85.38   0
       292    800.8956    400.9745 300.3359942 +22.7424278     1359.235     72.49976      1.194     2.14     4.301295     20.47004     235.2332        14     0.881     0.822  51.84   0
       293    898.1649    401.1014 300.3662776 +22.7715931     631.2277     72.53675      1.228     2.11     4.440398     20.47004     104.5155         9     0.754     0.688  52.73   0
       294    393.5111    394.9937 300.2110697 +22.6186506     431.5777     72.46277      1.271     3.05     4.980734     20.47004     65.25504         8     0.907     0.731  87.17   0
       295    476.2365    393.2239 300.2373883 +22.6429363     501.3477     72.57371      1.058     2.13     5.074025     20.47004     73.45752         7     0.679     0.640  78.25   0
       296    456.6376    390.9322 300.2320324 +22.6364046     142.9008     72.53675      1.106     2.33     5.061648     20.47004     54.86058         6     0.723     0.584 -39.44   0
       297    406.2461    389.4058 300.2168466 +22.6208634      130.061     72.55523      1.170     3.83     5.009958     20.47004     30.07875         5     1.011     0.417 -83.20   0
       298    773.6016    388.6949 300.3314748 +22.7307248     562.6655     72.46277      1.111     2.72     4.301342     20.47004     82.52084         8     0.845     0.633  70.09   0
       299     55.2156    388.2332 300.1080851 +22.5152773     330.3579     72.53675      1.212     4.12     4.555778     20.47004     38.85432         6     0.756     0.642  86.64   0
       300    296.4772    385.9683 300.1838153 +22.5869724     2453.933     72.53675      1.266     2.18     4.960631     20.47004     388.5743        23     1.062     0.942  55.50   0
       301     14.9034    383.4880 300.0971026 +22.5018246     1115.603      72.7398      1.493     2.75     4.555778     20.47004     122.9317        14     1.036     0.798  38.52   0
       302    265.8657    375.4130 300.1777225 +22.5747654     29427.87     72.49976      1.296     2.22     4.840685     20.47004     4067.399        68     1.249     1.151  55.28   0
       303    800.5212    372.6235 300.3450833 +22.7341688     1347.278     72.51826      1.124     2.09      4.30828     20.47004     221.9921        16     0.961     0.829  21.72   0
       304    756.1506    370.2990 300.3320093 +22.7202122     387.9717     72.62911      1.341     2.58     4.300785     20.47004     55.05648         6     0.742     0.553  52.07   0
       305    140.0899    361.3765 300.1431779 +22.5330252     499.3229     72.48127      1.480     4.58       4.7067     20.47004     56.37684         9     1.078     0.625 -71.79   0
       306    715.7856    361.4695 300.3222980 +22.7055854     485.1767     72.57371      1.105     1.99     4.359935     20.47004      93.2048         7     0.726     0.593  21.77   0
       307    364.4443    360.6595 300.2131738 +22.6000809      523.967     72.57371      1.216     2.81     4.925618     20.47004     70.45985         9     0.908     0.669  55.01   0
       308    676.3019    355.0051 300.3120955 +22.6919014     1980.247     72.44426      1.215     1.99      4.46502     20.47004     325.9275        19     0.989     0.832  87.74   0
       309    484.4400    349.7560 300.2540544 +22.6329120      367.371     72.62911      1.232     2.70     5.064048     20.47004     53.14465         7     0.886     0.490  84.04   0
       310    891.3550    347.9709 300.3814055 +22.7542829     696.5535     72.59219      1.249     1.98     4.468862     20.47004     102.4067        10     0.799     0.681   5.19   0
       311    338.0964    339.7768 300.2117566 +22.5861880     2112.037     72.48127      1.348     2.47     4.890975     20.47004     297.7206        23     1.219     0.893  60.88   0
       312    777.1624    332.5418 300.3508158 +22.7156550     606.8358     72.55523      1.156     2.07     4.416893     20.47004     102.5924        10     0.860     0.617  59.13   0
       313    769.4822    333.0730 300.3482498 +22.7135077     224.2704     72.68448      1.368     3.75     4.413859     20.47004     39.22227         5     1.129     0.574  38.98   0
       314    659.5483    330.3504 300.3148805 +22.6797997     369.4493     72.59219      1.103     2.35     4.623299     20.47004     76.12935         7     0.760     0.640 -79.73   0
       315    627.8081    329.3753 300.3053104 +22.6700118     310.2073     72.55523      1.063     3.10     4.702997     20.47004     46.91796         6     0.715     0.645 -81.84   0
       316    413.9604    319.0015 300.2421033 +22.6029598     956.9811     72.57371      1.186     2.16     4.989882     20.47004     194.3027        12     0.839     0.761  86.48   0
       317    220.7696    319.1887 300.1819522 +22.5451075     382.1108     72.55523      1.625     4.40     4.608541     20.47004     39.59776         7     1.121     0.490  19.92   0
       318    154.2113    314.3594 300.1628290 +22.5237665      153.197     72.55523      1.209     3.42     4.784835     20.47004     31.25679         5     0.752     0.449  16.28   0
       319    658.7191    310.8845 300.3209410 +22.6739584     2106.309     72.70293      1.182     1.85     4.707464     20.47004     402.2876        16     0.914     0.822  44.43   0
       320    920.0057    305.2161 300.4042194 +22.7505700     2906.741     72.48127      1.233     1.98     4.501533     20.47004     483.6201        22     1.032     0.887 -57.53   0
       321    981.0975    299.9401 300.4249866 +22.7673404     418.6565     72.62911      1.312     2.25     4.337693     20.47004      70.2247         9     0.771     0.713 -29.16   0
       322    367.0025    294.7779 300.2353552 +22.5819314     587.3055     72.49976      1.283     2.84     4.702582     20.47004     109.1428        13     1.033     0.814 -41.63   0
       323    989.5126    292.9321 300.4298864 +22.7678441     1578.538     72.66603      1.295     2.26     4.308928     20.47004     247.2408        18     0.986     0.939 -67.97   0
       324     42.0272    289.2808 300.1361078 +22.4829308     1343.208     72.57371      1.543     3.03     4.871302     20.47004     133.1443        20     1.197     0.968 -35.81   0
       325     72.5504    288.8902 300.1457178 +22.4919717     653.1249     72.55523      1.566     3.86      4.82007     20.47004     76.90709        13     1.078     0.954  58.08   0
       326    935.8030    285.6959 300.4154822 +22.7496869     464.9828     72.46277      1.157     2.68     4.513594     20.47004     82.98481         9     0.941     0.600  25.41   0
       327    779.4390    282.6076 300.3677340 +22.7019858     171.8465     72.57371      1.151     4.05     4.696157     20.47004     37.64014         6     1.023     0.458  34.72   0
       328    126.1199    281.1705 300.1648697 +22.5058187     526.3017     72.55523      1.366     2.23     4.818213     20.47004     67.26558         8     0.779     0.621 -38.71   0
       329    921.0300    278.2662 300.4132863 +22.7431286     220.1568     72.55523      1.136     2.29      4.59371     20.47004     55.47849         7     0.691     0.659  10.87   0
       330    802.2121    274.4279 300.3774868 +22.7064536     292.5318     72.55523      1.074     2.39     4.778701     20.47004     59.58759         7     0.828     0.571 -73.23   0
       331    730.3161    272.2354 300.3557918 +22.6842951     672.5392     72.53675      1.249     2.13     4.716702     20.47004     111.0814        10     0.831     0.695 -51.48   0
       332    320.7362    272.0034 300.2283540 +22.5615261     323.8848     72.51826      1.016     1.98     4.903946     20.47004     80.15976         7     0.699     0.617  86.87   0
       333      5.1911    264.7519 300.1326249 +22.4648461     408.4395     72.25893      1.846     3.84     5.027333     20.47004     33.01667         5     0.902     0.469 -46.54  16
       334    828.5345    261.3560 300.3899345 +22.7105771     2063.485     72.53675      1.172     2.20     4.792606     20.47004     269.1668        17     0.952     0.836  54.35   0
       335    247.0645    258.8091 300.2097239 +22.5356568     2113.874     72.53675      1.286     2.16     4.930381     20.47004     333.0855        23     1.141     0.945  47.52   0
       336    325.0113    253.7340 300.2356125 +22.5575614     1122.565     72.51826      1.496     2.67     4.954369     20.47004     129.6227        14     0.973     0.836 -17.46   0
       337     76.8219    254.4589 300.1582184 +22.4833715     400.6349     72.55523      1.489     1.73     4.911496     20.47004     68.62969         5     0.667     0.481  16.43   0
       338    726.8177    252.9935 300.3609464 +22.6777175     535.8153     72.51826      1.169     2.14      4.79365     20.47004     96.12943         8     0.774     0.626 -44.86   0
       339    482.8911    253.0529 300.2849598 +22.6046733     142.4433     72.61065      1.171     2.94     4.954399     20.47004      38.9413         5     0.779     0.505  33.48   0
       340    833.6450    250.3448 300.3951011 +22.7089418     265.8234     72.59219      1.065     2.43     4.851297     20.47004     70.16111         6     0.829     0.616  22.05   0
       341    141.6422    245.8546 300.1811541 +22.5003360     746.0015     72.55523      1.359     3.45     4.957377     20.47004     94.37424        13     1.071     0.866  61.08   0
       342    679.5331    242.7823 300.3495277 +22.6606231     1700.356     72.53675      1.226     2.16     4.868115     20.47004     274.8345        18     1.052     0.819  64.54   0
       343    260.0141    245.5935 300.2180391 +22.5357439      199.017     72.44426      1.245     2.06     5.054471     20.47004     48.92959         6     0.759     0.491  -0.95   0
       344    744.5800    242.1994 300.3699842 +22.6799338     599.3074     72.48127      1.231     2.47     4.850062     20.47004     84.95532        10     0.931     0.633 -51.77   0
       345    111.4314    241.7496 300.1730969 +22.4901006     195.8067     72.59219      1.075     3.44     4.920386     20.47004     33.24084         5     0.797     0.429 -68.44   0
       346    163.0199    239.2784 300.1899326 +22.5048570      413.978     72.55523      1.133     2.57     5.015053     20.47004     74.20229         8     0.797     0.643  37.31   0
       347    951.0601    235.2001 300.4366288 +22.7397345     891.9836     72.49976      1.227     2.66     4.903291     20.47004     141.8305        13     0.974     0.776  47.08   0
       348    452.9793    235.3630 300.2813901 +22.5906304     341.7442     72.57371      1.163     2.79     5.057563     20.47004      65.0609         7     0.907     0.549  56.60   0
       349    683.6976    233.9072 300.3537051 +22.6593197     794.9909      72.7398      1.266     3.11     4.881423     20.47004     118.1418        15     1.166     0.833  64.24   0
       350    604.1896    233.5410 300.3290580 +22.6354029      1272.42     72.51826      1.189     2.00     4.773585     20.47004     194.3947        14     0.858     0.774  67.26   0
       351    530.4391    225.4002 300.3087347 +22.6109735     988.6441     72.55523      1.191     2.22     4.942054     20.47004     143.7531        15     0.994     0.844  64.25   0
       352    799.6539    224.9933 300.3927320 +22.6914777     1367.554     72.55523      1.157     2.13     5.128737     20.47004     218.5171        15     0.926     0.761  85.91   0
       353    811.7233    224.0329 300.3968058 +22.6948149     755.4903     72.55523      1.271     2.90      5.09644     20.47004     115.9194        13     0.978     0.846  39.10   0
       354    857.8604    223.1141 300.4114871 +22.7083626     289.4019     72.66603      1.193     1.97     4.944066     20.47004     56.00264         6     0.713     0.530 -39.38   0
       355    982.4122    221.1077 300.4509812 +22.7450652     286.6406     72.49976      1.191     3.38     5.015995     20.47004     33.66491         5     0.752     0.440  68.80   0
       356    972.5423    214.7892 300.4499527 +22.7402943     1759.322     72.51826      1.296     2.37     5.056329     20.47004     233.9866        20     1.140     0.865  76.00   0
       357    928.4704    214.3067 300.4363630 +22.7269655     1186.268     72.68448      1.296     2.37     5.061538     20.47004     146.8572        15     0.948     0.839  29.80   0
       358    831.1716    214.8412 300.4058509 +22.6979947     1345.801     72.57371      0.569    -0.76     5.060579     20.47004     937.8121         5     0.533     0.296 -58.14   0
       359    162.3459    207.6855 300.1999734 +22.4955858     708.0407     72.61065      1.345     2.53     5.217545     20.47004     88.54825        12     0.918     0.770 -19.45   0
       360    115.6220    204.0081 300.1866444 +22.4805238     179.5581     72.55523      1.292     4.17     5.131518     20.47004     31.15221         5     1.092     0.455  24.41   0
       361     24.2311    202.4181 300.1587640 +22.4526678     2238.621     72.53675      1.486     2.83     5.192249     20.47004     244.4982        24     1.241     1.026  42.63   0
       362    847.2675    199.1779 300.4159511 +22.6983098      796.026     72.55523      1.365     2.76     5.079205     20.47004     106.0727        13     1.010     0.802 -47.73   0
       363    181.7636    195.6960 300.2098991 +22.4979642     5759.594     72.55523      1.375     2.40     5.317913     20.47004     774.7504        33     1.201     1.058  61.83   0
       364    163.5226    196.7823 300.2038764 +22.4928085     233.4026     72.55523      1.087     4.60     5.309549     20.47004     31.15212         6     0.933     0.666  -9.31   0
       365    165.1207    186.4611 300.2077214 +22.4903245     616.2962     72.62911      1.464     3.85     5.401553     20.47004     66.23849        11     1.072     0.714  71.71   0
       366    980.5691    182.9503 300.4627870 +22.7335398      18277.8     72.59219      1.322     2.26     5.271445     20.47004     2377.971        48     1.198     1.097 -78.65   0
       367    825.7952    177.0363 300.4164406 +22.6855163     3414.689     72.57371      1.264     2.19      5.18741     20.47004     527.6658        25     1.090     0.919  88.02   0
       368    929.4398    175.7518 300.4491745 +22.7161685     2715.137     72.59219      1.277     2.20     5.318502     20.47004     400.7817        22     0.998     0.972  78.74   0
       369    375.4351    172.2762 300.2777277 +22.5492771     674.1313     72.51826      1.262     3.49     5.290126     20.47004     90.10104        14     1.188     0.767  40.68   0
       370    128.4079    172.9049 300.2007080 +22.4754282     371.7427     72.44426      1.439     4.72     5.396967     20.47004     35.90752         7     0.862     0.732  25.39   0
       371    489.4445    170.2296 300.3138720 +22.5828434     378.9532     72.59219      1.317     2.53     5.315165     20.47004     47.76439         5     0.698     0.471  72.03   0
       372    299.3333    164.0692 300.2567165 +22.5241177     657.0715     72.61065      1.471     3.15     5.447759     20.47004     66.27164         8     0.876     0.606  78.46   0
       373    303.2827    162.6415 300.2584079 +22.5248911     549.1241     72.51826      1.520     3.57      5.43696     20.47004     54.62791         8     0.999     0.584  55.01   0
       374    354.2011    160.1484 300.2750556 +22.5394317     498.9365     72.51826      1.440     4.25     5.254281     20.47004     66.49369        11     1.201     0.696 -80.12   0
       375     65.4095    161.4375 300.1848509 +22.4532514     651.9523     72.57371      1.656     4.18     5.338019     20.47004     56.01497        11     1.077     0.744 -66.45   0
       376    426.6615    159.5530 300.2977947 +22.5609692     1711.083     72.59219      1.221     2.31     5.476619     20.47004     231.1924        19     1.067     0.859  80.08   0
       377    488.4170    158.8678 300.3172378 +22.5792713     393.7103     72.55523      1.043     2.37     5.370868     20.47004      61.4118         5     0.711     0.444 -67.38   0
       378    170.0821    155.1670 300.2194149 +22.4828270     485.7873     72.51826      1.380     4.12     5.610653     20.47004        53.61         7     0.741     0.653  87.45   0
       379    715.1222    149.0576 300.3910242 +22.6443413     356.7612     72.59218      1.328     2.71     5.168621     20.47004     67.03799         7     0.865     0.594 -13.68   0
       380    991.0256    140.1804 300.4799238 +22.7243671     3741.396     72.55523      1.405     2.32     5.451764     20.47004     459.9526        29     1.191     1.061  57.83   2
       381    200.6312    139.6117 300.2339571 +22.4875163     5999.883     72.55523      1.337     2.39     5.610653     20.47004      829.033        35     1.176     1.054  70.17   0
       382    707.3171    139.9119 300.3915588 +22.6393755     366.2816     72.66603      1.162     2.65     5.181483     20.47004     56.98969         9     0.847     0.681  31.40   0
       383    611.6744    140.2594 300.3616520 +22.6108383     196.1941     72.61065      1.078     3.52     4.968894     20.47004     46.04561         5     0.788     0.454 -79.59   0
       384     51.7304    139.0918 300.1878485 +22.4427364     791.6093     72.68448      1.594     3.04     5.331175     20.47004     82.23113        14     0.983     0.904 -79.46   0
       385    830.1200    136.6461 300.4308912 +22.6751976     348.0033     72.53675      1.384     2.22      5.34604     20.47004     60.63538         6     0.694     0.614  66.24   0
       386    172.7713    133.3826 300.2273165 +22.4773782     328.0812     72.55523      1.427     2.54     5.610653     20.47004     44.13451         6     0.691     0.620  78.52   0
       387    215.8776    130.7897 300.2415585 +22.4895522      287.437     72.51826      1.319     4.34     5.610653     20.47004     47.51024         6     1.080     0.497  26.47   0
       388    446.7266    124.8323 300.3153011 +22.5570049     6105.848     72.55523      1.243     2.12     5.362326     20.47004     965.6841        26     1.064     0.929  72.44   0
       389    332.1412    124.6740 300.2796992 +22.5226330     651.3391     72.59219      1.207     1.80     5.130133     20.47004     125.5917         9     0.832     0.598  51.16   0
       390    503.7125    119.0441 300.3349162 +22.5724100     224.4921     72.53675      1.106     4.26      5.29434     20.47004     49.85627         6     0.851     0.618 -49.06   0
       391    699.3164    114.3841 300.3973460 +22.6296419     790.7527     72.51826      1.484     2.87     5.219066     20.47004     88.02682        13     1.039     0.746  83.42   2
       392    640.5762    115.9979 300.3785232 +22.6125192     313.0772     72.49976      0.984     2.05     5.121827     20.47004     71.67441         6     0.743     0.494  89.53   0
       393    791.6500    113.0228 300.4265615 +22.6568904     506.0566     72.55523      1.384     3.18     5.379446     20.47004     60.44928         7     0.811     0.695  19.25   0
       394    139.3575    108.5745 300.2249759 +22.4602409     452.6606     72.59219      1.338     3.73     5.547074     20.47004     55.98282         9     0.994     0.732  44.61   0
       395    498.0826    107.2476 300.3369895 +22.5673342     504.4412     72.57371      1.292     2.56     5.295302     20.47004     69.42405         7     0.694     0.663 -63.28   0
       396    575.0774    104.8688 300.3617333 +22.5897082     6145.032     72.66603      1.291     2.10     5.089678     20.47004     1035.399        30     1.126     0.950  70.97   0
       397    349.9708    103.9383 300.2919706 +22.5220184     1513.177     72.57371      1.317     2.37      5.00304     20.47004     205.2528        19     1.112     0.882  55.13   0
       398    616.2626    102.1735 300.3754337 +22.6012657      846.593     72.55523      1.206     2.48     5.086479     20.47004     111.4961        13     0.905     0.804  79.90   0
       399    685.9723     99.7066 300.3979487 +22.6214276     408.1883     72.46277      1.439     2.30     5.239362     20.47004       50.134         7     0.705     0.649   3.22   0
       400    632.2305     98.0742 300.3817366 +22.6048685     783.0668     72.57371      1.538     2.75      5.13806     20.47004     96.97959        11     0.933     0.774  35.68   0
       401     98.8614     96.2018 300.2164026 +22.4445513     762.2502     72.51826      1.457     3.75     5.432061     20.47004     85.91569        11     1.059     0.755  66.29   0
       402    901.8191     95.6013 300.4665591 +22.6848520      498.605     72.48127      1.235     2.73     5.611578     20.47004     76.49624         9     0.899     0.693  33.09   0
       403    670.8446     93.7119 300.3951799 +22.6151754     555.8169     72.55523      1.307     2.89     5.247865     20.47004     91.05925        10     0.994     0.710 -72.67   0
       404    619.3363     89.7748 300.3804120 +22.5986223     2842.979     72.53675      1.258     2.12     5.143415     20.47004     431.3487        26     1.137     0.947  66.09   0
       405    259.7565     90.6799 300.2682102 +22.4911817      350.878     72.53675      1.259     2.75      5.21289     20.47004     62.65719         6     0.841     0.510 -42.69   0
       406    634.2386     88.3195 300.3855256 +22.6026658     850.7404     72.51826      1.622     3.99     5.186103     20.47004     105.2423        15     1.352     0.771  55.56   0
       407    705.6768     81.2977 300.4100579 +22.6220341     1501.118     72.70293      1.227     2.22     5.266819     20.47004     213.2824        18     1.079     0.818  78.24   0
       408    643.7448     74.4910 300.3929710 +22.6015368      888.367     72.61065      1.167     2.15     5.265448     20.47004     115.7894        10     0.837     0.672  89.31   0
       409    449.3302     74.0800 300.3325703 +22.5432024     1106.848     72.66603      1.302     2.73     5.107057     20.47004     152.9886        16     1.020     0.905  63.68   0
       410     21.9421     73.9335 300.1997240 +22.4151027     560.6559     72.59218      1.511     3.65     5.074529     20.47004     65.20729        13     1.133     0.787 -25.46   0
       411    353.0675     71.9476 300.3033079 +22.5137561     832.0241     72.57371      1.327     2.95     4.916671     20.47004     113.6861        14     1.066     0.808  66.46   0
       412    996.1623     68.6299 300.5047323 +22.7053215     2391.146     72.59219      1.383     2.36     5.666981     20.47004     351.5448        26     1.112     1.045  75.86   0
       413    735.3566     70.5487 300.4227918 +22.6278280     433.5231     72.59219      1.259     2.35      5.24615     20.47004     66.90191         5     0.690     0.454  23.01   0
       414    706.3295     64.9994 300.4155464 +22.6175437     190.5498     72.48127      1.109     4.13     5.289909     20.47004     31.86217         5     0.815     0.596  -0.08   0
       415    692.6102     62.3343 300.4121360 +22.6126707     483.9819     72.51826      1.113     2.59      5.31542     20.47004     85.38258        10     0.897     0.682  55.77   0
       416    124.5478     62.0825 300.2354486 +22.4424532     3785.668     72.59219      1.487     2.62     5.082599     20.47004     428.9956        31     1.275     1.061  53.01   0
       417    450.4643     59.2384 300.3377357 +22.5392774     298.7352     72.53675      1.169     2.32     4.977633     20.47004     45.06233         5     0.690     0.462  68.56   0
       418    685.9645     54.5192 300.4125996 +22.6084344     867.7266     72.49976      1.126     2.42     5.343444     20.47004     147.7794        12     0.988     0.663  81.21   0
       419    240.4167     54.2475 300.2740094 +22.4749232     1190.853     72.59219      1.314     2.42       4.9838     20.47004     126.1523        14     0.941     0.799  68.83   0
       420    651.6285     53.8082 300.4021333 +22.5979513      363.726     72.53675      1.601     3.25      5.35448     20.47004      40.3395         5     0.735     0.452  72.80   0
       421    723.7717     49.3313 300.4260617 +22.6182598     608.8925     72.53675      1.517     5.36     5.272778     20.47004     68.13957        11     1.277     0.634  61.18   0
       422    647.1717     49.3179 300.4022010 +22.5953262     487.4702     72.57371      1.301     2.95     5.370361     20.47004     74.34082        11     0.988     0.762  17.70   0
       423    743.7566     45.6653 300.4334780 +22.6231875     2251.595     72.53675      1.246     2.02     5.248586     20.47004     361.7113        20     0.997     0.921  66.07   0
       424    449.4348     44.2328 300.3422807 +22.5346571     515.9156     72.61065      1.182     2.38      4.84981     20.47004     77.50404         6     0.697     0.591 -46.20   0
       425    127.0696     41.1241 300.2430274 +22.4371907     953.6825     72.62911      1.456     3.00     4.825888     20.47004     111.0555        13     0.967     0.878  37.80   0
       426    918.6489     38.9338 300.4901834 +22.6735882     660.3804     72.53675      1.182     2.38     5.628447     20.47004     117.6623        11     0.859     0.759  52.77   0
       427    692.1298     38.0942 300.4198460 +22.6055576     960.5469     72.66603      1.314     2.51     5.367325     20.47004     134.3177        15     0.983     0.856  59.59   0
       428    399.0453     36.2461 300.3291888 +22.5172708     337.9974     72.59219      1.397     4.18     4.848439     20.47004     44.55505         7     1.123     0.443 -55.88   0
       429    449.7962     30.8049 300.3467467 +22.5309067     358.1104     72.37019      1.191     2.86     4.735809     20.47004     59.08506         6     0.859     0.561  26.94   0
       430    142.3078     30.5685 300.2511857 +22.4387258      281.453     72.49976      1.519     3.51      4.71179     20.47004     36.81399         5     0.789     0.451 -18.34   0
       431     85.6806   1018.7148 299.9125839 +22.7051748     1222.545     72.70293      5.668     8.89     47.19345     20.47004     39.81258        12     2.411     0.914 -17.51  19
       432    544.6676     23.0701 300.3787878 +22.5570923     876.8051     72.59219      1.360     2.25     4.615482     20.47004     122.1623        11     0.946     0.735  62.52   0
       433    153.6927     20.3054 300.2580515 +22.4391899     641.9255     72.72137      1.779     3.68     4.574154     20.47004     64.42869         9     0.941     0.815  34.51   0
       434    707.8553     17.7725 300.4313342 +22.6044216     698.4062     72.55523      1.245     2.35      5.35038     20.47004     108.6814        11     0.920     0.686  73.08   0
       435    155.4240   1021.2545 299.9334281 +22.7268459     1262.765     68.15261      7.169     9.37     22.86363     20.47004     54.02388        23     3.835     0.639  14.32  27
       436     38.8963   1018.0452 299.8982686 +22.6909325     1160.039     72.57371      6.718    10.97     71.99546     20.47004     72.24018        28     4.135     0.810 -29.96  19
       437     82.8219   1012.5031 299.9137178 +22.7025367     1421.808     72.48127      5.241    12.65     46.05763     20.47004     45.48403        32     3.159     1.409 -66.60  18
       438    605.5809   1012.0287 300.0764671 +22.8593091     6890.146     72.55523      1.676     3.43     2.805312     20.47004     567.7613        48     1.417     1.318  27.65   0
       439     32.5949   1001.9827 299.9015397 +22.6844386     1953.586     72.51826      4.122    11.33     62.84159     20.47004     66.01963        35     2.542     1.407  -3.27   3
       440     74.6573   1010.9847 299.9116755 +22.6996498     733.8573     72.53675      5.498     5.86      49.0825     20.47004     29.76429         6     2.019     0.478  61.19  19
