#   1 NUMBER                 Running object number                                     
#   2 X_IMAGE                Object position along x                                    [pixel]
#   3 Y_IMAGE                Object position along y                                    [pixel]
#   4 ALPHA_J2000            Right ascension of barycenter (J2000)                      [deg]
#   5 DELTA_J2000            Declination of barycenter (J2000)                          [deg]
#   6 FLUX_APER              Flux vector within fixed circular aperture(s)              [count]
#   7 FLUXERR_APER           RMS error vector for aperture flux(es)                     [count]
#   8 FLUX_RADIUS            Fraction-of-light radii                                    [pixel]
#   9 FWHM_IMAGE             FWHM assuming a gaussian core                              [pixel]
#  10 BACKGROUND             Background at centroid position                            [count]
#  11 THRESHOLD              Detection threshold above background                       [count]
#  12 FLUX_MAX               Peak flux above background                                 [count]
#  13 ISOAREA_IMAGE          Isophotal area above Analysis threshold                    [pixel**2]
#  14 A_IMAGE                Profile RMS along major axis                               [pixel]
#  15 B_IMAGE                Profile RMS along minor axis                               [pixel]
#  16 THETA_IMAGE            Position angle (CCW/x)                                     [deg]
#  17 FLAGS                  Extraction flags                                          
         1     56.6896     19.4433 300.2318499 +22.4007662      1442.18     72.56349      1.509     2.66     4.789351     20.46715     161.2451        19     1.210     0.921  65.51   0
         2    199.3667     13.4954 300.2781118 +22.4418202     432.3787     72.52654      1.314     3.67     4.650184     20.46715     36.63532         6     0.873     0.482 -88.87   0
         3    884.2654     10.5631 300.4922630 +22.6460793     324.9477     72.54501      1.407     3.53     5.300812     20.46715     54.14514         7     0.938     0.532 -62.26   0
         4    251.4547      6.7233 300.2964991 +22.4554832      371.464     72.58196      1.137     2.01     4.084469     20.46715     60.18655         5     0.651     0.482 -73.57   0
         5    680.5621      5.5233 300.4304203 +22.5836583      426.039     72.52654      1.220     3.39     4.687107     20.46715     47.27747         6     0.865     0.496 -88.09  16
         6    117.6661      1.6505 300.2565612 +22.4139338     822.9982     58.30517      1.142     2.42     5.163931     20.46715     163.6762        11     0.907     0.699  -2.64  24
         7     88.7572   1004.4992 299.9218381 +22.6929062     1399.895     72.52654      7.700     9.81     18.26369     20.46715     37.82285        11     2.661     1.008 -44.42  11
         8    524.3812   1023.1226 300.0512142 +22.8290330     1072.305     59.53374      1.361     3.07     2.645433     20.46715     131.5025        14     1.048     0.845   5.08  24
         9    128.3603   1023.4102 299.9279845 +22.7102190     869.0701       57.913      6.465     7.77      19.4574     20.46715     45.96046        15     2.079     0.813   8.76  26
        10    109.6837   1021.2087 299.9228993 +22.7039788     928.3315     68.28059      5.143     7.19      20.3117     20.46715     32.76682        10     2.161     0.671  74.26  27
        11    113.2731   1019.4905 299.9245736 +22.7045646     1116.243     72.71113      5.155     6.46     19.79968     20.46715     30.36933         9     1.804     0.649 -44.80  19
        12     80.0954    997.3085 299.9214882 +22.6882445      1823.41     72.72956     17.828    23.94     17.06963     20.46715     53.13016        86     5.506     2.890 -33.83  19
        13     68.3442   1019.1373 299.9107332 +22.6909684     3151.505     72.60043     17.980    39.60     20.90487     20.46715     70.51987       432     8.914     4.883  -4.37  27
        14    381.4198   1004.9454 300.0126551 +22.7809121     605.3132     72.52654      1.584     5.05     2.927937     20.46715     46.37955        13     1.113     0.923  59.15   0
        15    545.2579    994.5526 300.0670119 +22.8271051     300.3449     72.60043      1.293     3.47     2.724382     20.46715     36.10265         5     0.744     0.467 -17.10   0
        16    393.4564    993.2059 300.0202200 +22.7811597     329.9914     72.52654      1.665     6.65     2.861196     20.46715     31.41383         9     1.601     0.774  17.95   0
        17    577.7358    990.8470 300.0783272 +22.8357879     313.4847     72.58196      1.289     4.16     2.726239     20.46715     46.04958         6     0.771     0.639   2.80   0
        18    683.8058    985.5129 300.1130887 +22.8660813     713.3215     72.47107      1.626     5.40     3.224916     20.46715     60.40259        14     1.256     0.854  69.87   0
        19   1010.4871    984.5426 300.2152148 +22.9637705     485.5824     72.61889      1.710     5.99     2.551489     20.46715     35.49078        11     1.099     0.919 -24.75   0
        20    718.6486    979.8838 300.1257728 +22.8749184     1050.285     72.52654      1.704     3.80     3.287043     20.46715     90.23299        18     1.161     1.022 -73.88   0
        21    495.9677    980.8551 300.0561312 +22.8083856     378.3009     72.56349      1.474     4.15     2.571367     20.46715     45.21116         8     0.865     0.646 -41.84   0
        22    895.1125    996.7496 300.1752679 +22.9326821     2123.715     72.54501      1.666     3.71     2.934372     20.46715     143.3317        29     1.339     1.219 -81.45   0
        23    740.9581    973.6027 300.1347665 +22.8798081      11333.4     72.56349      1.548     3.08     3.312044     20.46715     965.4052        46     1.313     1.224 -52.88   0
        24    931.7759    973.6962 300.1942018 +22.9370588     373.3181     72.45257      1.576     5.23     2.644267     20.46715     39.84457        10     1.183     0.817 -50.99   0
        25    786.9614    973.4675 300.1491423 +22.8935672       332.36     72.50805      1.382     2.12        3.286     20.46715     53.28241         6     0.731     0.498  -3.57   0
        26     52.5926    965.6953 299.9232352 +22.6709270     644.0098     72.43407      1.711     4.50     11.62712     20.46715     56.68063        12     1.231     1.002 -41.31   0
        27    445.4291    961.7735 300.0466175 +22.7877468     394.9309     72.54501      1.597     5.70     2.648288     20.46715     48.48313        11     1.102     0.983 -23.46   0
        28    792.5263    961.0540 300.1549166 +22.8916741     332.7251     72.56349      1.554     5.48     3.257951     20.46715     35.01479         9     1.014     0.834 -71.77   0
        29     42.9439    957.4005 299.9229381 +22.6656526     244.7076     72.47107      1.149     4.73     9.995231     20.46715     43.06536         7     1.502     0.423 -57.35   0
        30    749.5605    955.5347 300.1433272 +22.8772041     1305.403     72.50805      1.452     3.35     3.260934     20.46715     118.4738        18     1.057     1.021 -74.87   0
        31    932.2402    955.3083 300.2003318 +22.9319199     343.2885     72.54501      1.647     4.42     2.779176     20.46715     32.76515         6     1.289     0.432  -7.72   0
        32    601.6528    952.5807 300.0982276 +22.8319882     450.4706     72.52654      1.372     3.84     2.788551     20.46715     50.69708         8     0.986     0.671 -55.24   0
        33    787.5750    949.1295 300.1572551 +22.8867673     849.4813     72.54501      1.524     4.06     3.234103     20.46715     70.29742        16     1.117     1.007 -60.50   0
        34    896.3187    946.2245 300.1920900 +22.9185423     361.5865     72.52654      1.757     4.19     2.993103     20.46715     31.80416         6     0.759     0.659 -17.86   0
        35    580.8251    941.7333 300.0952742 +22.8226280     236.4191     72.52654      1.111     3.77     2.776055     20.46715     35.69512         5     0.898     0.455  47.46   0
        36    835.9741    940.1437 300.1752609 +22.8987027     620.7279     72.54501      1.471     3.88     3.155084     20.46715     62.19986        13     1.145     0.840  11.48   0
        37    687.2208    939.4601 300.1291414 +22.8538936     732.3907     72.48956      1.544     3.12     3.059207     20.46715     84.04518        13     0.980     0.881  71.26   0
        38    399.9349    935.9998 300.0408534 +22.7667027     4252.134     72.52654      1.484     2.90     2.825217     20.46715     439.5585        30     1.229     1.103 -81.98   0
        39    698.7221    936.6315 300.1336440 +22.8565319     562.1496     72.52654      1.249     2.55     3.090563     20.46715     79.54521        10     0.843     0.778 -59.95   0
        40    443.5067    924.0698 300.0582896 +22.7763582     336.8507     72.67425      1.287     4.70     2.676933     20.46715     44.55113         8     1.114     0.561  54.98   0
        41    178.5661    924.9243 299.9756363 +22.6970746     309.2503     72.54501      1.265     2.46       4.6933     20.46715     44.71193         6     0.758     0.490 -82.33   0
        42     62.3227    924.6053 299.9396281 +22.6620767     313.2767     72.45257      1.191     3.95     5.103669     20.46715     36.93795         6     0.960     0.464 -86.29   0
        43    125.1839    921.6519 299.9601152 +22.6801078     744.3118     72.54501      1.625     4.38     5.191352     20.46715     72.33913        16     1.198     0.965 -39.26   0
        44     34.5871    920.6013 299.9323174 +22.6525997     345.1489        72.36      1.487     3.48     4.808338     20.46715     26.90194         5     1.083     0.323 -68.94   0
        45    102.4160    918.7924 299.9539727 +22.6724514     1530.659     72.47107      1.597     3.31     5.215936     20.46715     177.3264        22     1.203     1.126  26.79   0
        46    974.0710    907.6044 300.2288999 +22.9307655     2261.021     72.48956      1.676     3.63     2.959261     20.46715     159.4916        27     1.300     1.142 -75.96   0
        47    928.3355    906.0475 300.2151463 +22.9166082      2088.38     72.58196      1.573     3.35     3.009808     20.46715     166.7901        27     1.223     1.159 -44.29   0
        48    633.6419    906.6049 300.1231489 +22.8283956     421.8264     72.56349      1.647     4.80     2.923046     20.46715     40.68768        11     1.222     0.631 -42.14   0
        49    134.6298    900.4960 299.9699332 +22.6768813     441.4802     72.48956      1.692     3.41     4.605001     20.46715     53.27197         7     0.944     0.735  42.85   0
        50    711.8433    899.9513 300.1496672 +22.8499426     710.9197     72.58196      1.505     3.86     3.054098     20.46715      70.4965        12     1.040     0.854 -33.01   0
        51    579.8849    893.9955 300.1105159 +22.8086520     4718.592     72.47107      1.388     2.69     2.813235     20.46715     560.7739        28     1.096     1.082 -13.05   0
        52     69.7473    895.1180 299.9515281 +22.6558571     435.4792     72.58196      1.496     4.35     4.495523     20.46715     49.93345         6     1.021     0.529 -23.47   0
        53    382.2717    891.0402 300.0499891 +22.7485099      394.776     72.52654      1.456     3.51     2.968288     20.46715      57.3017         9     0.884     0.769 -16.85   0
        54    130.1841    888.1094 299.9725820 +22.6719966     1340.647     72.47107      1.525     3.00     4.329155     20.46715     167.7578        22     1.287     1.032 -23.46   0
        55    600.5707    886.3509 300.1194428 +22.8126644     865.0723     72.56349      1.695     3.12     2.899951     20.46715     80.54286        13     0.985     0.876  89.03   0
        56    149.6179    885.1451 299.9795842 +22.6769821     387.1827     72.52654      1.417     3.34     4.173693     20.46715     59.20797        10     0.948     0.842  10.27   0
        57    755.8718    873.7085 300.1719210 +22.8556156     4258.314     72.71113      1.436     2.70     3.069896     20.46715     464.1536        33     1.221     1.097 -78.04   0
        58    517.4261    876.9899 300.0966087 +22.7850357     327.3695     72.54501      1.383     3.75     2.663824     20.46715     40.78223         6     0.817     0.494  87.28   0
        59    973.2051    873.6921 300.2396649 +22.9207691     1119.476     72.45257      1.541     3.84     3.054471     20.46715     95.36975        22     1.229     1.140   3.74   0
        60    164.8002    867.9107 299.9899083 +22.6766006      466.452     72.45257      1.638     4.43     3.699262     20.46715     52.98981         8     0.916     0.833 -15.61   0
        61    472.8712    866.3260 300.0862138 +22.7686090      560.687     72.61889      1.291     2.77     2.692748     20.46715      81.2742        10     0.982     0.651  46.77   0
        62    119.3365    864.5129 299.9768885 +22.6619768     983.8964      72.6558      1.533     3.33     3.803711     20.46715     111.6454        18     1.285     0.906  34.63   0
        63    268.9839    856.4464 300.0260176 +22.7045894     53337.65     72.56349      1.472     2.72     3.248112     20.46715     5384.432        99     1.387     1.342 -27.76   0
        64    534.4860    859.5829 300.1075813 +22.7851606     653.1904     72.50805      1.479     2.83     2.707491     20.46715     69.92813        12     0.950     0.805  27.07   0
        65    526.8573    855.3157 300.1065953 +22.7816479     1755.758     72.63734      1.378     2.56     2.747395     20.46715     201.2134        20     1.032     0.969 -10.77   0
        66    939.8687    854.3549 300.2355619 +22.9052245     865.4351     72.52654      1.493     3.03     3.110164     20.46715     101.0041        13     1.077     0.797  75.29   0
        67    197.1615    854.6583 300.0042756 +22.6825172      515.923     72.54501      1.603     3.45     3.571113     20.46715     63.83995         8     1.046     0.745 -20.26   0
        68    555.6584    851.3531 300.1168484 +22.7891512     823.2667     72.60043      1.275     2.99     2.831598     20.46715      124.242        13     0.968     0.858  33.80   0
        69    566.6046    849.8359 300.1207492 +22.7919995     643.2277     72.56349      1.298     3.48     2.880524     20.46715     76.55336        11     1.010     0.784 -81.91   0
        70    886.6530    846.7057 300.2214606 +22.8870763     324.5825     72.61889      1.455     5.36        3.214     20.46715     40.20187        11     1.138     0.846  -2.68   0
        71    672.0863    846.0765 300.1548137 +22.8225593     407.9336     72.67425      1.195     2.16     3.116841     20.46715     85.67894         8     0.783     0.667 -26.39   0
        72    139.5469    845.4188 299.9893785 +22.6625721     217.7344     72.52654      0.980     4.32     3.685139     20.46715     31.95319         6     1.389     0.383 -40.34   0
        73    467.2848    843.5966 300.0918699 +22.7604135     301.6892     72.47107      1.080     2.80     2.828543     20.46715     51.29931         5     0.943     0.337  70.09   0
        74    318.6830    833.6716 300.0488776 +22.7129757     31039.03     72.67425      1.440     2.58     3.307076     20.46715     3889.367        73     1.300     1.246 -82.75   0
        75    709.6175    836.3317 300.1696727 +22.8310182     765.3286     72.54501      1.263     2.60     3.072471     20.46715      111.326        12     0.909     0.812  44.48   0
        76    333.0739    834.1069 300.0532108 +22.7174194     2013.186     72.69269      1.394     2.60     3.295886     20.46715     240.4512        24     1.103     1.055  50.80   0
        77    841.8271    829.2828 300.2131572 +22.8686362     2879.294     72.54501      1.370     2.56      3.32538     20.46715     327.4577        22     1.069     0.970 -46.15   0
        78    870.6763    827.7408 300.2226503 +22.8768421     274.4817     72.60043      1.216     4.02     3.309175     20.46715     37.92444         5     1.010     0.457  83.55   0
        79    329.9539    828.0374 300.0542149 +22.7147426     535.1678     72.58196      1.282     2.66     3.343043     20.46715     75.41447         9     0.789     0.730   1.08   0
        80    599.5553    825.5100 300.1389200 +22.7949040     932.2449     72.54501      1.332     2.50     3.117309     20.46715     140.9865        18     1.116     0.940 -47.25   0
        81    435.9679    825.3456 300.0880635 +22.7457823     462.4163     72.56349      1.376     3.86     2.941244     20.46715     52.82931         8     0.900     0.769  86.03   0
        82    201.1502    825.3928 300.0150346 +22.6753251     796.6413     72.54501      1.351     3.28      3.60424     20.46715     100.3137        14     1.097     0.794  61.70   0
        83      6.3572    821.3629 299.9558343 +22.6156864     475.9539     72.61889      1.318     3.35     3.389331     20.46715     54.54895         6     0.858     0.475  84.72   0
        84    446.8229    820.3148 300.0930769 +22.7475962     847.7628     72.48956      1.251     2.55     2.955719     20.46715      117.348        13     0.964     0.861  56.13   0
        85    848.0646    816.9850 300.2191016 +22.8669756      499.342     72.52654      1.338     3.63     3.367219     20.46715     67.10802        12     1.105     0.791  49.98   0
        86    304.8065    815.9648 300.0503224 +22.7037338     410.3905     72.54501      1.457     4.20     3.473011     20.46715     46.38322         9     1.028     0.799 -18.94   0
        87    392.7474    815.2868 300.0778907 +22.7299291     471.8952     72.58196      1.566     3.02      3.12575     20.46715     55.12923         7     0.818     0.593  40.46   0
        88     34.1492    814.8964 299.9665676 +22.6221787     553.8886     72.61889      1.581     5.72     3.435738     20.46715     61.96976        14     1.338     0.952  -7.75   0
        89    825.7397    812.0310 300.2137556 +22.8588607     389.6408     72.58196      1.371     2.32     3.397131     20.46715     61.41432         7     0.728     0.626 -69.53   0
        90    198.8043    809.6452 300.0194275 +22.6701063     542.7389     72.54501      1.359     3.56     3.624986     20.46715     56.17725        10     0.882     0.798 -59.49   0
        91    522.0469    800.3006 300.1229938 +22.7644220     373.7616     72.56349      1.137     2.44     3.186425     20.46715     54.12687         7     0.709     0.647   5.07   0
        92    491.7924    798.3832 300.1142023 +22.7547962     583.1674     72.48956      1.405     2.73     3.126567     20.46715     85.36011        12     1.019     0.772 -70.87   0
        93    511.9661    795.9075 300.1212854 +22.7601377     3568.858     72.48956      1.181     0.55     3.186296     20.46715     2231.019        20     1.416     0.554  -5.90   0
        94    401.0104    797.0849 300.0863810 +22.7271878      235.765     72.48956      1.186     4.08     3.106193     20.46715     41.99245         7     0.881     0.555  47.34   0
        95    908.1990    794.5808 300.2451333 +22.8785687     4465.042     72.47107      1.390     2.63     3.327662     20.46715     539.3144        33     1.187     1.074 -74.05   0
        96    433.0655    795.2153 300.0969606 +22.7362691     389.0178     72.52654      1.432     3.95     3.013466     20.46715     43.40487         9     0.931     0.712  13.19   0
        97    640.4143    791.2236 300.1627936 +22.7973197     353.2975     72.54501      1.655     3.55     3.343637     20.46715     32.53676         5     0.796     0.456  73.44   0
        98    594.8204    790.8162 300.1487305 +22.7835289     314.8112     72.52654      1.287     3.99     3.270913     20.46715     42.68576         7     0.980     0.651  67.20   0
        99    896.6057    786.0549 300.2442923 +22.8726457     1638.332     72.54501      1.384     2.61     3.350018     20.46715     192.8968        21     1.113     0.974 -68.25   0
       100    125.6681    781.0615 300.0059981 +22.6399579     250.4347     72.60043      1.260     3.25     3.575545     20.46715     51.42905         5     0.954     0.430  25.10   0
       101    276.2820    779.6509 300.0532645 +22.6847602      309.689     72.56349      2.077     5.13       3.4452     20.46715     34.04962         6     1.392     0.535 -57.14   0
       102    259.4809    780.1981 300.0478636 +22.6798749     902.3535     72.45257      1.402     3.19     3.509113     20.46715     103.0283        11     0.999     0.734  -6.34   0
       103    723.0584    777.4016 300.1930274 +22.8181347     2611.907     72.48956      1.360     2.39     3.224632     20.46715     321.1333        27     1.298     1.020  -5.00   0
       104    927.7944    776.2722 300.2571972 +22.8791844     1492.558     72.48956      1.353     2.53     3.287014     20.46715     197.3715        17     0.961     0.916  53.17   0
       105    940.6931    766.9921 300.2642370 +22.8803852     251.4574     72.45257      1.658     4.11     3.323362     20.46715     30.05133         5     1.075     0.449 -23.86   0
       106    108.5725    764.2694 300.0061476 +22.6300122     547.0919     72.54501      1.417     3.37     3.556085     20.46715     62.27443        12     0.969     0.851  40.82   0
       107    805.2922    763.0848 300.2233034 +22.8386789     614.1042     72.71113      1.318     3.11     3.504007     20.46715     84.21854        10     0.938     0.710  32.86   0
       108    841.4124    754.2745 300.2374249 +22.8469768     145184.9     72.56349      1.315     2.34     3.455448     20.46715     16825.92       150     1.364     1.285 -71.33   0
       109    988.4285    755.9467 300.2827142 +22.8915181     1138.117     72.54501      1.414     3.33     3.580934     20.46715     134.3399        19     1.132     1.019 -87.51   0
       110    603.7613    757.8831 300.1622245 +22.7767597     455.2931     72.50805      1.599     3.50     3.368627     20.46715     51.78635         8     0.900     0.722 -25.56   0
       111    693.8024    754.7059 300.1912958 +22.8028482     663.4515     72.45257      1.159     2.37     3.412051     20.46715     106.7416         9     0.796     0.724  79.67   0
       112    874.2710    747.2119 300.2499629 +22.8547977     484.9109     72.56349      1.299     3.70     3.396763     20.46715     52.91115         8     0.937     0.642 -26.01   0
       113    527.7023    743.3066 300.1432889 +22.7497657     1666.805     72.72956      1.195     2.25     3.530773     20.46715     243.0702        18     0.939     0.909  73.62   0
       114    708.8453    740.4899 300.2006040 +22.8032778     9336.987     72.52654      1.239     2.15     3.447967     20.46715     1340.322        35     1.081     1.012 -74.21   0
       115    190.9829    741.4542 300.0391719 +22.6482077     182.9584     72.52654      1.114     2.83     3.591653     20.46715     48.37751         5     0.935     0.689  65.80   0
       116    210.3980    735.8152 300.0470393 +22.6524178     4840.208     72.39704      1.378     2.48     3.613566     20.46715     656.0249        28     1.096     1.059 -59.63   0
       117    292.6100    733.7847 300.0732552 +22.6765066     1171.526     72.47107      1.406     2.68     2.964844     20.46715     143.7013        17     1.021     0.940 -27.04   0
       118    168.0515    731.7421 300.0352037 +22.6385405     424.1436     72.60043      1.185     2.89     3.558619     20.46715     57.58065         8     0.813     0.651  38.56   0
       119    500.7509    729.2837 300.1394610 +22.7376584     691.3176     72.52654      1.142     1.88     3.541512     20.46715     124.5166        11     0.936     0.624 -87.96   0
       120    492.3165    721.3633 300.1394116 +22.7328559     3210.149     72.52654      1.197     2.26     3.549386     20.46715     408.3239        22     0.978     0.930 -86.16   0
       121    482.6231    715.2272 300.1383903 +22.7281879     1379.536     72.52654      1.273     2.45     3.555292     20.46715     189.9142        17     0.977     0.884 -59.18   0
       122    411.0393    714.2812 300.1164267 +22.7064440     405.5256     72.50805      1.603     2.68     3.257999     20.46715     41.13754         7     0.734     0.653   0.70   0
       123    876.2454    712.7460 300.2617857 +22.8454920     528.1174     72.58196      1.324     4.02     3.338375     20.46715     63.36082        10     1.038     0.696  47.50   0
       124    393.4764    712.0973 300.1116736 +22.7005488      392.995     72.69269      1.496     2.68     3.343808     20.46715     42.93503         6     0.759     0.494 -82.98   0
       125    145.8474    711.4160 300.0349127 +22.6260482     671.8508     72.58196      1.422     3.21     3.546664     20.46715     75.85245        14     1.015     0.888  47.12   0
       126    160.0675    710.1156 300.0397539 +22.6299433     718.3477      72.6558      1.492     3.08     3.549268     20.46715     74.16447        12     1.002     0.784 -19.64   0
       127     46.0280    709.3376 300.0045804 +22.5954898      289.472     72.54501      1.442     4.46      3.43828     20.46715     33.47223         6     0.878     0.646  33.65   0
       128    929.2817    706.0527 300.2804957 +22.8594638       703.78     72.58196      1.530     3.29      3.26699     20.46715     75.14565        12     1.013     0.850 -51.48   0
       129    407.4425    704.9827 300.1183309 +22.7026974      1820.15     72.56349      1.275     2.14     3.355069     20.46715     250.3943        19     1.088     0.818 -75.22   0
       130    217.1754    706.7448 300.0585971 +22.6461155       322.84     72.56349      1.240     3.11     3.622724     20.46715     43.51132         8     0.880     0.637   9.86   0
       131    185.8858    706.7007 300.0488870 +22.6367128     425.7275     72.71113      1.260     3.01     3.582168     20.46715     65.71895         9     0.882     0.674 -59.97   0
       132    506.6452    705.0913 300.1491610 +22.7324845     431.0577     72.52654      1.172     2.58     3.601713     20.46715     53.96931         7     0.735     0.631  85.54   0
       133    441.4107    704.1128 300.1291809 +22.7126372     246.4828     72.48956      1.128     3.29     3.431809     20.46715     56.71376         7     0.969     0.457 -77.66   0
       134    983.2484    702.0378 300.2986287 +22.8744814     889.0001     72.56349      1.260     2.92     3.722231     20.46715     111.3559        11     0.923     0.725 -70.10   0
       135     61.3658    700.0284 300.0123704 +22.5974254     19699.81     72.56349      1.524     2.61     3.465392     20.46715     2417.595        64     1.374     1.300  26.16   0
       136    492.4332    700.1876 300.1463326 +22.7268148     956.3068     72.52654      1.205     2.11     3.602578     20.46715     145.5236        13     0.914     0.770 -14.90   0
       137    527.2952    699.0579 300.1575492 +22.7369463     419.6349     72.61889      1.333     3.98     3.627481     20.46715     48.40396         9     1.052     0.701  22.95   0
       138    245.9559    692.0904 300.0723068 +22.6505494     356.5974     72.54501      1.404     3.14     3.539442     20.46715     41.39017         5     0.769     0.521  30.64   0
       139    575.6389    687.8608 300.1762370 +22.7482305     252.5902     72.54501      1.223     2.31      3.62419     20.46715     47.77827         5     0.722     0.434  69.13   0
       140    910.2957    686.2922 300.2810012 +22.8480989     1021.364     72.72956      1.344     2.61     3.263226     20.46715     147.6872        13     0.927     0.842 -44.38   0
       141      7.2738    684.2601 300.0006975 +22.5766672      1553.71     72.58196      1.946     4.74     3.367751     20.46715     115.5061        27     1.586     1.127 -84.91  16
       142    777.1099    684.3131 300.2401356 +22.8076143     592.3981     72.71113      1.441     2.99     3.465557     20.46715     73.51482        11     0.885     0.869 -16.49   0
       143     73.3453    684.8687 300.0210192 +22.5966753     454.9896     72.58196      1.381     3.74     3.483449     20.46715     68.17477         7     0.903     0.643 -31.42   0
       144    455.7393    680.9858 300.1411574 +22.7102994     588.5359     72.50805      1.279     2.17     3.623984     20.46715     82.75867         7     0.714     0.615 -75.03   0
       145    248.3863    680.0662 300.0769711 +22.6478301     355.8556     72.50805      1.439     2.89     3.573408     20.46715     51.73133         6     0.878     0.554  -3.17   0
       146    850.6859    678.9102 300.2648200 +22.8281149     686.8846     72.71113      1.291     2.40     3.307438     20.46715     97.30584         9     0.801     0.728 -89.35   2
       147    846.3619    678.3367 300.2636588 +22.8266543     398.0977     72.52654      1.440     3.85     3.320865     20.46715     40.62357         8     0.963     0.610 -18.04   3
       148    595.0977    677.2200 300.1857541 +22.7510113     308.0959     72.47107      1.162     2.60     3.640356     20.46715     52.78253         6     0.842     0.470 -36.48   0
       149    412.3118    673.0479 300.1302273 +22.6949959     710.0596     72.54501      1.203     2.50     3.656951     20.46715     115.0801        13     0.978     0.773  83.68   0
       150    560.6304    671.3835 300.1769217 +22.7390009     613.6305     72.52654      1.440     2.34     3.667914     20.46715     73.03455         8     0.806     0.617 -87.47   0
       151    607.6567    670.2778 300.1919209 +22.7527844     521.5649     72.58196      1.225     2.30     3.662678     20.46715     86.68826         8     0.803     0.634  80.52   0
       152    578.0061    669.6413 300.1828969 +22.7437111     645.3979     72.58196      1.340     2.45     3.666926     20.46715     101.8851        11     0.927     0.714 -65.74   0
       153    456.5091    668.9380 300.1453133 +22.7070733     920.3845     72.63734      1.353     2.51     3.681011     20.46715     109.6788        13     0.886     0.831  10.73   0
       154    890.4099    664.2628 300.2819638 +22.8358126     3203.438     72.47107      1.218     2.21     3.246956     20.46715     429.0535        24     1.017     0.995 -17.58   0
       155    422.2053    664.4100 300.1361129 +22.6954851     1710.434     72.39704      1.238     2.20     3.693564     20.46715      233.635        16     0.945     0.869 -88.24   0
       156    988.2657    662.2672 300.3131234 +22.8645599     569.5396     72.60043      1.240     2.81     3.763199     20.46715     79.53645        11     0.906     0.769  35.26   0
       157    787.4534    661.5394 300.2507619 +22.8041752     305.6965     72.60043      1.157     3.63     3.496167     20.46715      48.2352         7     0.881     0.655  19.69   0
       158    451.5746    655.2184 300.1482377 +22.7016565     283.5635     72.56349      1.022     2.72      3.71616     20.46715     46.81557         5     0.711     0.462 -70.93   0
       159    930.0169    654.1626 300.2975948 +22.8447795     454.8576     72.54501      1.279     3.16     3.254742     20.46715     52.90561         8     0.804     0.682 -29.21   0
       160    285.5324    651.2338 300.0978909 +22.6507055     9164.052     72.54501      1.267     2.24     3.539442     20.46715     1267.458        38     1.144     1.039  74.31   0
       161    408.0066    648.2526 300.1369478 +22.6865903     8904.978     72.52654      1.263     2.13      3.71836     20.46715     1378.707        36     1.073     1.032 -87.45   0
       162   1012.5764    643.2344 300.3268924 +22.8663750     974.8344     72.56349      1.323     2.45     3.982611     20.46715     128.5996        12     0.918     0.765 -23.11   0
       163    654.2495    644.0826 300.2149437 +22.7592341     433.7706     72.54501      1.306     3.01     3.681455     20.46715     54.06458         7     0.739     0.645 -72.12   0
       164     52.4069    644.3589 300.0276828 +22.5787763     300.6312     72.58196      1.602     3.80     3.444826     20.46715     31.30098         5     0.976     0.425  14.67   0
       165    904.3130    639.3207 300.2944058 +22.8328145     12243.57     72.71113      1.268     2.24     3.244508     20.46715     1622.978        43     1.148     1.077 -89.01   0
       166    819.6118    641.9713 300.2671437 +22.8081939     1871.283     72.54501      1.224     2.18     3.462105     20.46715     292.9951        20     1.061     0.873 -85.44   0
       167    468.5662    637.8110 300.1591825 +22.7017573     11406.35     72.52654      1.204     2.00     3.758841     20.46715     1828.409        42     1.088     1.044  77.49   0
       168    638.1385    633.6788 300.2133084 +22.7514173      469.143     72.61889      1.118     2.65     3.755543     20.46715     76.00748         8     0.825     0.661 -19.75   0
       169    195.9881    633.2849 300.0758903 +22.6186904      1294.76     72.48956      1.370     2.62     3.553627     20.46715      164.208        18     1.012     0.947  68.17   0
       170    353.9809    632.2868 300.1253332 +22.6658041     321.3064     72.48956      1.294     3.39     3.710435     20.46715     42.15506         5     0.802     0.479 -50.24   0
       171    442.9369    630.6047 300.1535505 +22.6920029     457.7444     72.50805      1.242     2.64     3.776416     20.46715     72.02003         8     0.836     0.614 -89.53   0
       172    400.2571    625.9741 300.1417781 +22.6778735     4365.266     72.54501      1.227     2.15      3.77631     20.46715     669.8457        25     0.978     0.953 -10.86   0
       173    742.9185    625.7297 300.2485266 +22.7805441     662.2049      72.6558      1.161     1.91     3.703678     20.46715     169.4877        12     0.843     0.786  60.56   0
       174    378.5068    624.3136 300.1355524 +22.6708732     1263.882     72.72956      1.161     2.20     3.769023     20.46715     167.1101        14     0.853     0.823  32.31   0
       175    133.0763    623.5950 300.0594902 +22.5970332     736.9907     72.45257      1.433     4.05     3.523299     20.46715     98.38483        13     1.130     0.894 -44.68   0
       176    819.9614    621.2564 300.2739857 +22.8023494     1614.738     72.54501      1.347     2.70      3.50822     20.46715     215.1005        18     1.055     0.890 -39.11   0
       177     66.7890    621.4077 300.0396088 +22.5765124     339.9685     72.41555      1.418     4.39     3.469618     20.46715     37.47679         7     1.147     0.477   6.42   0
       178    516.8752    613.4854 300.1821217 +22.7092628     200094.4      72.6558      1.218     2.05     3.743974     20.46715     32562.97       204     1.367     1.346 -53.52   0
       179    340.5554    619.6102 300.1252779 +22.6581400     272.9134     72.56349      1.029     2.91     3.728809     20.46715     61.09252         7     0.934     0.462 -77.03   0
       180    700.5557    618.4127 300.2377087 +22.7657454     787.1082     72.54501      1.161     2.79     3.709276     20.46715     114.6313        13     0.956     0.771 -38.29   0
       181    904.7366    614.6911 300.3025433 +22.8258665     348.3384     72.63735      1.689     4.94     3.242157     20.46715     35.48468         6     0.880     0.784 -75.44   0
       182    202.9488    613.5759 300.0844588 +22.6151262     3424.804     72.56349      1.307     2.43     3.536311     20.46715     466.9943        24     1.047     0.955  86.84   0
       183    768.8697    609.2543 300.2619663 +22.7835909     570.9298     72.58196      1.644     3.30     3.732805     20.46715      61.9981         7     0.848     0.635 -53.03   0
       184    787.8151    607.4114 300.2684682 +22.7887395      343.524     72.47107      1.586     4.38      3.69419     20.46715     40.17467         6     0.852     0.640 -27.80   0
       185    548.4370    600.2155 300.1962577 +22.7149175     245.1658     72.54501      1.082     1.68     3.795349     20.46715      60.7533         5     0.624     0.482  72.62   0
       186    407.4328    594.2285 300.1543270 +22.6709163     2649.502     72.56349      1.347     2.79     3.866326     20.46715     394.8794        26     1.559     0.818 -86.65   0
       187    251.7278    596.3721 300.1052112 +22.6248263     451.9819     72.52654      1.397     2.83     3.614457     20.46715      63.9134         8     0.941     0.541  72.07   0
       188    857.1967    593.8148 300.2945091 +22.8056254     308.0618     72.37852      1.011     1.90     3.415849     20.46715     72.82166         6     0.730     0.490 -40.72   0
       189    993.8411    589.8544 300.3383990 +22.8454255     156.6871     72.50805      1.319     4.85     3.911907     20.46715     27.10437         5     1.287     0.517  62.46   0
       190    725.1734    582.1801 300.2571520 +22.7627198     417.7703     72.52654      1.337     4.40     3.819919     20.46715     70.84352        11     1.285     0.755 -52.30   0
       191    804.3132    579.8204 300.2825757 +22.7857592     1694.882     72.47107      1.183     1.96     3.741667     20.46715     278.8278        18     1.002     0.873  79.58   0
       192    675.6176    577.5683 300.2432153 +22.7465424     2431.152     72.52654      1.094     1.99     3.776684     20.46715     397.6041        19     0.975     0.809 -89.57   0
       193    919.9780    574.7554 300.3202737 +22.8189602     537.0887     72.60043      1.150     1.96     3.636945     20.46715     88.85423         7     0.670     0.636 -19.73   0
       194    462.8554    573.6338 300.1782619 +22.6816264     736.3995     72.56349      1.177     2.21     4.089944     20.46715     131.3029        13     1.002     0.757 -66.40   0
       195    885.1913    574.5780 300.3094866 +22.8084873     274.8555     72.54501      1.140     1.90     3.576606     20.46715     48.43236         5     0.658     0.471 -18.91   0
       196    580.8081    574.2322 300.2147780 +22.7171639     379.0137     72.54501      1.169     2.75     4.122785     20.46715     81.23799         7     0.909     0.547  20.69   0
       197    933.0987    571.2258 300.3255114 +22.8218769     1356.759     72.48956      1.350     2.69     3.719706     20.46715     189.6987        20     1.171     0.894 -53.90   0
       198    918.7500    570.3414 300.3213252 +22.8173242     652.6096     72.60043      1.224     3.27      3.69311     20.46715     95.10515        10     1.013     0.651  61.49   0
       199    804.6333    569.7955 300.2859331 +22.7829758     2224.057     72.52654      1.463     3.71     3.774027     20.46715      305.062        24     1.624     0.805  77.53   0
       200    842.8503    565.0292 300.2993920 +22.7930581     4346.722     72.56349      1.241     1.99     3.689808     20.46715     755.1187        29     1.119     0.978  88.03   0
       201    558.0010    568.0215 300.2096963 +22.7085433     862.6696     72.47107      1.542     2.36     4.150611     20.46715     95.99142         9     0.795     0.671  41.60   0
       202    483.7298    564.7262 300.1876516 +22.6853290     219.5057     72.61889      1.093     3.94       4.2403     20.46715     39.72856         6     0.792     0.561  52.76   0
       203    396.5111    567.0757 300.1597527 +22.6598488     290.3857     72.67425      0.951     2.01     3.928743     20.46715     70.13426         6     0.723     0.494 -81.94   0
       204    503.3593    560.9320 300.1949930 +22.6901257     335.9352     72.52654      1.328     2.97     4.259099     20.46715     51.44345         5     0.736     0.440 -71.14   0
       205    934.6094    555.4597 300.3311056 +22.8177997     776.0969     72.50805      1.209     2.44     3.912141     20.46715     113.0639        12     0.897     0.779  41.25   0
       206     74.8279    555.5458 300.0635063 +22.5600387     1140.138     72.54501      1.524     2.81     3.421054     20.46715     135.9464        18     1.131     0.894   7.83   0
       207    735.9477    549.0782 300.2712645 +22.7564425     191.8331     72.54501      1.137     3.67     3.864795     20.46715     40.91962         5     0.668     0.581   2.15   0
       208    122.5175    548.0662 300.0807513 +22.5722037     332.0227      72.6558      1.316     3.62      3.48172     20.46715     45.18817         5     0.942     0.570 -11.66   0
       209     67.2060    545.4565 300.0644166 +22.5548582     401.7125     72.52654      1.393     4.99     3.392197     20.46715     61.47703         8     0.979     0.721  76.12   0
       210    931.1459    544.3921 300.3336219 +22.8135822     340.3769     72.54501      1.127     2.52     4.020698     20.46715      65.8497         8     0.852     0.605 -15.26   0
       211    675.0381    539.5660 300.2553829 +22.7354562     462.8946     72.58196      1.083     1.96     3.871278     20.46715     90.12823         8     0.716     0.674 -85.53   0
       212    283.3803    537.9152 300.1340450 +22.6175505     348.7764     72.47107      1.484     3.42     3.980503     20.46715     40.83761         5     0.822     0.487 -36.30   0
       213    564.2254    537.4008 300.2215830 +22.7016186     366.3985     72.48956      1.434     1.76     4.358626     20.46715     59.11034         5     0.651     0.463  20.68   0
       214    616.1590    535.5634 300.2383482 +22.7166589     717.2369     72.63734      1.199     2.05     4.246393     20.46715     128.7148         8     0.763     0.632 -55.71   0
       215    895.5420    535.2439 300.3254943 +22.8002879     187.6439     72.56349      1.159     3.44     3.940785     20.46715     35.06307         5     0.737     0.465 -71.66   0
       216   1023.4792    533.2150 300.3660479 +22.8380269     795.3997     57.49485      1.046     2.39     4.184308     20.46715     137.5659        10     0.901     0.622 -86.86  24
       217    930.9881    527.9206 300.3389245 +22.8088022     528.6317     72.52654      1.235     3.08     4.050391     20.46715     112.7389        11     1.029     0.691 -48.94   0
       218    676.9949    527.8058 300.2598131 +22.7326655     933.1936     72.39704      1.276     1.91     3.877333     20.46715      166.959        12     1.004     0.699  84.00   0
       219    834.2677    523.9488 300.3100648 +22.7786856     1066.732     72.52654      1.236     2.27     3.923364     20.46715     160.6564        11     0.842     0.764 -53.41   0
       220    818.4196    520.2143 300.3063391 +22.7728645     635.8727     72.50805      1.173     2.59     3.949157     20.46715     95.10392        10     0.906     0.709  61.56   0
       221    792.2797    521.3848 300.2978131 +22.7653686     252.7968     72.56349      1.162     4.15     3.944993     20.46715     39.40278         6     0.725     0.678  82.98   0
       222    562.8719    518.3557 300.2273490 +22.6957449     3244.104     72.52654      1.147     2.04     4.327617     20.46715     512.4526        21     0.967     0.848  83.90   0
       223    923.3273    517.0616 300.3400640 +22.8033872     501.5826     72.58196      1.150     2.24     4.056156     20.46715     91.19891         7     0.727     0.595  60.94   0
       224     39.0511    509.8937 300.0672243 +22.5362107     466.0183     72.61889      1.572     2.12     3.346239     20.46715     56.75758         5     0.737     0.478  62.66   0
       225    568.3676    506.6910 300.2328492 +22.6940432     227.6349     72.48956      1.158     3.14     4.297332     20.46715      46.8148         5     0.719     0.475 -81.14   0
       226    402.9408    505.4156 300.1817850 +22.6440807     354.4904     72.50805      1.253     2.71      3.98574     20.46715     51.65958         8     0.779     0.681  71.84   0
       227    334.9648    506.1152 300.1604154 +22.6238970     172.8267     72.52654      1.300     3.98     4.032245     20.46715     37.34813         6     0.938     0.482 -35.87   0
       228    974.1635    497.1192 300.3623942 +22.8128834     1322.219     72.50805      1.282     2.30     4.128514     20.46715     208.6724        14     0.961     0.783 -60.04   0
       229    846.2406    497.1256 300.3225105 +22.7745667     426.5851     72.52654      1.001     1.72     4.031421     20.46715     104.3163         7     0.689     0.585  71.55   0
       230    932.4229    495.9634 300.3497540 +22.8000492     904.0958     72.56349      1.138     2.02     4.110226     20.46715     154.6738        13     0.864     0.783  59.31   0
       231    673.3342    492.2988 300.2702079 +22.7213713     1029.936     72.63735      1.107     2.05     3.895499     20.46715     165.8347        13     0.840     0.772 -50.23   0
       232    469.0997    492.9805 300.2064076 +22.6603480      423.678     72.45257      1.287     2.05     4.271254     20.46715     82.70056         8     0.797     0.595 -54.00   0
       233    177.4892    490.9405 300.1163894 +22.5723096     627.4229     72.61889      1.341     2.80     3.789499     20.46715     98.17964         9     0.862     0.705 -10.13   0
       234    239.7592    486.3544 300.1372331 +22.5896725       3693.8     72.61889      1.259     2.28     4.053119     20.46715      504.526        26     1.064     0.992  86.64   0
       235    972.8585    484.5306 300.3660767 +22.8088748     4219.686     72.56349      1.232     2.08     4.135219     20.46715     694.5448        25     1.021     0.929 -77.12   0
       236    186.9298    481.1894 300.1224905 +22.5723440     7606.543     72.52654      1.311     2.27      3.87351     20.46715     1067.491        36     1.133     1.055 -87.43   0
       237    565.3821    480.7383 300.2403501 +22.6856966     342.9465     72.50805      1.163     2.74     4.258329     20.46715      45.9951         5     0.726     0.443 -69.77   0
       238    327.7552    475.3422 300.1681689 +22.6129036     4628.927     72.58196      1.181     2.08     4.079699     20.46715     720.7715        28     1.030     0.942 -80.54   0
       239    952.7967    475.5365 300.3627423 +22.8002815     1878.534     72.50805      1.249     2.04     4.124299     20.46715     319.8795        19     0.966     0.911  36.33   0
       240    571.9316    471.9396 300.2452469 +22.6851333     18289.56     72.56349      1.215     1.98     4.242933     20.46715     3421.885        50     1.150     1.007  77.76   0
       241    589.4948    472.0092 300.2506920 +22.6904174     765.8438     72.45257      1.645     5.24      4.18783     20.46715     84.48714        13     1.617     0.570 -34.80   0
       242    414.9112    472.0956 300.1963317 +22.6381061      394.837     72.72956      1.344     2.80     4.019691     20.46715     48.82447         6     0.763     0.543 -42.50   0
       243    815.6469    468.1409 300.3223909 +22.7570739     215.8938     72.60043      1.036     3.04     4.107459     20.46715     36.59618         5     0.738     0.445 -72.67   0
       244    768.9565    462.3135 300.3097347 +22.7414115     319.1968     72.52654      1.320     2.88     4.037163     20.46715     52.77815         9     0.864     0.685 -61.57   0
       245    191.8725    459.3114 300.1311321 +22.5675498     303.3746     72.71113      1.123     2.28     3.978435     20.46715     63.48724         6     0.713     0.593  73.01   0
       246    905.5668    454.2112 300.3549432 +22.7800072     634.2512     72.52654      1.195     3.81     4.078049     20.46715     94.95194        11     1.168     0.705 -59.78   0
       247    442.4261    453.9256 300.2107932 +22.6411396     350.3886     72.56349      1.146     3.89     4.208961     20.46715     46.50419         7     0.950     0.490  85.30   0
       248    126.6840    452.1371 300.1132051 +22.5459368     2105.936     72.63734      1.360     2.54     3.790799     20.46715     270.4912        21     1.089     0.948 -68.43   0
       249    140.0377    447.7670 300.1187733 +22.5486890      226.638     72.58196      1.108     3.83     3.819954     20.46715     29.52551         5     0.819     0.514  53.40   0
       250    512.6345    441.4324 300.2366979 +22.6585996     6421.704     72.58196      1.114     2.00     4.366673     20.46715      923.015        32     1.056     0.942 -83.35   0
       251    926.1604    441.4679 300.3655026 +22.7825130     1166.493     72.50805      1.199     2.22     4.034324     20.46715     201.3967        14     0.935     0.839  50.04   0
       252    227.2870    440.9232 300.1481110 +22.5728957     567.5395     72.67425      1.199     2.84     4.230937     20.46715     87.22333        11     0.891     0.806  43.01   0
       253     85.0755    434.3586 300.1060517 +22.5283544     585.1623     72.52654      1.399     2.65     3.926181     20.46715     68.12434         9     0.845     0.661 -50.72   0
       254    772.7347    432.8344 300.3204862 +22.7340745     334.9414     72.54501      1.164     4.79     4.098399     20.46715      48.3429         8     0.996     0.652 -60.95   0
       255    626.5848    431.8145 300.2752946 +22.6899902     591.0464     72.48956      1.378     2.63      4.14151     20.46715     62.81507         9     0.863     0.660 -20.84   0
       256    716.7432    430.3372 300.3038535 +22.7165817     1133.876     72.60043      1.147     2.05     4.102911     20.46715     185.1334        13     0.909     0.741 -86.29   0
       257    199.8746    430.9868 300.1428174 +22.5618228     187.4011     72.56349      1.435     4.73     4.126437     20.46715     33.77868         5     1.244     0.510 -25.37   0
       258    419.2044    427.7062 300.2120834 +22.6266507     6066.864     72.43406      1.177     2.09     4.265431     20.46715     1006.013        28     1.021     0.907 -88.98   0
       259    868.7697    424.1949 300.3532208 +22.7603600     131.8406     72.52654      1.257     4.83     4.092902     20.46715     37.57761         6     1.047     0.630  -9.71   0
       260    908.5900    422.0038 300.3663459 +22.7716570     541.5278     72.37852      1.183     2.62     4.017853     20.46715     90.53654        10     0.884     0.754  66.52   0
       261    811.2166    421.8726 300.3360373 +22.7424532     1482.437     72.54501      1.234     1.95     4.137143     20.46715     262.5823        14     0.899     0.767 -37.18   0
       262    403.8829    416.3206 300.2110143 +22.6187887     448.8942     72.67425      1.242     2.55     4.285884     20.46715     70.05261        10     0.922     0.662 -59.33   0
       263    486.4536    414.1182 300.2374202 +22.6429091     417.3372     72.58196      1.097     3.60     4.382586     20.46715     63.63729         6     0.783     0.497 -88.14   0
       264    764.9221    412.8884 300.3245294 +22.7260034     260.2554     72.69269      1.230     4.50     4.141233     20.46715     39.43751         6     1.193     0.484 -53.47   0
       265    466.8551    411.7940 300.2320763 +22.6363670     259.9886     72.54501      1.167     3.01     4.361732     20.46715     49.26505         8     0.878     0.724  68.34   0
       266    783.9344    409.7373 300.3314766 +22.7307937     423.8921     72.58196      1.053     2.04     4.166198     20.46715     96.66002         8     0.750     0.620  37.78   0
       267     65.6031    409.2165 300.1081668 +22.5153003     160.7869     72.45257      1.197     2.90     4.332788     20.46715     37.87651         5     0.740     0.433 -67.73   0
       268    306.7750    406.9619 300.1838512 +22.5869868     2423.598     72.56349      1.232     2.05     4.280802     20.46715     406.5971        19     0.967     0.862 -64.29   0
       269     25.0114    404.5139 300.0970861 +22.5017736     898.8408     72.48956      1.350     2.73     4.895214     20.46715     105.2374        13     0.911     0.874 -25.84   0
       270    654.3765    401.4348 300.2938142 +22.6895924     389.1077     72.56349      1.144     3.45     4.276223     20.46715     46.53498         5     0.755     0.456  18.86   0
       271    276.1170    396.4536 300.1777308 +22.5747776     29391.44     72.58196      1.256     2.19     4.340259     20.46715     4335.529        62     1.191     1.096  78.31   0
       272    810.8101    393.7145 300.3450544 +22.7342405     1354.181     72.48956      1.166     2.13     4.206653     20.46715     244.4652        15     0.909     0.824 -57.84   0
       273    766.3255    391.4746 300.3319202 +22.7202714     316.7476     72.63734      1.168     2.34     4.252892     20.46715     62.62308         6     0.781     0.510 -47.46   0
       274    769.1279    382.9877 300.3355490 +22.7186724      124.527     72.56349      0.989     3.71     4.292104     20.46715     39.15056         5     0.803     0.499  27.78   0
       275    726.0573    382.5520 300.3222719 +22.7056444     421.4109     72.60043      1.164     2.20     4.317811     20.46715     76.14199         8     0.758     0.648  79.03   0
       276    374.2337    381.9274 300.2129589 +22.6000264     562.7408     72.54501      1.278     2.77     4.260049     20.46715     82.22094        11     0.973     0.692 -84.59   0
       277    150.1817    382.6272 300.1430763 +22.5330422     458.2923     72.54501      1.412     3.32     4.149559     20.46715     56.43313         8     1.017     0.650  44.50   0
       278    686.4713    376.1105 300.3120326 +22.6919341     2006.284     72.71113      1.177     1.94     4.392227     20.46715     305.8871        18     0.953     0.828 -71.56   0
       279    494.6631    370.9224 300.2540003 +22.6329663     460.5337     72.61889      1.354     1.91     4.223841     20.46715     74.12766         7     0.688     0.608 -82.89   0
       280    901.5635    368.7001 300.3814639 +22.7542329     634.5627     72.52654      1.138     2.10     3.933483     20.46715     108.3496        10     0.897     0.674 -64.77   0
       281    755.5150    362.0199 300.3381154 +22.7085699     113.0912     72.47107      1.152     3.69     4.410172     20.46715     31.09975         6     0.791     0.499  88.12   0
       282    348.2690    360.7591 300.2117556 +22.5861652     2177.148     72.52654      1.400     2.65     4.302463     20.46715     258.8503        23     1.301     0.890  72.29   0
       283    560.3536    359.5513 300.2781382 +22.6493878     309.5738     72.56349      1.022     2.61     4.280163     20.46715     46.87225         5     0.684     0.470 -19.14   0
       284    787.4227    353.3353 300.3508768 +22.7156321     420.4051     72.52654      1.025     2.37     4.415502     20.46715     91.49532         7     0.845     0.491 -85.65   0
       285    669.9084    351.2672 300.3149397 +22.6798347     343.9063     72.67425      1.041     2.02     4.467532     20.46715     90.65406         9     0.835     0.601  76.41   0
       286    638.0305    350.7148 300.3051915 +22.6701251     224.7858     72.54501      1.030     2.65      4.36927     20.46715     45.81955         5     0.783     0.470 -63.36   0
       287    138.5965    342.0987 300.1526332 +22.5179380     87.35402     72.43406      0.909     3.38     4.310204     20.46715     33.33576         5     0.747     0.443 -69.50   0
       288    424.1036    340.1069 300.2420490 +22.6029688     1211.252     72.72956      1.272     1.99     4.278109     20.46715     205.3807        16     0.914     0.882  47.47   0
       289    509.7268    338.1513 300.2693272 +22.6280697     258.3868     72.54501      1.294     4.03      4.23236     20.46715     47.92419         6     1.108     0.419  58.97   0
       290    669.0380    331.8687 300.3209660 +22.6740009     2150.995     72.50805      1.173     1.94     4.468225     20.46715     429.2327        17     0.955     0.791 -74.41   0
       291    930.2836    326.1784 300.4042230 +22.7506105     3001.909     72.50805      1.156     2.01     3.914553     20.46715     507.0047        19     0.947     0.829  82.55   0
       292    991.6519    321.0488 300.4250252 +22.7675097     422.6497     72.58196      1.340     2.37     3.921665     20.46715     57.88703         7     0.726     0.611  88.17   0
       293    377.2103    315.7847 300.2353563 +22.5819289     588.9422     72.47107      1.133     2.11     4.319863     20.46715     125.1797         9     0.849     0.600  68.73   0
       294    999.6428    314.0074 300.4298033 +22.7678776     1517.096     72.56349      1.231     2.28     3.931621     20.46715     235.3066        18     0.979     0.869  54.11   0
       295     83.2042    310.2784 300.1457518 +22.4921940     388.9298     72.45257      1.205     2.64     4.404925     20.46715     66.97049        10     0.905     0.691 -42.16   0
       296     52.1042    310.1476 300.1361337 +22.4828286     1367.103     72.61889      1.596     3.30     4.641767     20.46715      126.797        21     1.248     0.940 -32.68   0
       297    946.0034    306.4410 300.4155315 +22.7496432     549.9966     72.56349      1.162     1.88        3.943     20.46715     96.68691         7     0.685     0.612  36.60   0
       298    789.8312    303.5162 300.3677996 +22.7020367     178.5362     72.54501      0.992     2.34     4.414268     20.46715     47.79613         5     0.708     0.454  22.65   0
       299    136.2391    302.0706 300.1648928 +22.5057441     521.3594     72.50805      1.261     2.57     4.368029     20.46715     59.69509         7     0.713     0.651 -88.91   0
       300    931.0267    299.0407 300.4132637 +22.7430316     241.1857     72.60043      0.951     2.18     3.952956     20.46715     67.39236         7     0.830     0.498  53.01   0
       301    812.2267    295.4395 300.3774001 +22.7064226     406.1182     72.58196      1.183     2.02     4.327909     20.46715     63.20326         6     0.661     0.585  83.49   0
       302    740.7190    293.1318 300.3558679 +22.6843429     597.0599      72.6558      1.137     2.46     4.472557     20.46715     93.24634         9     0.839     0.669 -81.20   0
       303    331.1083    293.1541 300.2283628 +22.5616117     452.1541     72.52654      1.383     2.17     4.332636     20.46715     71.81488         8     0.731     0.677 -42.20   0
       304    877.2258    285.8194 300.4007818 +22.7231218     252.7798     72.52654      1.236     4.22     3.995341     20.46715     40.49471         6     0.779     0.651  87.49   0
       305     15.1162    285.2915 300.1327125 +22.4646026     279.7177     72.71113      1.291     5.43      4.91784     20.46715     25.75795         7     1.035     0.804  68.27   0
       306    838.8226    282.3104 300.3899503 +22.7106136     2126.692     72.47107      1.216     2.05     4.183068     20.46715     307.0885        23     0.982     0.977  15.38   0
       307    257.2991    279.7898 300.2097499 +22.5356481      2139.02     72.45257      1.252     2.33     4.370825     20.46715     312.3059        18     1.019     0.841 -78.14   0
       308    335.1053    274.8223 300.2355552 +22.5575465     1060.262     72.45257      1.361     2.41     4.354239     20.46715     139.9753        14     1.002     0.788 -12.25   0
       309     87.3486    275.2169 300.1584178 +22.4833759     290.0428     72.54501      1.171     1.94     4.460609     20.46715     62.29473         5     0.710     0.421  67.05   0
       310    737.1328    273.9888 300.3609637 +22.6777676     626.3638     72.56349      1.287     2.10     4.477721     20.46715     106.5569         8     0.756     0.651  56.89   0
       311    844.0566    270.8656 300.3952961 +22.7088912     297.7347     72.60043      1.257     3.08     4.212952     20.46715     63.01359        10     0.952     0.722 -61.77   0
       312    151.8914    266.9991 300.1811381 +22.5003724     803.7841     72.43406      1.492     2.94     4.390375     20.46715     98.10366        12     0.981     0.826  80.02   0
       313    270.0913    266.6458 300.2179924 +22.5357098     254.7476     72.52654      1.242     3.66     4.381381     20.46715     44.79144         6     0.767     0.606  57.39   0
       314    689.8563    263.7968 300.3495443 +22.6606784     1544.964     72.50805      1.169     1.98     4.464815     20.46715     297.1572        15     0.885     0.792  68.50   0
       315    754.6931    263.2614 300.3699160 +22.6799440     558.3677     72.63735      1.125     1.89     4.464405     20.46715     105.0818         8     0.777     0.567  82.72   0
       316    173.4691    260.4042 300.1899836 +22.5049495     609.5219     72.50805      1.568     2.37     4.390375     20.46715     72.28286         7     0.794     0.595 -17.17   0
       317    961.0848    256.0280 300.4365965 +22.7396641     1030.026     72.54501      1.410     2.63     4.143678     20.46715      139.302        13     1.043     0.834  15.58   0
       318    693.8506    254.8917 300.3536784 +22.6593158     839.0753     72.58196      1.358     2.21      4.46209     20.46715     139.5411        13     1.239     0.680  74.07   0
       319    463.2394    256.0683 300.2815013 +22.5905639     331.5128     72.50805      1.219     2.56     4.343868     20.46715     58.68724         7     0.730     0.645  87.24   0
       320    614.4361    254.4953 300.3290751 +22.6354134     1209.334     72.54501      1.091     2.06     4.453178     20.46715     167.8866        13     0.876     0.747  58.79   0
       321    435.4198    250.8224 300.2745475 +22.5807204     289.9471     72.54501      1.144     3.46     4.320018     20.46715      37.6764         5     0.781     0.444 -70.35   0
       322    809.8538    245.8851 300.3927431 +22.6914687     1481.789     72.61889      1.173     1.98     4.425326     20.46715      271.117        15     0.927     0.742 -57.01   0
       323    540.6518    246.3624 300.3087433 +22.6109716     949.1068     72.56349      1.098     2.14     4.222474     20.46715     143.6729        10     0.828     0.687  42.84   0
       324    821.8847    245.0142 300.3967751 +22.6948210     855.8571     72.48956      1.253     2.04     4.401397     20.46715     145.6809        10     0.851     0.738  21.72   0
       325    868.1725    243.7998 300.4115965 +22.7083317     226.6213     72.50805      1.110     2.63     4.312074     20.46715     65.78577         9     0.862     0.728 -84.91   0
       326    832.0309    240.3607 300.4014474 +22.6965215     169.3596     72.54501      1.331     4.21     4.400804     20.46715     29.15975         5     1.092     0.462 -63.16   0
       327    982.7474    235.7140 300.4499444 +22.7403076     1696.516     72.58196      1.244     2.34     4.236081     20.46715     271.8761        16     0.993     0.830  74.61   0
       328    938.5179    235.3124 300.4362820 +22.7269521      1017.54      72.6558      1.126     2.24     4.270837     20.46715     175.9055        13     0.862     0.786  55.80   0
       329    172.7350    228.6056 300.2000733 +22.4956019     849.5304     72.52654      1.336     2.20     4.390375     20.46715     118.3062        14     0.956     0.838  77.26   0
       330     34.5542    223.5285 300.1587901 +22.4527101      2121.97     72.52654      1.377     2.58     5.009099     20.46715     266.0452        22     1.133     0.979  73.47   0
       331    857.6693    220.0603 300.4160258 +22.6983622     781.2205     72.58196      1.196     2.35     4.461076     20.46715     114.9225        12     0.871     0.788  29.37   0
       332    191.9232    216.7424 300.2098857 +22.4979492     5507.071     72.58196      1.312     2.32     4.396745     20.46715     834.8256        30     1.130     0.981  78.63   0
       333    173.8787    217.6392 300.2039867 +22.4927968     376.6359     72.52654      1.333     2.73     4.398881     20.46715     42.90478         5     0.723     0.449  17.38   0
       334    175.1489    207.5279 300.2076618 +22.4902750     606.6241     72.54501      1.305     2.81     4.410638     20.46715     76.91504        10     0.935     0.680 -64.80   0
       335    990.7996    203.8848 300.4627836 +22.7335647     18018.82     72.41555      1.280     2.27     4.496541     20.46715     2781.066        50     1.212     1.052 -73.82   0
       336    412.1059    199.5017 300.2839457 +22.5589940     5171.393     72.72956      1.337     5.28     4.356741     20.46715     1101.343        18     1.731     0.456 -87.55   0
       337    836.0464    198.0312 300.4164337 +22.6855552     3435.993     72.58196      1.234     2.07     4.463275     20.46715       588.95        22     0.988     0.906  83.54   0
       338    939.6319    196.7176 300.4491523 +22.7161879     2781.719     72.54501      1.213     2.18     4.421292     20.46715      425.997        21     1.018     0.870 -79.65   0
       339    412.9155    194.0360 300.2859707 +22.5576668     2262.024     72.52654      0.448     1.80     4.367127     20.46715      1804.36         7     0.333     0.311  -7.26   0
       340    138.5486    194.1046 300.2006427 +22.4754485     391.8983     72.61889      1.349     2.31     4.439677     20.46715     54.04683         6     0.733     0.495  84.89   0
       341    385.4734    193.2337 300.2776941 +22.5492129     608.2717     72.52654      1.144     2.42     4.397006     20.46715     87.32275         9     0.808     0.667 -31.37   0
       342    499.5291    190.9743 300.3139150 +22.5827392     303.9969     72.54501      1.186     4.32     4.257787     20.46715     35.82321         6     0.961     0.553  18.31   0
       343    309.5571    185.1049 300.2567200 +22.5241269     480.3701     72.56349      1.163     3.33     4.452518     20.46715     69.92417         9     1.022     0.621  83.05   0
       344    982.4421    184.8541 300.4663515 +22.7255903     175.0686     72.54501      1.077     3.45     4.647698     20.46715       37.076         5     0.762     0.450 -70.05   0
       345    313.6243    183.7505 300.2584241 +22.5249570     413.1016     72.54501      1.034     2.10     4.450747     20.46715     54.81242         5     0.666     0.472  76.88   0
       346     75.7844    182.3135 300.1849674 +22.4532453     647.6661     72.48956      1.369     2.60     4.650372     20.46715     80.66248         9     0.814     0.709 -70.75   0
       347    436.7272    180.7306 300.2976954 +22.5609800     1643.483     72.61889      1.201     2.13     4.361506     20.46715     273.1594        17     0.953     0.829  81.24   0
       348    364.7999    181.1066 300.2751977 +22.5395346     586.9218     72.41555      1.525     3.20     4.425164     20.46715     57.46909         8     0.835     0.698  70.95   0
       349    498.3314    179.9738 300.3171109 +22.5792201     429.8992     72.52654      1.239     2.33     4.260912     20.46715     64.24909         7     0.792     0.572 -64.17   0
       350    260.7144    176.5735 300.2443008 +22.5070379     220.4526     72.52654      1.146     4.33     4.431579     20.46715      34.5833         7     0.949     0.562  58.12   0
       351    180.1264    176.2095 300.2193685 +22.4827764     452.0926     72.54501      1.379     3.27     4.443078     20.46715     66.37666        10     0.908     0.768 -86.34   0
       352    725.2462    170.0294 300.3909924 +22.6443290     376.0139     72.58196      1.187     2.73     4.472051     20.46715     70.15329         6     0.905     0.530  44.44   0
       353    572.5225    166.0203 300.3447309 +22.5974364     269.8122     72.54501      1.023     2.81     4.167566     20.46715     41.07383         6     0.766     0.496  83.84   0
       354    870.8466    164.3709 300.4382010 +22.6862960     452.6578     72.58196      1.461     4.86     4.459826     20.46715     42.42102        10     0.981     0.739  84.77   0
       355    615.8871    164.2410 300.3588098 +22.6099141     176.7506     72.52654      1.146     4.36     4.213759     20.46715      35.4676         5     0.791     0.684 -16.82   0
       356    210.8079    160.5982 300.2339685 +22.4874916     6019.212        72.36      1.316     2.38      4.41303     20.46715     830.9263        32     1.201     1.007  72.86   0
       357    996.6642    163.2893 300.4777831 +22.7236447     332.0138      72.6558      1.164     3.13     4.952338     20.46715     44.64239         5     0.732     0.459 -10.78   3
       358   1001.2808    161.1803 300.4799072 +22.7244198      3486.46     72.52654      1.309     2.34     5.004217     20.46715     476.0792        25     1.075     0.984  84.98   2
       359    717.1273    161.0799 300.3913663 +22.6393253     435.7993     72.67425      1.429     2.11     4.466143     20.46715     63.06164         8     0.754     0.655 -42.17   0
       360     61.8653    159.7985 300.1879467 +22.4426095     712.6724     72.54501      1.456     3.46     4.790987     20.46715     93.43837        15     1.189     0.839  84.65   0
       361    840.1050    157.7147 300.4307780 +22.6751791     371.7587     72.72956      1.014     2.07      4.46261     20.46715     65.14352         7     0.690     0.632  14.87   0
       362    182.3903    154.2167 300.2272058 +22.4771410     234.4282     72.47107      1.364     4.23     4.456872     20.46715     48.87011         7     1.227     0.417  77.30   0
       363    226.2345    151.8508 300.2416010 +22.4896041     405.1058     72.56349      1.303     2.18     4.393226     20.46715     61.06562         6     0.714     0.583   9.94   0
       364    456.9098    145.8199 300.3152995 +22.5569983     6130.533     72.48956      1.244     2.17       4.3126     20.46715     1014.966        30     1.117     0.918 -89.77   0
       365    342.4127    145.5917 300.2797547 +22.5226257     615.1519     72.43407      1.061     2.34     4.401144     20.46715     86.42413        11     0.832     0.786 -75.74   0
       366    513.8288    140.4873 300.3347427 +22.5725181     389.2464     72.54501      1.224     2.58     4.205129     20.46715      57.3059         7     0.807     0.610 -70.16   0
       367    709.6641    135.3292 300.3973942 +22.6296886      604.533     72.58196      1.131     2.50     4.469074     20.46715     95.52473        11     0.952     0.652 -84.99   0
       368    801.9077    134.1166 300.4265280 +22.6569588     396.0669     72.72956      1.097     2.26     4.421036     20.46715     75.14809         9     0.752     0.727  53.25   0
       369    825.0001    130.0566 300.4350416 +22.6627048     241.8513     72.45257      1.397     2.71     4.442035     20.46715     32.10535         5     0.627     0.584 -90.00   0
       370    149.8362    129.5636 300.2250846 +22.4603043     426.6622     72.61889      1.268     3.93     4.493334     20.46715     69.42937         8     0.971     0.659  35.68   0
       371    508.2538    128.2623 300.3369726 +22.5673355     359.0958     72.60043      1.064     2.36     4.204161     20.46715     80.17314         9     0.884     0.615  63.28   0
       372    585.2881    125.8049 300.3617495 +22.5897037      6201.08     72.45257      1.221     2.22     4.257648     20.46715     1000.015        28     1.043     0.939  87.91   0
       373    360.1287    124.8280 300.2919992 +22.5219705     1526.921     72.54501      1.254     2.22     4.316996     20.46715      251.463        15     0.948     0.809  85.17   0
       374    626.4673    123.0121 300.3754773 +22.6012341     766.8919     72.54501      1.169     2.62     4.363824     20.46715     142.7449        11     0.837     0.769  78.87   0
       375    696.3896    120.7483 300.3979884 +22.6215224     386.6754     72.54501      1.339     3.39     4.469558     20.46715     40.46509         5     0.735     0.453 -71.89   0
       376    642.3074    119.2379 300.3816341 +22.6048931     670.2184     72.54501      1.366     2.33     4.406513     20.46715     88.08685         8     0.841     0.574 -80.73   0
       377    109.0386    117.4742 300.2163285 +22.4446033     640.2245     72.50805      1.520     3.03     4.499616     20.46715     76.96658        12     0.984     0.806  63.47   0
       378    912.2452    116.9092 300.4665022 +22.6850398     485.9854     72.52654      1.150     2.09     4.779868     20.46715      113.169         8     0.869     0.553 -88.33   0
       379    951.7785    116.3889 300.4789979 +22.6967221     270.9779     72.52654      0.982     2.08     4.959814     20.46715      46.2152         5     0.684     0.457 -19.57   0
       380    680.9138    114.7228 300.3951222 +22.6151563     553.3661     72.67425      1.180     2.49     4.469282     20.46715     92.25277        11     0.909     0.744 -76.87   0
       381    644.6938    109.6776 300.3854778 +22.6028599      959.546     72.67425      1.891     4.46     4.431816     20.46715     103.5709        19     1.603     0.824  55.93   0
       382    629.4952    110.7332 300.3804025 +22.5986118     2538.909     72.67425      1.145     2.10     4.406233     20.46715     406.8482        19     0.989     0.809  87.71   0
       383    270.1802    111.7866 300.2682568 +22.4912704     413.2056     72.50805      1.282     3.58     4.429972     20.46715     51.27867         9     0.995     0.616 -30.87   0
       384    715.8833    102.2826 300.4100495 +22.6220512     1567.393     72.67425      1.199     2.12       4.4797     20.46715     232.9611        17     1.078     0.790 -87.68   0
       385    876.2161    100.6864 300.4605313 +22.6695904     319.1186     72.50805      1.482     4.31     4.606723     20.46715     42.03266         5     0.748     0.707 -35.70   0
       386    793.4189     96.7636 300.4359973 +22.6436778     314.7695     72.54501      1.330     4.06     4.371525     20.46715     40.71626         6     0.898     0.524  50.90   0
       387    653.8468     95.4490 300.3929427 +22.6015110     798.5275     72.58196      1.202     2.21     4.477391     20.46715     133.3414        12     0.887     0.768 -76.49   0
       388    459.4482     94.8006 300.3326359 +22.5431009     1126.353     72.54501      1.232     2.18     4.199653     20.46715     162.0789        13     0.867     0.795 -71.15   0
       389     32.4031     95.0450 300.1997953 +22.4151892     472.0504     72.54501      1.257     2.86     5.029703     20.46715     71.16752         9     0.949     0.606  33.30   0
       390    363.3982     93.0120 300.3033340 +22.5138111     750.2736        72.36      1.211     2.37      4.21929     20.46715     120.5828        10     0.848     0.673 -33.20   0
       391    745.4510     91.4392 300.4227775 +22.6277865     400.1527     72.56349      1.203     2.91     4.436646     20.46715     62.55488         7     0.906     0.491 -84.12   0
       392   1006.4788     89.5297 300.5047684 +22.7053657     2314.966      72.6558      1.319     2.43     5.176572     20.46715     334.2139        20     1.042     0.943 -81.24   0
       393    265.5942     84.3844 300.2757169 +22.4820262     244.0542     72.47107      1.652     4.10     4.377139     20.46715     27.81495         5     0.987     0.487 -85.97   0
       394    134.7112     83.1607 300.2354323 +22.4424477     3802.337     72.52654      1.411     2.52     4.622993     20.46715     465.6193        30     1.172     1.152  61.04   0
       395    702.8233     83.4809 300.4120785 +22.6127358     535.1479     72.50805      1.099     2.06     4.472576     20.46715      99.6515         9     0.806     0.652  76.26   0
       396    557.0119     80.2550 300.3677183 +22.5681446     357.3008     72.52654      1.365     2.42     4.445948     20.46715     46.94264         5     0.763     0.467 -65.30   0
       397    695.9833     75.4458 300.4125534 +22.6083778      1001.85     72.56349      1.251     2.52     4.487842     20.46715     134.7884        10     0.862     0.689  86.31   0
       398    250.8369     75.1536 300.2741220 +22.4749527      1297.57     72.58196      1.308     2.38     4.331894     20.46715     186.9116        15     1.014     0.782 -83.16   0
       399    182.5933     75.1592 300.2529069 +22.4545020     201.6891     72.58196      1.161     4.17     4.602969     20.46715     40.83889         6     1.002     0.657 -72.91   0
       400    661.6330     74.7223 300.4020889 +22.5978847      351.646     72.52654      1.110     3.18     4.570345     20.46715     59.72906         5     0.791     0.506  42.54   0
       401    477.2408     71.9598 300.3455793 +22.5418678     274.0196     72.61889      1.205     2.89     4.300381     20.46715     40.16653         7     0.906     0.705  49.71   0
       402    733.8842     70.2994 300.4260290 +22.6182457      862.977     72.71113      1.581     3.27     4.355976     20.46715     96.58575        13     1.167     0.722  82.21   0
       403    657.3218     70.0682 300.4022554 +22.5952559     429.9215      72.6558      1.129     2.58     4.602668     20.46715     64.51752         7     0.803     0.569  70.13   0
       404    753.8438     66.7415 300.4334014 +22.6231982     2285.875     72.56349      1.237     2.12     4.312748     20.46715     366.7733        21     1.081     0.863 -78.16   0
       405    459.4317     65.0756 300.3422695 +22.5345551      541.293     72.54501      1.419     3.40     4.300207     20.46715     63.51219        11     1.053     0.715  62.25   0
       406    136.9366     62.1780 300.2429272 +22.4370900     972.9055     72.52654      1.389     2.77     4.817972     20.46715     111.5563        15     0.989     0.888  44.27   0
       407    929.0076     59.9860 300.4901886 +22.6736846     659.4196     72.43406      1.229     2.54      5.21195     20.46715     121.9386         8     0.938     0.518 -55.63   0
       408    702.2747     59.2016 300.4197805 +22.6055915     923.5232     72.45257      1.282     2.24     4.463228     20.46715     123.1286        11     0.824     0.753 -77.21   0
       409    409.3165     57.3132 300.3291935 +22.5173123     391.3517      72.6558      1.715     4.65     4.218182     20.46715      32.0069         7     1.063     0.578 -24.28   0
       410    315.9091     52.3252 300.3017569 +22.4878947     266.2848     72.69269      1.502     4.07     4.246274     20.46715     35.78701         5     0.943     0.605 -75.21   0
       411    152.2500     52.2524 300.2509038 +22.4388298     281.1307     72.58196      1.316     3.79     4.984525     20.46715     37.35569         5     0.966     0.427 -85.17   0
       412    286.9759     48.9467 300.2938552 +22.4782549     401.1647     72.56349      1.456     2.41     4.274344     20.46715     56.59709         7     0.817     0.532 -37.21   0
       413    554.6476     44.0816 300.3787114 +22.5570403     825.9366     72.56349      1.185     2.07     4.918931     20.46715     147.4888        12     0.858     0.765 -89.19   0
       414    690.0385     41.5743 300.4216844 +22.5968603     381.7495     72.56349      1.417     4.36     4.541156     20.46715     40.07191         9     1.032     0.676  67.72   0
       415    164.1936     41.4656 300.2581126 +22.4393119     502.4595     72.54501      1.348     3.37     5.114065     20.46715     64.22099        10     0.879     0.825  12.97   0
       416    348.7288     40.1260 300.3159191 +22.4942234     234.8259     72.61889      1.129     2.30     4.186648     20.46715     50.96216         6     0.716     0.605  17.97   0
       417    717.9883     38.7991 300.4312907 +22.6044301     691.5966        72.36      1.203     2.38     4.333226     20.46715     124.7697        11     0.935     0.681 -74.03   0
       418    526.5795     37.1509 300.3722212 +22.5466424     1911.844     72.54501      1.259     2.23     4.861828     20.46715     250.0833        19     1.062     0.870  88.34   0
       419    249.3113     34.8789 300.2867055 +22.4629282     754.3141     72.67425      1.557     2.62     4.184134     20.46715     90.81074        13     1.000     0.776 -78.70   0
       420    422.6726     34.2037 300.3408413 +22.5146734     224.7556     72.48956      1.326     4.22     4.247666     20.46715     32.40373         5     1.105     0.459 -84.53   0
       421    483.8869     31.0745 300.3609037 +22.5321097     1324.451     72.69269      1.319     2.29      4.54214     20.46715     192.9679        18     1.072     0.872 -84.70   0
       422    589.1838     27.5602 300.3948198 +22.5626338     1289.149     72.56349      1.249     2.48     5.120989     20.46715     197.4993        17     1.049     0.858  81.69   0
       423     65.1666     28.0679 300.2316874 +22.4057835     781.2554     72.54501      0.499     2.04     4.799311     20.46715     611.8945         5     0.398     0.324  37.45   0
       424    184.2296     26.7643 300.2691056 +22.4410947     515.5491     72.56349      1.323     3.95     4.895163     20.46715     69.22683        10     1.004     0.787   3.98   0
       425    233.2382     24.1839 300.2851758 +22.4550400      543.777     72.56349      1.469     4.02     4.125277     20.46715     78.59619         9     0.981     0.805  70.44   0
       426    409.6057     21.5565 300.3408760 +22.5071252     2206.726     72.54501      1.260     2.24     4.215997     20.46715     316.7727        20     1.005     0.916  86.95   0
       427    417.9055   1020.5157 300.0189348 +22.7963279     1045.601     70.78677      1.695     4.40     2.721161     20.46715     84.91987        17     1.215     0.968 -38.01  16
       428    900.6197     18.9826 300.4946321 +22.6533951     227.3963     72.52654      1.247     3.34      5.29068     20.46715     41.23341         6     0.771     0.665  74.06   0
       429    540.5116     16.0051 300.3834133 +22.5447373     494.0186     72.45257      1.338     3.00      5.25786     20.46715      65.1246         6     0.761     0.633  74.31   0
       430    188.7216   1021.9866 299.9472023 +22.7279392     824.0145     65.18716      4.609     5.98     12.24705     20.46715     38.15332        10     1.780     0.566   6.70  17
       431    348.7754   1018.3702 299.9981330 +22.7749606         6294     72.54501      1.651     3.41     3.099365     20.46715     517.7778        36     1.318     1.225 -50.24  16
       432     41.4107    997.0233 299.9095667 +22.6765432     3399.267     72.54501     12.424    51.98     17.09028     20.46715     80.40204       820    10.866     6.901 -29.70  19
       433     41.3926   1017.7394 299.9028181 +22.6824720     5108.169     72.52654     12.853    44.37     20.82018     20.46715     100.2868       581    10.785     5.065 -11.18  27
