#   1 NUMBER                 Running object number                                     
#   2 X_IMAGE                Object position along x                                    [pixel]
#   3 Y_IMAGE                Object position along y                                    [pixel]
#   4 ALPHA_J2000            Right ascension of barycenter (J2000)                      [deg]
#   5 DELTA_J2000            Declination of barycenter (J2000)                          [deg]
#   6 FLUX_APER              Flux vector within fixed circular aperture(s)              [count]
#   7 FLUXERR_APER           RMS error vector for aperture flux(es)                     [count]
#   8 FLUX_RADIUS            Fraction-of-light radii                                    [pixel]
#   9 FWHM_IMAGE             FWHM assuming a gaussian core                              [pixel]
#  10 BACKGROUND             Background at centroid position                            [count]
#  11 THRESHOLD              Detection threshold above background                       [count]
#  12 FLUX_MAX               Peak flux above background                                 [count]
#  13 ISOAREA_IMAGE          Isophotal area above Analysis threshold                    [pixel**2]
#  14 A_IMAGE                Profile RMS along major axis                               [pixel]
#  15 B_IMAGE                Profile RMS along minor axis                               [pixel]
#  16 THETA_IMAGE            Position angle (CCW/x)                                     [deg]
#  17 FLAGS                  Extraction flags                                          
         1    227.1098     19.0961 300.2354592 +22.4424216     4025.091     72.53199      1.568     2.99      4.20893     20.41155     385.3595        34     1.325     1.185  50.07   0
         2    788.6569     11.7959 300.4126236 +22.6084609     870.2302     72.31108      1.388     2.38     5.059937     20.41155     116.8579        12     0.924     0.756 -46.00   0
         3    343.0269     11.3598 300.2740140 +22.4749217     1174.584     72.40321      1.363     2.76     4.612225     20.41155     138.5725        20     1.171     0.973  32.87   0
         4    274.8600     10.8785 300.2529692 +22.4543651     224.8331     72.38479      1.220     4.84     4.197774     20.41155     31.11985         6     1.018     0.651  82.50   0
         5    826.2928      7.0522 300.4258914 +22.6183582     642.3294     72.40321      1.694     4.23     4.817967     20.41155     58.73415        13     1.226     0.720  69.57  16
         6    749.7356      6.6576 300.4021596 +22.5953353     451.3021     72.40321      1.083     2.55     5.355772     20.41155     93.38069         7     0.877     0.528  57.52   0
         7    846.2720      3.1119 300.4333963 +22.6232026      2147.43     65.50042      1.424     2.53     4.665211     20.41155     259.6284        26     1.142     1.103  31.83  24
         8    551.9992      1.5989 300.3422091 +22.5346927     421.5253     57.54755      1.182     2.92     3.490947     20.41155     56.02977         7     0.751     0.617  -9.95  24
         9    689.3553   1002.2332 300.0600474 +22.8632783     8703.606     72.38479      1.965     4.32      3.27786     20.41155     468.9114        48     1.579     1.399  40.75   3
        10    258.3109   1018.7547 299.9205404 +22.7386759     2214.811     72.34795      6.334    29.48     73.68481     20.41155     63.95955       168     6.068     3.977 -21.03  27
        11    294.0737    989.3350 299.9412321 +22.7409765     6990.748     72.38479      7.506    27.51     48.53744     20.41155     160.6952       541     8.407     4.564  58.58  18
        12    222.5519    991.4429 299.9183114 +22.7201114     2479.423     72.36637      9.340    33.65     54.50156     20.41155     65.28183       164     8.819     3.565  87.12  19
        13    231.8614   1017.5234 299.9127189 +22.7303826      3277.02     72.40321      6.838    20.03     71.87894     20.41155     68.74529       134     4.279     3.109 -44.23  19
        14    227.4213   1011.8160 299.9131960 +22.7274135     3904.048     72.31108      8.479    23.62      67.8496     20.41155     81.95593       168     5.261     2.944 -39.50  27
        15    188.0331   1022.9313 299.8973368 +22.7187742     1677.763     60.37405      4.247    14.79      74.3847     20.41155     73.79691        34     4.267     1.425 -22.33  27
        16    185.0431   1022.9569 299.8963992 +22.7178838     1292.263     60.30777      2.889     9.69     74.35583     20.41155     77.69274        24     2.206     1.236 -36.01  27
        17    136.0316   1012.5100 299.8845685 +22.7001736      5609.07     72.29264     14.558    55.08     49.67912     20.41155     120.1986      1380    13.317     8.752  14.54  27
        18    131.4746    971.2053 299.8965915 +22.6869668      4993.13     72.27419     25.527    86.84      28.2326     20.41155     108.2875      3759    20.780    15.677 -24.82  27
        19    707.7321    969.2893 300.0764912 +22.8593357     6677.114     72.49522      1.829     3.92     3.163868     20.41155     391.7151        44     1.506     1.328  32.54   0
        20    275.5459   1000.2017 299.9319357 +22.7385307     4346.105     72.29264      8.349    26.63     60.57136     20.41155     83.76157       360     5.764     5.015 -42.73  19
        21    164.4002   1003.4041 299.8963465 +22.7060815     904.5555     72.16343      5.742     6.42     61.63704     20.41155     38.33078        11     1.252     1.011   5.64   1
        22    222.3662    965.6033 299.9266606 +22.7126479     574.6606     72.34795      2.729     3.93      38.7009     20.41155     34.19471         5     1.058     0.418 -75.76   0
        23    859.3166    963.9599 300.1254595 +22.9032584     376.3785     72.31108      1.963     4.03      2.67862     20.41155     33.48145         5     1.030     0.451  22.71   0
        24    587.6736    964.1282 300.0407822 +22.8218454     356.4511     72.40321      1.484     4.59     2.342324     20.41155     36.97819         6     0.948     0.630  23.24   0
        25    132.8683    932.4331 299.9096374 +22.6762715     3701.885     72.34795     17.142    47.65     12.06326     20.41155     99.40926       776     9.931     6.402 -38.39   3
        26    616.2239    960.0374 300.0510024 +22.8292354     1472.723     72.36637      1.676     3.66     2.433503     20.41155     132.8622        23     1.289     1.098  52.50   0
        27    510.0362    956.5304 300.0190869 +22.7963753     1038.977     72.32951      1.751     4.33      2.46815     20.41155     88.16982        20     1.305     1.081 -29.23   0
        28    440.7018    954.3503 299.9982206 +22.7749476         6599     72.42162      1.810     4.31     2.794843     20.41155     473.3028        40     1.407     1.338  -6.03   0
        29    174.1029    941.1006 299.9196313 +22.6911352     1181.269     72.55037      8.962     8.39     22.84761     20.41155     39.59764        16     1.977     0.994 -61.19   3
        30    472.8302    941.6481 300.0123499 +22.7809437     421.4271     72.36637      1.575     5.36     2.828433     20.41155      53.8103         8     1.096     0.740 -32.25   0
        31    554.4825    991.8125 300.0214416 +22.8198311     471.7635     72.32951      2.116     4.23     2.252363     20.41155     27.14798         6     1.080     0.471 -29.09   0
        32    255.3197    990.2870 299.9288735 +22.7296167      935.543      72.5136      4.516     7.25     53.50847     20.41155     44.50567        12     1.403     1.050  -7.15   1
        33    986.9148    933.3518 300.1752025 +22.9327174     2149.419     72.32951      1.969     4.74     2.940857     20.41155     136.0932        29     1.468     1.266  -3.88   0
        34    638.0100    930.3281 300.0674518 +22.8272445     374.0378     72.34795      1.589     4.72     2.551579     20.41155     35.22968         5     1.125     0.561 -89.20   0
        35    485.1769    930.0159 300.0199761 +22.7813109     365.3394     72.34795      1.494     6.15     2.900817     20.41155      27.5499        10     1.214     0.877  -1.29   0
        36    775.7908    922.2266 300.1130062 +22.8662357      856.444     72.34795      2.294     5.14     2.919393     20.41155     75.59663        17     1.486     0.975  72.55   0
        37    810.9376    916.4160 300.1258489 +22.8751051     1086.116     72.31108      1.926     4.42     2.771916     20.41155     90.78477        21     1.435     0.988 -38.54   0
        38    587.8958    917.0621 300.0561631 +22.8084072     324.3106     72.44003      1.495     5.26     2.488587     20.41155     42.39438         7     1.204     0.671 -53.18   0
        39    982.0139    986.0909 300.1565140 +22.9463934     896.2971     72.29264      2.115     5.20     2.503585     20.41155     62.97365        19     1.531     1.159  -6.93   0
        40    832.8367    909.9930 300.1347633 +22.8798262     11355.05     72.34795      1.793     3.85     2.796358     20.41155     662.8065        55     1.478     1.423  57.10   0
        41     20.5021    913.5723 299.8808670 +22.6371280     568.5766     72.29264      1.891     5.92      3.67131     20.41155     49.58448         7     1.129     0.874  32.14   0
        42   1023.0883    909.3749 300.1942856 +22.9366717     251.0084     59.50659      1.403     5.43      3.37044     20.41155       41.316         9     1.170     0.710  78.09  24
        43    878.2806    909.4888 300.1490924 +22.8933041     461.1212     72.47683      1.729     5.99     2.839127     20.41155     33.32567        10     1.064     0.949  48.08   0
        44    263.1123    909.7115 299.9575085 +22.7088529      722.167      72.5136      3.692     4.21     8.573259     20.41155     35.35566         5     1.144     0.442 -56.44   0
        45    266.0494    908.2242 299.9589053 +22.7093079     654.1149     72.34795      4.441     4.91      8.10405     20.41155     33.88934         5     1.466     0.465  73.85   1
        46    203.7535    974.0540 299.9181260 +22.7094832     1193.199     72.38479      6.968     9.07     43.67214     20.41155     41.10928        18     2.532     0.907 -20.46   3
        47    694.9898    999.9482 300.0625460 +22.8643125     9423.943     72.34795      1.922     4.35        3.273     20.41155     596.6193        49     1.491     1.466 -29.24   3
        48    144.0353    901.4174 299.9231954 +22.6707327     972.2023     72.34795      3.063     7.00     9.066634     20.41155     51.61008        14     1.263     1.089 -54.13   0
        49    538.0160    898.4264 300.0466970 +22.7880985     496.5783     72.36637      1.666     4.43     2.816514     20.41155     38.71481         8     1.128     0.495  -0.25   0
        50    841.5062    892.0639 300.1432975 +22.8772774     1359.579     72.45843      1.792     4.45     2.866006     20.41155     92.63345        25     1.385     1.193  34.33   0
        51    884.3345    897.2169 300.1549716 +22.8915950     384.5687     72.32951      1.720     4.43       2.9156     20.41155     36.41768         5     1.467     0.380 -78.65   0
        52    693.1942    888.9014 300.0981142 +22.8319039     543.8276     72.23729      2.171     5.89     2.882079     20.41155     39.12352         8     1.505     0.648  38.77   0
        53    879.1601    885.5903 300.1571404 +22.8867054     737.4694     72.34795      1.946     3.91     2.974247     20.41155     62.41764        14     1.046     0.957  56.09   0
        54    928.0074    876.4515 300.1753421 +22.8987216     459.2227     72.34795      1.683     5.36     3.124209     20.41155     43.66364        11     1.142     0.837  80.09   0
        55    779.4296    875.7497 300.1292580 +22.8539840     781.0198     72.36637      1.681     4.40     2.793796     20.41155     60.13496        14     1.064     0.984  53.90   0
        56     39.1918    874.6112 299.8993425 +22.6315728     361.2924     72.23729      1.649     3.69     3.787418     20.41155     34.32744         5     1.013     0.386  85.11   0
        57    491.7684    872.1226 300.0408580 +22.7666788     4135.332     72.32951      1.648     3.37     3.186266     20.41155     338.2768        36     1.302     1.267  25.91   0
        58    790.5029    872.9376 300.1336232 +22.8564963      506.779     72.44003      1.607     3.67     2.776597     20.41155     65.99226        13     1.039     0.901  14.74   0
        59    270.6521    860.7599 299.9757729 +22.6970778     352.6854     72.34795      1.828     5.43     4.282391     20.41155     34.00246         8     1.446     0.576  62.28   0
        60    789.4922   1003.0845 300.0909671 +22.8935535     505.9185      72.5136      1.720     6.41     3.375874     20.41155     42.32646        13     1.130     1.022   2.82   0
        61    535.2606    860.0682 300.0583149 +22.7762655      304.893     72.38479      1.351     3.79     3.229138     20.41155     35.85199         5     0.836     0.492  28.92   0
        62    217.3378    857.7320 299.9601837 +22.6802095     727.7079     72.40321      1.687     3.72     5.085468     20.41155       85.836        14     1.074     1.035 -72.36   0
        63    126.3466    856.2961 299.9323730 +22.6524869     361.5887     72.42162      1.587     4.19     4.187331     20.41155     33.92213         6     1.059     0.474 -87.18   0
        64    194.2010    854.7958 299.9539471 +22.6724235     1632.822     72.16343      1.831     4.22     4.863296     20.41155     167.8885        25     1.354     1.223  29.14   0
        65    340.2935    850.8799 300.0006413 +22.7151413     516.6171     72.47683      0.862     1.89     3.475332     20.41155     123.4828         8     0.870     0.632 -79.96   0
        66   1020.1487    842.4398 300.2151401 +22.9165639     1973.103     71.36459      1.841     4.15      3.84063     20.41155     131.8977        28     1.301     1.274   5.92  16
        67    725.6317    842.1844 300.1234125 +22.8282191     552.3436     72.32951      2.375     6.72      2.85552     20.41155     37.96788        10     1.186     1.076   4.96   0
        68    803.7884    836.3727 300.1496550 +22.8499804     703.7511     72.34795      1.613     3.41     3.092837     20.41155      77.4268        11     1.070     0.743 -13.97   0
        69    226.0735    836.5997 299.9697708 +22.6767711     390.4669     72.21883      1.737     5.45     4.535394     20.41155       33.098         9     1.285     0.653  35.61   0
        70    671.8236    830.2714 300.1105255 +22.8086665     4889.117     72.38479      1.586     3.20     3.079128     20.41155     385.0279        38     1.274     1.239  -1.91   0
        71    161.4171    831.5154 299.9513284 +22.6559084     422.4476     72.31108      2.119     5.38     4.182704     20.41155     39.00484         8     1.409     0.580 -14.90   0
        72    474.1705    827.2834 300.0499630 +22.7485345     675.2908     72.36637      1.621     4.02     3.305803     20.41155     69.51122        12     1.192     0.754  19.67   0
        73    222.0690    823.9924 299.9726252 +22.6719539     1422.442     72.32951      1.777     3.93     4.175131     20.41155     124.1816        23     1.230     1.162  42.19   0
        74    692.1554    822.7303 300.1193105 +22.8125976     613.2905     72.31108      1.406     3.55     3.038479     20.41155     66.24592        12     1.030     0.791  32.65   0
        75    490.6153    821.9287 300.0568217 +22.7519305     327.3008     72.34795      1.561     4.42     3.294533     20.41155     29.54503         6     0.848     0.654  60.24   0
        76    241.0349    821.1907 299.9794319 +22.6768419     457.8252     72.32951      1.682     4.43     3.986176     20.41155     52.43605         8     1.018     0.816 -50.91   0
        77    847.9485    810.0872 300.1719658 +22.8556685     4110.943     72.38479      1.583     3.21     3.460672     20.41155     324.0781        33     1.276     1.236  81.55   0
        78    578.6629    806.5511 300.0892286 +22.7739233     267.8014     72.40321      1.299     3.55     3.206154     20.41155     40.28211         5     1.050     0.346 -71.05   0
        79    256.1283    803.8719 299.9897549 +22.6764039     484.3009     72.40321      1.574     5.85     3.579763     20.41155     59.04955        10     1.215     0.794  28.10   0
        80    564.7484    802.3784 300.0862533 +22.7685530     500.8202     72.34795      1.425     3.68     3.222363     20.41155     58.35482        10     0.873     0.823  22.70   0
        81    211.2760    800.1330 299.9770276 +22.6618724     907.9618     72.44003      1.630     4.19     3.538111     20.41155     98.32381        19     1.348     1.035  70.50   0
        82    626.4705    796.0737 300.1075208 +22.7852513      523.336     72.42162      1.610     4.95     3.229364     20.41155     50.78365        11     1.069     0.717  11.90   0
        83    360.8856    792.5320 300.0260175 +22.7045814     53690.17     72.44003      1.580     3.11     3.414955     20.41155     5084.113        89     1.411     1.389   7.29   0
        84    618.7047    791.6246 300.1065491 +22.7816457     1605.872     72.25574      1.493     3.27     3.237734     20.41155       157.85        18     1.071     0.990 -89.40   0
        85    289.0442    790.9328 300.0041956 +22.6825690     539.6837     72.32951      1.547     5.07     3.518651     20.41155     48.38125         8     1.033     0.705 -16.04   0
        86    647.6802    787.8590 300.1167966 +22.7892525     922.9634     72.40321      1.609     4.00     3.264838     20.41155     98.56744        18     1.179     1.085 -27.21   0
        87     14.1853    787.7242 299.9198262 +22.5991588     833.9494     72.36637      1.952     3.98      3.38772     20.41155     72.77209        16     1.210     0.998 -41.44   0
        88     47.2868    787.2086 299.9302746 +22.6089476     994.0966     72.27419      2.071     3.91     3.457571     20.41155     74.35628        14     1.121     1.026  64.24   0
        89    658.7585    785.9404 300.1208706 +22.7920232     541.4799     72.32951      1.358     3.87     3.279959     20.41155     57.04235        13     1.029     0.949 -64.00   0
        90    764.1097    782.5316 300.1547974 +22.8226265     427.7728     72.49522      1.552     4.66      3.24905     20.41155     41.82864        10     1.023     0.839  14.88   0
        91    801.6108    772.8220 300.1696400 +22.8310785     782.5742     72.32951      1.539     3.77     3.516327     20.41155     69.51068        15     1.107     0.917   1.36   0
        92    410.6075    769.7906 300.0488777 +22.7129719     31442.98     72.20037      1.575     2.99     3.637447     20.41155     3490.166        77     1.397     1.316  32.01   0
        93    424.8966    770.3268 300.0531489 +22.7174117     1955.985     72.47682      1.609     3.16     3.616341     20.41155     163.3645        23     1.181     1.071  24.04   0
        94    933.7383    765.7535 300.2131262 +22.8686434     2763.893     72.36637      1.655     3.48     3.819808     20.41155     232.1944        31     1.308     1.182   6.00   0
        95    421.7519    764.2444 300.0541478 +22.7147232     768.5327     72.36637      1.809     3.50     3.678598     20.41155     66.46768        12     1.013     0.802 -25.45   0
        96    963.2086    763.6609 300.2229964 +22.8768722      176.798     72.32951      1.678     3.46     3.797704     20.41155     31.34487         5     1.209     0.286  55.06   0
        97    293.3041    761.7819 300.0149966 +22.6754849     746.2726     72.25574      1.594     2.83     3.528509     20.41155      96.0466        12     1.007     0.780  88.32   0
        98    691.5087    761.8501 300.1389030 +22.7949252     889.6804     72.36637      1.448     3.17     3.360922     20.41155     100.4319        15     1.045     0.912  -8.87   0
        99    538.6879    756.6520 300.0930065 +22.7476139     790.3481     72.38479      1.388     2.60     3.340491     20.41155     102.9854        13     0.933     0.817  20.90   0
       100     98.3493    757.0388 299.9559439 +22.6156238     361.5332     72.36637      1.179     3.33     3.660279     20.41155     52.63634         5     0.984     0.326  46.46   0
       101    939.9047    754.1577 300.2188188 +22.8671599     493.4628     72.36637      1.612     4.09     3.829521     20.41155     56.82859        11     1.142     0.742  50.15   0
       102    527.9968    761.5591 300.0880835 +22.7458163      480.808     72.36637      1.522     3.34     3.336845     20.41155     44.39752         6     0.780     0.493  -5.67   0
       103    440.4888    752.7851 300.0637025 +22.7170546      244.601     72.29264      1.179     3.18     3.648614     20.41155      47.8042         6     0.987     0.429  30.60   0
       104    397.1735    752.4875 300.0503231 +22.7039774     343.5604     72.32951      1.283     3.58     3.732477     20.41155     52.93393         6     0.941     0.545  65.39   0
       105    484.4469    751.6682 300.0777444 +22.7299176     507.3878     72.32951      1.731     4.90     3.375798     20.41155     39.67298         8     0.915     0.742  30.48   0
       106    126.4451    751.2612 299.9665512 +22.6223991     453.6548     72.38479      1.402     4.42     3.680966     20.41155     63.99113         8     1.277     0.600 -36.49   0
       107    917.4664    748.3188 300.2137203 +22.8587595     377.7496     72.45843      1.557     5.58     3.832755     20.41155      49.6403         8     1.218     0.720  42.86   0
       108    290.7716    746.2001 300.0192740 +22.6702551     438.3822     72.31108      1.384     4.66      3.53589     20.41155     52.74846         8     0.982     0.628   2.45   0
       109    614.0134    736.4729 300.1230173 +22.7644067     445.9961     72.36637      1.384     4.11     3.366325     20.41155      52.5096         8     0.866     0.688  37.12   0
       110    583.9519    734.6218 300.1142590 +22.7548624     505.3703     72.36637      1.318     3.08     3.373603     20.41155     70.34671        11     0.921     0.812 -85.32   0
       111    492.9024    733.9206 300.0861447 +22.7273597     329.0756     72.47682      1.250     3.90      3.41849     20.41155      54.9416         8     0.956     0.592  17.98   0
       112    396.1512    732.7536 300.0564194 +22.6980082     168.4145     72.36637      1.291     5.22     3.848147     20.41155     33.15001         7     1.361     0.564 -77.56   0
       113   1000.2129    731.0923 300.2451252 +22.8786010     4479.768     72.29264      1.676     3.49     3.772437     20.41155     340.1528        36     1.311     1.270   5.58   0
       114    605.5676    732.0109 300.1218379 +22.7605936     1294.982     72.34795      1.416     2.98     3.378471     20.41155     153.0222        16     1.034     0.887  45.27   0
       115    525.6586    731.7656 300.0970403 +22.7365637     223.8704     72.36637      1.138     3.05      3.42377     20.41155     52.44823         5     0.713     0.466  80.48   0
       116    687.5114    726.6714 300.1490932 +22.7836261     290.2285      72.5136      1.512     4.21     3.575321     20.41155     36.22197         6     1.126     0.449  -7.69   0
       117    988.5668    722.5550 300.2442678 +22.8726592     1682.184     72.40321      1.655     3.23     3.799902     20.41155     157.5142        22     1.246     1.040  58.59   0
       118    351.5807    716.1824 300.0479413 +22.6798844     937.8598     72.34795      1.509     3.18     3.721693     20.41155     111.0712        16     1.086     0.954 -31.21   0
       119    815.0378    713.6987 300.1930437 +22.8181221     2521.118     72.34795      1.566     2.84     3.716836     20.41155     258.7633        30     1.426     1.127   3.27   0
       120   1019.6873    712.7269 300.2571694 +22.8791575     1776.648     72.31108      1.742     3.72     3.787125     20.41155     144.7953        22     1.189     1.131  63.60  16
       121     37.3028    703.7817 299.9542892 +22.5820306     791.1111     72.25574      1.704     3.78     3.672544     20.41155     90.54759        17     1.210     0.986  14.74   0
       122    897.3123    699.8184 300.2232015 +22.8387878     666.7386     72.29264      1.503     3.51     3.858583     20.41155     63.71288        15     1.128     0.880  57.51   0
       123    200.0385    700.1677 300.0060275 +22.6298282     470.4887     72.38479      1.600     4.39     3.715022     20.41155     53.80572        12     1.072     0.854  11.23   0
       124    933.4445    690.7335 300.2374202 +22.8470028     148156.1     72.32951      1.608     3.16     3.874065     20.41155        13709       158     1.501     1.465  -2.62   0
       125    696.0006    694.6513 300.1621447 +22.7769761     444.2955     72.31108      1.279     2.44     3.762999     20.41155     54.95533         5     0.718     0.430 -20.93   0
       126    785.8193    690.9120 300.1913440 +22.8028211     784.5128     72.29264      1.423     3.86     3.789181     20.41155     77.48066        14     1.122     0.886  47.31   0
       127    619.6809    679.5611 300.1432791 +22.7497660     1734.058     72.31108      1.394     2.48     3.727101     20.41155     200.8436        22     1.134     1.011  67.04   0
       128    800.8896    676.7648 300.2006381 +22.8032737     9489.939     72.32951      1.476     2.87     3.858739     20.41155     1096.669        43     1.241     1.193  85.98   0
       129    282.6096    678.2172 300.0388302 +22.6483025     331.4518     72.29264      1.285     3.48     3.623875     20.41155     34.96274         5     0.769     0.454 -73.35   0
       130    302.3606    671.8169 300.0470516 +22.6523906     4940.423     72.36637      1.507     2.71     3.688208     20.41155     646.7319        30     1.174     1.106  42.94   0
       131    384.4048    669.9307 300.0731819 +22.6764569     1096.411     72.31108      1.428     2.90     4.016343     20.41155     142.4928        17     1.094     0.940  25.99   0
       132     16.1411    670.0540 299.9586762 +22.5660079     1573.748     72.40321      1.756     3.40     3.910764     20.41155     163.0495        25     1.445     1.093  26.41   0
       133    260.2339    667.8803 300.0352320 +22.6386245     464.6616     72.29264      1.434     3.55     3.706906     20.41155     62.98378        11     0.969     0.854 -86.75   0
       134    592.7078    665.5624 300.1394292 +22.7376608      806.423     72.34795      1.408     3.11     3.805268     20.41155     95.81257        15     1.107     0.811  31.22   0
       135    584.3576    657.6802 300.1393906 +22.7328945     3277.155     72.32951      1.401     2.38     3.873639     20.41155     416.0742        26     1.081     1.050  -1.10   0
       136    574.6827    651.4108 300.1384156 +22.7281941     1307.688     72.31108      1.254     2.24     3.931312     20.41155     183.7386        15     0.938     0.841  20.72   0
       137    968.6284    649.2646 300.2618687 +22.8456268     513.0275     72.34795      1.574     4.48     4.015923     20.41155     50.33525         9     1.039     0.700 -20.63   0
       138    485.6193    648.0522 300.1117835 +22.7005282     431.2227     72.32951      1.796     4.65     4.141785     20.41155     48.96606         7     0.993     0.618  68.89   0
       139    237.9615    647.2983 300.0349951 +22.6260381      636.864     72.34795      1.472     4.12     3.828979     20.41155     60.36665        13     1.100     0.855 -27.93   0
       140    252.1220    646.0295 300.0398097 +22.6299219     612.0286     72.34795      1.521     3.25     3.816072     20.41155      75.2524        14     1.066     0.914   2.79   0
       141    277.8691    642.7307 300.0488867 +22.6366984     589.8365     72.40321      1.455     3.53     3.801238     20.41155     79.18253        11     1.010     0.797  52.25   0
       142   1020.8748    642.2241 300.2804526 +22.8592522     458.1835     69.27911      1.515     3.14     4.286312     20.41155     50.97849         7     0.858     0.580  63.18  16
       143    598.5450    641.5555 300.1490475 +22.7325176     430.8818     72.36637      1.319     3.10     4.019279     20.41155     62.97719        10     0.978     0.799 -46.94   0
       144    499.4139    641.0873 300.1183397 +22.7026647     1758.479     72.29264      1.363     2.53     4.118548     20.41155     239.3787        19     1.116     0.911  41.90   0
       145    532.7409    640.0364 300.1290545 +22.7123547      414.306     72.36637      1.637     4.38     4.039231     20.41155     36.93273         6     0.841     0.650  81.18   0
       146    153.3137    635.9601 300.0123685 +22.5973911     19547.81     72.32951      1.585     3.04     3.890483     20.41155     2246.341        66     1.400     1.343  34.26   0
       147     74.2176    637.4490 299.9873089 +22.5740858     798.2183     72.38479      1.930     3.91     3.899667     20.41155     65.41008        13     1.184     0.944  30.53   0
       148    584.4254    636.2005 300.1463911 +22.7267474     1172.798     72.29264      1.540     4.15     4.064267     20.41155      124.349        17     1.150     1.028 -68.90   0
       149    619.6992    635.6884 300.1575409 +22.7371738     357.3129     72.51361      1.174     2.38       4.0674     20.41155     50.12511         5     0.721     0.436  15.79   0
       150    501.7564    633.9612 300.1213841 +22.7013213     292.9702     72.44003      1.590     4.38     4.133329     20.41155     31.83874         6     1.176     0.464 -16.95   0
       151    337.8185    628.5049 300.0721513 +22.6505968     326.2648     72.27419      1.524     3.37     3.947931     20.41155     38.87888         5     0.803     0.684 -51.85   0
       152   1002.4160    622.8755 300.2809816 +22.8481629     1104.314     72.34795      1.554     3.64     4.399855     20.41155     95.20442        17     1.117     1.009   0.04   0
       153    667.3831    623.8665 300.1762321 +22.7480708     289.6397     72.32951      1.429     3.44     4.066246     20.41155     27.47643         5     0.774     0.441 -71.22   0
       154     99.3011    620.1052 300.0007361 +22.5766376     1604.361     72.53199      1.946     4.63     3.880484     20.41155     118.8709        29     1.474     1.270 -79.42   0
       155    868.9833    620.4836 300.2401504 +22.8075072      573.926     72.31108      1.577     4.43     3.877393     20.41155     65.70143         9     0.999     0.801  26.80   0
       156    165.3338    620.6747 300.0210699 +22.5966123     432.6581     72.42162      1.408     3.51     3.919289     20.41155     46.86431        10     0.959     0.799 -19.72   0
       157    547.5815    617.1282 300.1411170 +22.7102265     480.5384     72.36637      1.416     3.07     4.198545     20.41155     58.51501         8     0.828     0.686  42.73   0
       158    942.8633    615.3590 300.2648505 +22.8281658     851.3491     72.32951      2.005     3.95     3.993696     20.41155     79.86091        12     1.141     0.877  -9.37   2
       159    340.4488    616.0856 300.0770041 +22.6478214     281.6957     72.32951      1.558     4.50     3.973057     20.41155     35.10364         6     1.104     0.521  37.66   0
       160    687.1790    613.6424 300.1857199 +22.7510672     213.4447     72.38479      1.235     3.14     4.084651     20.41155     43.82256         5     0.936     0.376  84.99   0
       161    504.2908    609.0746 300.1302582 +22.6949364     724.6296      72.5136      1.298     3.32     4.215435     20.41155     85.01277        11     0.965     0.848  49.98   0
       162    652.4271    607.9841 300.1767340 +22.7390271      588.365     72.36637      1.499     3.01     4.176474     20.41155     75.41549        10     0.931     0.787  16.87   0
       163    699.7902    606.3281 300.1920246 +22.7527457     529.2812     72.32951      1.485     3.34     4.104476     20.41155      62.8566         7     0.846     0.591  52.99   0
       164    670.0676    605.9757 300.1828808 +22.7437371     692.9496     72.32951      1.429     2.18     4.121977     20.41155      93.8278         8     0.789     0.612  47.35   0
       165    548.4855    604.9871 300.1453428 +22.7070115     815.6564     72.29264      1.289     2.77     4.273327     20.41155     110.5108        15     1.069     0.816  49.10   0
       166    982.4279    600.6920 300.2819546 +22.8358008     3081.072     72.31108      1.553     2.99     4.361879     20.41155     332.4331        30     1.240     1.145  46.67   0
       167    514.1618    600.5208 300.1361094 +22.6954397     1820.442     72.32951      1.388     2.47     4.241323     20.41155      221.598        19     1.058     0.909  76.73   0
       168    852.2533    597.6111 300.2423662 +22.7959234     187.5154     72.34795      1.078     3.43      3.88136     20.41155       29.227         5     0.771     0.440 -19.34   0
       169     76.0917    594.0630 300.0019850 +22.5622038      5015.38     72.45843      1.683     3.14      3.93976     20.41155     551.5422        41     1.405     1.304  81.65   0
       170   1021.4929    590.9942 300.2972904 +22.8447128     358.2068      66.9499      1.560     3.52     4.723171     20.41155      40.7608         6     0.932     0.507 -14.40  16
       171    543.1982    591.3754 300.1481187 +22.7015181     278.3373     72.29264      1.169     2.55     4.303826     20.41155     41.54751         6     0.704     0.612 -60.92   0
       172    377.5664    587.2957 300.0979018 +22.6506890     9069.596     72.34795      1.424     2.53     4.009751     20.41155     1050.533        43     1.226     1.170  40.73   0
       173    500.0558    584.4006 300.1369556 +22.6865826     8947.881     72.27419      1.350     2.42     4.249462     20.41155     1083.678        38     1.144     1.110  89.16   0
       174    266.3201    581.2760 300.0652598 +22.6155998     167.8699     72.45843      1.050     2.80     4.005377     20.41155     46.44667         5     0.714     0.459  81.31   0
       175    996.3971    575.8519 300.2943814 +22.8328449     12583.86     72.34795      1.556     3.04     4.491388     20.41155     1238.401        53     1.315     1.308  23.61   0
       176    911.7739    578.4756 300.2671387 +22.8082543     1816.216     72.36637      1.473     2.65     3.866795     20.41155     209.3163        21     1.081     0.995 -37.74   0
       177    560.6103    573.9727 300.1591923 +22.7017402     11433.11     72.34795      1.336     2.40      4.34393     20.41155     1554.218        44     1.178     1.112 -88.33   0
       178    288.0312    569.4262 300.0758595 +22.6187105     1405.868     72.34795      1.461     2.85     4.020736     20.41155     137.6266        21     1.105     1.021  70.37   0
       179    730.0347    569.6611 300.2133581 +22.7512761     617.3007     72.36637      1.445     3.57     4.086425     20.41155      78.3871        14     1.086     0.919  34.21   0
       180    446.0322    568.4257 300.1253322 +22.6658002      201.046     72.34795      1.119     2.52     4.113774     20.41155     44.67776         6     0.768     0.493  -4.08   0
       181    534.5015    567.1180 300.1532910 +22.6919459     393.7068      72.5136      1.603     4.24      4.34784     20.41155     40.23709         9     1.009     0.715  -2.67   0
       182    492.2797    562.1141 300.1417744 +22.6778526     4324.057      72.5136      1.319     2.44     4.265858     20.41155     531.6351        28     1.077     1.032  58.77   0
       183    835.3483    562.2573 300.2485814 +22.7807008     941.7721     72.40321      1.417     3.30     3.886577     20.41155     112.5769        14     1.037     0.927 -27.97   0
       184    470.3745    560.4728 300.1354903 +22.6708146     1299.206     72.36637      1.424     2.70     4.200204     20.41155     165.2353        18     1.141     0.951 -17.54   0
       185    224.8547    559.7978 300.0593446 +22.5969998      676.974     72.29264      1.435     3.50     4.023528     20.41155     100.5018        15     1.214     0.872  69.21   0
       186    912.0547    557.7581 300.2739561 +22.8023845     1758.592     72.34795      1.583     3.02     3.859971     20.41155     165.5711        24     1.193     1.121  26.49   0
       187    608.9037    549.7087 300.1821099 +22.7092464     200161.7     72.53199      1.372     2.39     4.325501     20.41155     28839.85       207     1.475     1.401  -2.09   0
       188    792.5862    554.6954 300.2377101 +22.7657176     923.5176     72.27419      1.501     3.03     3.917035     20.41155     112.5409        17     1.052     1.017  20.15   0
       189    432.8276    555.6955 300.1253583 +22.6581867     275.6116     72.27419      1.226     1.75     4.044509     20.41155      66.3769         5     0.681     0.433  17.16   0
       190    885.4266    553.2278 300.2671253 +22.7931069     298.3963     72.31108      1.017     2.44     3.869241     20.41155     39.33949         5     0.695     0.466  71.30   0
       191    294.9590    549.5490 300.0844697 +22.6150833     3556.479     72.36637      1.456     2.70     4.029372     20.41155     423.0546        30     1.223     1.094  47.47   0
       192    569.5417    550.8054 300.1694979 +22.6977643     126.1137     72.31108      1.156     3.65     4.376705     20.41155      35.5148         5     1.009     0.379   6.98   0
       193    860.7817    545.8046 300.2618534 +22.7835917     570.2752     72.29264      1.412     2.82     3.878599     20.41155     66.11044         8     0.844     0.661 -87.06   0
       194    686.3225    543.0912 300.2083708 +22.7305457     476.0473     72.49522      0.614     0.77     4.262784     20.41155     284.6894         5     0.481     0.404 -25.68   0
       195    499.4173    530.2637 300.1543404 +22.6708467     2768.392     72.32951      1.433     2.50     4.314041     20.41155     353.4029        28     1.406     0.987 -84.92   0
       196    344.0663    532.2805 300.1053501 +22.6248521     410.1103     72.45843      1.413     2.20     4.006526     20.41155     67.80232         6     0.716     0.552  55.29   0
       197    949.2670    530.4470 300.2944306 +22.8056798     325.1479     72.32951      1.294     3.44     4.040003     20.41155     34.19117         5     0.755     0.453  19.89   0
       198    911.2056    526.4417 300.2838629 +22.7931298     344.7113     72.36637      1.410     2.12     3.853517     20.41155     48.54425         5     0.666     0.488  11.60   0
       199    896.5576    516.4577 300.2825382 +22.7858733     1824.337     72.31108      1.431     2.72     3.855767     20.41155      195.387        22     1.162     1.026  84.49   0
       200    816.8785    518.5891 300.2570078 +22.7626201     433.7412     72.32951      1.181     2.29     3.864522     20.41155     68.30215         8     0.756     0.665  83.01   0
       201     26.6133    514.7630 300.0123695 +22.5246114      907.327     72.34795      1.794     3.53     4.031185     20.41155     109.2866        15     1.187     0.855 -40.14   0
       202    767.6802    513.9135 300.2431940 +22.7465386      2631.78      72.5136      1.353     2.51     3.943875     20.41155     345.1816        21     1.051     0.952  42.97   0
       203   1012.1170    511.1797 300.3202908 +22.8189617     448.7581     72.31108      1.351     4.03     4.645957     20.41155     51.43138         8     0.822     0.702 -53.18   3
       204   1010.8760    507.0801 300.3212351 +22.8174115     746.0474     72.45843      1.821     4.20     4.636338     20.41155     49.64981        12     1.028     0.873  20.93   2
       205    977.0510    511.1971 300.3093475 +22.8084667     367.4815     72.34795      1.308     3.06     4.309316     20.41155     39.12276         6     0.878     0.466 -34.13   0
       206    672.3589    510.6314 300.2145632 +22.7170371     410.7527     72.40321      1.185     2.55     4.239554     20.41155     62.34883         6     0.796     0.492  45.70   0
       207    554.8961    509.7016 300.1782874 +22.6815702     692.2285     72.53199      1.431     2.83     4.350086     20.41155     91.16688        12     0.912     0.848  44.21   0
       208   1024.0000    507.9271 300.3250540 +22.8215846     445.7302     54.23177      1.101     2.95     4.761376     20.41155     108.6598         5     1.168     0.289  90.00  24
       209    896.9260    506.4988 300.2858873 +22.7831213     2296.197     72.47683      1.719     3.09     3.853445     20.41155     253.1638        28     1.481     1.016  68.93   0
       210    650.0476    504.4948 300.2096068 +22.7085889     926.0889     72.36637      2.123     4.00     4.222932     20.41155     89.57014        12     1.161     0.795 -74.10   2
       211    934.9836    501.4403 300.2993968 +22.7930648     4242.304     72.36637      1.415     2.50     3.905347     20.41155     537.0441        30     1.141     1.100 -59.08   0
       212    436.3972    504.2265 300.1431839 +22.6444795     304.4354     72.29264      1.054     2.00     4.232561     20.41155     50.12905         5     0.669     0.466  71.87   0
       213    486.8196    502.3622 300.1594804 +22.6590586     1021.369     72.36637      1.097     0.01     4.319403     20.41155     540.3326         9     1.345     0.350  23.97   0
       214    496.5822    499.9598 300.1632989 +22.6612948     276.7933     72.36637      1.394     3.86     4.327248     20.41155     32.43529         5     0.877     0.488  84.36   0
       215    595.5295    497.0070 300.1950607 +22.6901014     366.0544     72.31108      1.298     2.00      4.23561     20.41155     58.04118         6     0.725     0.499 -88.86   0
       216    166.7043    491.5935 300.0634182 +22.5599868     967.4391      72.2373      1.649     3.93     3.888745     20.41155     98.26119        16     1.236     0.887  50.12   0
       217    827.9832    485.1579 300.2713254 +22.7563392     277.4319     72.36637      1.617     4.51      3.83328     20.41155     30.08031         6     1.079     0.535  78.50   0
       218    159.4717    482.0850 300.0642576 +22.5550890     391.7056     72.45843      1.477     4.71     3.832052     20.41155     48.63365         8     1.210     0.590   3.16   0
       219    813.6298    475.7887 300.2698940 +22.7493474     280.4423     72.34795      1.802     4.84     3.822752     20.41155       36.636         5     1.148     0.578  60.42   0
       220    767.2710    476.1082 300.2553429 +22.7355530     378.6243     72.49522      1.275     2.22     3.910346     20.41155     69.79346         6     0.717     0.529  53.78   0
       221    656.4367    473.7854 300.2215685 +22.7016813     267.9377     72.34795      1.126     1.92     4.147669     20.41155     52.36768         5     0.678     0.442 -64.03   0
       222    708.3500    471.8186 300.2383778 +22.7166695      869.168     72.34795      1.546     3.36     4.055608     20.41155     104.2691        14     1.131     0.800  78.60   0
       223   1022.7831    464.5561 300.3387582 +22.8087507     321.1844     61.18565      1.225     3.90     4.673989     20.41155     67.17457         9     0.923     0.729  23.15  24
       224    769.2752    464.1064 300.2598644 +22.7327045     831.7473     72.49522      1.307     2.93     3.899686     20.41155     93.45934        13     0.932     0.873  39.36   0
       225    926.4368    460.4295 300.3100485 +22.7787167     954.0866     72.36637      1.380     2.58     3.847637     20.41155     128.8054        18     1.134     0.935  39.42   0
       226    910.7111    456.8802 300.3062974 +22.7729874     630.6848     72.47683      1.370     3.43     3.847637     20.41155     87.94346        11     1.082     0.687   8.79   0
       227    654.9526    454.6525 300.2273184 +22.6957399     3332.829     72.38479      1.309     2.22     4.097831     20.41155     504.7953        26     1.103     0.983 -67.42   0
       228    890.9758    456.6607 300.3002154 +22.7670144     301.6739     72.34795      1.351     2.78     3.847637     20.41155     42.20914         5     0.855     0.473  -1.38   0
       229   1015.2611    453.5916 300.3399717 +22.8033462     446.7078     72.32951      1.432     4.16     4.554746     20.41155     60.93306        10     1.133     0.796  23.47   0
       230    131.1911    446.0283 300.0671749 +22.5362599     294.9746     72.34795      1.229     4.06     3.914152     20.41155     45.97763         7     1.077     0.613 -43.62   0
       231    115.6520    456.6527 300.0588973 +22.5346482     226.4558     72.38479      1.579     4.24     3.921038     20.41155     26.00952         5     1.251     0.409  36.86   0
       232    938.2275    433.5133 300.3224641 +22.7745095     521.6119     72.34795      1.481     3.28     3.912329     20.41155     60.43001         9     0.861     0.762 -37.23   0
       233   1023.7556    432.6073 300.3494346 +22.7998555     430.0216     55.78295      1.113     2.44     4.525589     20.41155     93.24039         6     0.845     0.430  89.14  24
       234    765.5552    428.6337 300.2702218 +22.7213964     1038.827     72.38479      1.214     2.21     3.891114     20.41155     159.8454        13     0.894     0.758  51.02   0
       235    561.3021    429.3468 300.2063715 +22.6604098     314.7378     72.44003      1.158     2.81     4.261908     20.41155     46.62587         6     0.689     0.633 -82.96   0
       236    269.5916    426.8378 300.1164249 +22.5722536       583.95     72.36637      1.228     2.62     4.026239     20.41155     74.53923         9     0.769     0.748 -61.26   0
       237    331.9714    422.4866 300.1372361 +22.5897059     3802.755     72.34795      1.388     2.49     4.158423     20.41155     471.8576        27     1.116     1.038  67.50   0
       238    279.1000    417.2472 300.1224946 +22.5723511     7764.021     72.36637      1.409     2.58     4.025872     20.41155     800.7428        42     1.300     1.126  48.31   0
       239    419.9813    411.4249 300.1682049 +22.6129106     4868.823     72.34795      1.353     2.45     4.413682     20.41155     653.8179        30     1.133     1.026  60.98   0
       240    664.1647    408.2275 300.2452588 +22.6851611     18702.76     72.36637      1.306     2.33     3.953008     20.41155     2370.111        55     1.192     1.152  60.00   0
       241    681.5575    408.4152 300.2506155 +22.6904253     884.2097     72.36637      1.748     5.96     3.921123     20.41155     74.41032        17     1.433     0.860 -46.40   0
       242    520.7703    404.9831 300.2016624 +22.6412659     330.3019     72.34795      1.681     3.77     4.294713     20.41155     28.54929         5     0.822     0.497  37.19   0
       243    860.7161    398.4656 300.3096742 +22.7412246     385.9009     72.45843      1.411     3.91     3.849682     20.41155     57.17692         8     0.927     0.701  70.58   0
       244    284.0595    395.4671 300.1311062 +22.5675850     369.5912     72.38479      1.234     3.72      4.01308     20.41155     45.41409         6     0.798     0.498  -3.18   0
       245    997.7332    391.0063 300.3548219 +22.7801031     939.4738     72.34795      1.579     3.65     4.276169     20.41155     94.23423        12     1.069     0.801  20.33   0
       246    534.5069    389.6631 300.2109111 +22.6409813     332.5788     72.45843      1.347     3.64     4.246756     20.41155     42.77374         6     0.947     0.404  69.86   0
       247    218.8247    388.2845 300.1131550 +22.5459650     2045.078     72.31108      1.436     2.74     3.936957     20.41155     231.1452        25     1.114     1.069  57.87   0
       248    604.7579    377.6366 300.2366868 +22.6585744      6559.29     72.42162      1.286     2.26     4.141268     20.41155     989.3572        33     1.143     1.014  71.31   0
       249   1018.4765    378.1857 300.3654540 +22.7826258      1085.94     72.36637      1.343     2.90     4.358217     20.41155     140.1716        15     0.947     0.905   5.21  16
       250    319.6441    377.0127 300.1481618 +22.5729538     662.7693     72.34795      1.392     2.50      4.10287     20.41155     102.4141        12     0.943     0.804  15.17   0
       251    864.5248    369.6873 300.3202024 +22.7340920     337.4094     72.47683      1.298     4.19      3.86445     20.41155     44.44586         7     0.958     0.523  29.05   0
       252    177.0851    370.0768 300.1060897 +22.5282234     423.6458     72.45843      1.432     3.88     3.945576     20.41155     52.01194         9     0.966     0.763  36.53   0
       253     24.5602    367.8607 300.0594179 +22.4818477     1397.182     72.34795      1.630     3.42     4.477015     20.41155     159.6278        22     1.305     1.082  39.95   0
       254    808.9866    366.7994 300.3038280 +22.7166314      1162.54      72.1819      1.445     2.35     3.735047     20.41155      180.228        15     1.009     0.869 -80.00   0
       255    718.6808    367.7290 300.2753861 +22.6898532     568.4355     72.45843      1.582     2.69     3.786697     20.41155     59.01144         9     0.854     0.688 -86.97   0
       256    511.4056    363.8854 300.2120863 +22.6266542     6041.657     72.27419      1.308     2.29      4.25893     20.41155     868.4121        33     1.084     1.054 -80.58   0
       257   1000.5004    358.6481 300.3661877 +22.7716264     601.6032     72.38479      1.376     3.01     4.277652     20.41155     76.73987        10     0.907     0.724  44.89   0
       258    903.3337    358.2880 300.3360017 +22.7424345     1335.293     72.45843      1.313     2.41     3.973306     20.41155     187.4504        18     1.025     0.955 -87.08   0
       259      2.3962    353.5227 300.0571867 +22.4710857     275.1305     62.00814      1.240     4.25     4.795573     20.41155     45.87125         7     1.027     0.665 -21.82  24
       260    496.2072    352.5287 300.2110412 +22.6188378     514.5746     72.31108      1.209     2.69     4.294131     20.41155     90.44849         9     1.029     0.589  51.81   0
       261    578.2766    350.7783 300.2371578 +22.6429240     505.2684     72.32951      1.275     3.67     4.126624     20.41155     55.55105        10     1.025     0.677  82.25   0
       262     22.8785    349.1652 300.0649623 +22.4759784       978.67     72.29264      1.606     3.78     4.615997     20.41155     108.0069        20     1.405     1.047  61.85   0
       263    857.3636    349.6743 300.3244652 +22.7261943     415.2619     72.29264      1.668     3.00     3.851374     20.41155     37.57234         5     0.737     0.441 -70.93   0
       264    559.1696    348.6170 300.2319102 +22.6365787     214.4901     72.32951      1.223     2.56     4.115526     20.41155      44.7035         5     0.729     0.437 -21.46   0
       265    876.2009    346.1926 300.3314676 +22.7308334     491.9193     72.16343      1.217     3.48     3.907479     20.41155     71.90604        10     1.087     0.659  53.21   0
       266    399.0648    343.0986 300.1838724 +22.5870189      2534.89     72.44003      1.314     2.39     4.263597     20.41155     360.6234        24     1.078     0.982  81.38   0
       267    117.5264    340.3138 300.0972386 +22.5018215     1084.251     72.47683      1.608     2.95     3.980788     20.41155     116.9671        16     1.075     0.950 -76.01   0
       268    368.3302    332.5440 300.1777359 +22.5747765     29743.08     72.36637      1.348     2.35     4.127052     20.41155     3898.174        68     1.323     1.160  56.96   0
       269    902.9575    330.1075 300.3450298 +22.7342193     1402.145     72.34795      1.348     2.55     3.968513     20.41155     187.1937        16     0.975     0.905 -84.97   0
       270    858.6240    328.3025 300.3317936 +22.7204273     320.4511     72.25574      1.174     2.37      3.88289     20.41155     64.73972         5     0.723     0.452  -8.25   0
       271     64.5686    320.3159 300.0872733 +22.4802015     4861.597     72.32951      1.597     2.84     4.289665     20.41155     547.0892        38     1.343     1.207  39.65   0
       272    242.6116    319.3261 300.1429274 +22.5332985     528.1733     72.36637      1.769     4.90     3.947396     20.41155     68.03291         8     1.259     0.610 -84.07   0
       273    942.2455    319.0806 300.3608591 +22.7428098     138.6272     72.32951      1.559     5.58     4.037865     20.41155     37.36046         6     1.175     0.746 -68.16   0
       274    818.2404    319.0414 300.3222107 +22.7056733     612.9086     72.44003      1.340     2.44     3.794587     20.41155     86.71985        10     0.871     0.702  17.24   0
       275    466.6703    317.8173 300.2131122 +22.6000160     335.2992     72.36637      1.200     2.87     4.227937     20.41155        65.03         8     0.876     0.633  73.77   0
       276    778.6597    312.3520 300.3120457 +22.6918985     1926.792     72.40321      1.313     2.38     3.768048     20.41155     264.7471        19     1.036     0.917 -85.16   0
       277    586.6599    307.1984 300.2539094 +22.6329134     334.7622     72.31108      1.282     1.72     3.891406     20.41155     58.17735         5     0.691     0.418 -66.15   0
       278    993.9861    305.2557 300.3814824 +22.7543213     590.8835     72.32951      1.334     3.57     4.176624     20.41155     99.24599        11     1.100     0.700  54.73   0
       279    440.4886    296.8527 300.2117667 +22.5861486     2142.925     72.36637      1.512     3.08     4.159432     20.41155     239.4397        23     1.237     0.951  65.73   0
       280    652.7194    295.1628 300.2783865 +22.6492417     339.1421     72.31108      1.347     4.67     3.764223     20.41155     42.89661         7     1.131     0.548  59.67   0
       281    871.9423    291.0248 300.3480415 +22.7136964     350.6206     72.34795      1.326     3.28     3.939436     20.41155     43.21505         7     0.863     0.543  40.74   0
       282    879.6895    289.7855 300.3508589 +22.7156593     578.3224     72.29264      1.336     2.66     3.940583     20.41155     94.96526        11     0.939     0.802 -68.60   0
       283     12.7699    287.9418 300.0816862 +22.4553766     752.1234     72.36637      2.015     5.30     4.646498     20.41155     63.52673        11     1.435     0.674 -41.83   0
       284    762.2444    287.5922 300.3149639 +22.6798654     468.5773     72.36637      1.146     2.50     3.804176     20.41155      61.7757         5     0.697     0.465 -17.69   0
       285    730.2287    287.3093 300.3050799 +22.6701971     243.8717     72.32951      0.919     1.80     3.791292     20.41155     55.68618         5     0.699     0.420  20.25   0
       286    516.3909    276.3185 300.2420515 +22.6029901      1176.81     72.29264      1.207     2.03     3.912622     20.41155     158.7292        16     0.923     0.870 -88.52   0
       287    323.6758    276.5798 300.1820036 +22.5453207     320.0129     72.34795      1.294     3.48     3.898508     20.41155     45.96062         7     0.879     0.780 -34.67   0
       288     89.1778    276.9446 300.1089895 +22.4751316     423.5419     72.36637      1.891     4.60     4.254375     20.41155     32.69669         7     0.884     0.679 -33.60   0
       289    761.3387    268.1254 300.3209973 +22.6739979     2233.565     72.38479      1.344     2.64     3.786542     20.41155     277.4108        24     1.235     0.954  70.17   0
       290   1022.4426    262.5898 300.4042022 +22.7505658     2856.295     62.79863      1.421     2.70     4.042344     20.41155     365.9418        25     1.223     0.994  60.29  24
       291    568.8207    261.2821 300.2632516 +22.6143753     277.9078     72.31108      1.542     5.01     3.820611     20.41155     35.97784         7     1.037     0.685 -78.99   0
       292    469.5937    251.8825 300.2354129 +22.5819495     709.8566     72.27419      1.234     2.52     3.921392     20.41155     106.2283         9     0.939     0.649  64.78   0
       293    175.2797    246.2639 300.1456985 +22.4921364     614.1189     72.45843      1.559     3.26     4.298688     20.41155     61.46749        12     0.976     0.845  -0.49   0
       294    144.2388    246.1667 300.1360826 +22.4828034     1248.119     72.38479      1.579     3.31     4.395111     20.41155     118.8822        20     1.182     1.016 -29.03   0
       295    881.7307    239.9585 300.3676600 +22.7019419     466.6927     72.32951      1.720     3.45     3.890095     20.41155     39.83927         7     0.727     0.683  73.86   0
       296    228.3791    237.9008 300.1649173 +22.5056512     505.0511     72.27419      1.378     3.66      3.97779     20.41155     61.33013         9     0.989     0.733 -58.45   0
       297   1023.4844    235.8864 300.4131899 +22.7431960     273.2383      57.4316      1.150     1.98     3.835461     20.41155     66.59785         5     0.701     0.459  68.11  24
       298     83.9776    235.0741 300.1209552 +22.4615528     332.5994     72.36637      1.284     3.99     4.480137     20.41155     50.17138         7     0.993     0.650  74.24   0
       299    904.5147    231.9400 300.3773649 +22.7064557      449.902     72.45843      1.478     3.57     3.881786     20.41155     54.05271        10     0.976     0.751  44.50   0
       300    832.8853    229.5923 300.3557955 +22.6843393     498.2834     72.27419      1.220     2.69     3.823966     20.41155      74.2131         9     0.818     0.730  43.49   0
       301    423.0978    229.0784 300.2283409 +22.5614676     444.5636     72.45843      1.305     2.75     3.721896     20.41155     57.36115         9     0.782     0.747  42.48   0
       302    969.1766    223.0644 300.4004088 +22.7232557     315.0986     72.32951      1.219     4.68     3.828475     20.41155     39.19002         8     0.974     0.639  28.10   0
       303    931.0743    218.6663 300.3899524 +22.7105874     2150.844     72.40321      1.453     2.29     3.923677     20.41155     309.8894        28     1.298     1.052  83.15   0
       304    349.6000    215.9767 300.2097246 +22.5356822     2223.494     72.25574      1.429     2.56     3.886446     20.41155     287.6394        23     1.203     0.973  63.76   0
       305    427.3107    210.9704 300.2355248 +22.5575273     884.2334     72.31108      1.382     2.91     3.850694     20.41155     122.4093        14     0.969     0.918  15.12   0
       306    829.6227    210.5442 300.3609568 +22.6778852      587.928     72.38479      1.194     2.44     3.884306     20.41155     88.31315         9     0.873     0.693  42.18   0
       307    179.1696    211.5834 300.1581556 +22.4833442     258.2603     72.32951      1.196     3.37     4.441314     20.41155     45.06314         5     0.751     0.439 -21.63   0
       308    936.2636    207.5289 300.3951831 +22.7089371       387.27     72.38479      1.170     3.12     4.000212     20.41155     48.08425         5     0.740     0.436  23.91   0
       309     25.8546    204.6252 300.1127739 +22.4353855     377.7954     72.38479      1.298     4.21     4.781141     20.41155     38.46685         5     1.119     0.451  57.67   0
       310    244.3470    203.2480 300.1811206 +22.5004852     720.6362     72.38479      1.405     3.02     4.154191     20.41155     83.63955        13     1.056     0.763  32.78   0
       311    362.2485    202.9488 300.2178843 +22.5357296     358.0383     72.38479      1.388     4.04     3.969409     20.41155     53.41618         7     0.959     0.775 -10.78   0
       312    847.0822    199.8347 300.3698727 +22.6800317     547.6927     72.31108      1.383     3.44     4.016438     20.41155     78.19707        13     1.097     0.859  50.56   0
       313    782.1662    200.0878 300.3495572 +22.6606718     1653.302     72.31108      1.342     2.29     3.817996     20.41155     244.1006        20     1.100     0.930  88.73   0
       314    209.2840    201.0340 300.1709378 +22.4893408     137.9753     72.31108      1.164     3.75     4.227127     20.41155     28.07498         5     1.259     0.320  25.60   0
       315    265.6826    196.4442 300.1899609 +22.5049250     557.5293     72.31108      1.280     3.31     4.251551     20.41155     79.15264        10     0.912     0.845 -68.81   0
       316    786.2309    191.1745 300.3537147 +22.6593257     761.7967     72.34795      1.534     3.98     3.836334     20.41155     99.47823        15     1.258     0.863 -84.88   0
       317    706.6320    190.8545 300.3290158 +22.6354028     1324.653     72.36637      1.345     2.32      3.87993     20.41155     195.7381        16     1.017     0.854 -70.90   0
       318    555.6453    192.2205 300.2815497 +22.5905815     305.5689     72.40321      1.193     3.08     3.980993     20.41155     55.98341         7     0.757     0.651 -80.21   0
       319    528.1005    187.1288 300.2746258 +22.5808683     478.3928     72.49522      2.054     3.14     4.005916     20.41155     54.61133         7     0.982     0.571  -1.19   0
       320    902.1082    182.2983 300.3927154 +22.6914578     1493.682     72.53199      1.405     2.38     4.258346     20.41155     204.7977        19     1.068     0.956  72.64   0
       321    632.9309    182.5977 300.3087363 +22.6109608     1023.303     72.31108      1.308     2.25     3.981501     20.41155     144.0568        12     0.897     0.734  81.99   0
       322    914.2278    181.4828 300.3967589 +22.6948504       848.29     72.34795      1.411     2.91      4.26698     20.41155     93.74476        14     0.977     0.882 -52.36   0
       323    960.5782    180.9431 300.4113885 +22.7085661     192.5679     72.36637      1.197     3.10     4.028386     20.41155     36.88792         5     0.749     0.593   9.18   0
       324     54.4070    168.4381 300.1333777 +22.4335569     400.2677     72.36637      1.666     3.95     5.019819     20.41155     50.14893        10     1.006     0.822  59.36   0
       325    264.9063    164.7538 300.1999959 +22.4955899     655.0851     72.36637      1.341     2.74     4.369173     20.41155     103.9289        13     1.037     0.781  67.74   0
       326    126.8737    159.4420 300.1588106 +22.4526964     2072.135     72.32951      1.441     2.74     4.641816     20.41155     233.9726        21     1.109     1.016  37.14   0
       327    949.9275    156.9251 300.4158555 +22.6984697     694.9203     72.40321      1.318     2.84     4.241327     20.41155     104.3464        12     0.996     0.779  26.83   0
       328     76.5084    156.2424 300.1441983 +22.4366807     480.2097     72.34795      1.392     3.19     4.870765     20.41155     60.13313         7     0.969     0.565  20.07   0
       329    284.3286    152.8054 300.2099096 +22.4979776     5588.192     72.29264      1.424     2.61     4.404212     20.41155     679.3737        37     1.230     1.109  46.86   0
       330    265.6513    153.6408 300.2038308 +22.4926211     389.4849     72.36637      1.512     4.93      4.37889     20.41155      42.7299         7     1.038     0.663  35.72   0
       331     68.3686    146.8453 300.1447161 +22.4315426     1389.583     72.40321      1.666     3.69     4.958377     20.41155     139.6797        23     1.549     1.038  46.09   0
       332    267.5275    143.6655 300.2076485 +22.4903178     600.4367     72.38479      1.324     3.23     4.370615     20.41155     76.72044        11     0.919     0.819  55.50   0
       333    928.4100    134.3536 300.4164641 +22.6855375     3623.395     72.36637      1.477     2.60     4.452378     20.41155     431.8473        33     1.294     1.074  80.01   0
       334    477.7336    129.5003 300.2776346 +22.5492207     583.3795     72.44003      1.362     3.02     4.191515     20.41155      74.4122        12     0.975     0.815 -74.16   0
       335    230.7667    130.4191 300.2005133 +22.4754975     283.1164     72.34795      1.053     2.57     4.322878     20.41155     44.94442         5     0.688     0.484 -11.15   0
       336    592.2331    127.6316 300.3138855 +22.5829733     265.2061     72.36637      1.118     2.44     4.071955     20.41155     52.56688         6     0.813     0.485  47.96   0
       337    401.8926    121.3782 300.2566673 +22.5241699     599.4372     72.27419      1.365     2.98     4.399725     20.41155     81.31143        11     1.015     0.712  88.43   0
       338    405.7881    120.2894 300.2582323 +22.5250239     335.4723     72.29264      1.219     3.02     4.406452     20.41155     47.20582         6     0.729     0.617  57.27   0
       339    936.8470    119.3419 300.4239625 +22.6837435     345.5076     72.40321      1.565     4.07     4.415191     20.41155     33.11339         6     0.751     0.635  63.43   0
       340    167.8607    118.5714 300.1847994 +22.4532434     654.9285     72.36637      1.542     3.45     4.499859     20.41155     58.50254        12     0.949     0.904  74.62   0
       341    529.1181    116.8241 300.2977387 +22.5609665     1715.616     72.31108      1.314     2.39     4.108688     20.41155     262.6621        19     1.133     0.884  71.80   0
       342    456.9803    117.1126 300.2751918 +22.5394447     417.5114     72.27419      1.339     5.16     4.271878     20.41155     70.74975        10     1.049     0.718  34.37   0
       343     65.9380    117.2540 300.1535544 +22.4223173     299.6571     72.40321      1.496     3.95      4.99235     20.41155     39.78074         5     0.881     0.506 -48.92   0
       344    591.1246    116.2745 300.3172224 +22.5793765     396.2004     72.44003      1.387     2.57     4.068774     20.41155     49.22667         6     0.744     0.535  43.86   0
       345    272.7258    112.1893 300.2194696 +22.4828334     494.6822     72.36637      1.750     3.98     4.336547     20.41155     50.29083         7     0.916     0.830  67.43   0
       346    817.7585    106.3799 300.3910361 +22.6443768     296.2695     72.38479      1.121     2.92     4.382598     20.41155     56.19777         6     0.731     0.624  62.32   0
       347    303.2099     96.7214 300.2339637 +22.4875228     6038.688     72.31108      1.410     2.56     4.317611     20.41155     728.2053        36     1.262     1.093  64.36   0
       348    809.0734     97.3595 300.3912534 +22.6391829     319.0113     72.32951      1.153     4.27     4.428638     20.41155      50.6585         7     0.893     0.581  28.04   0
       349    154.4482     96.0810 300.1879214 +22.4427644     784.4442     72.38479      1.523     3.09     4.507693     20.41155      88.3769        11     0.880     0.847  17.55   0
       350    932.3439     94.5361 300.4306003 +22.6752595      162.722     72.40321      0.933     2.99     4.454691     20.41155     53.21502         5     0.716     0.447 -23.29   0
       351    275.2598     90.2968 300.2273543 +22.4773032     273.1872     72.42162      1.389     3.87     4.307932     20.41155      35.9115         5     0.938     0.459  45.70   0
       352    779.1096     87.7282 300.3850371 +22.6274448     264.6173      72.5136      1.318     4.55      4.48129     20.41155      32.0331         6     1.007     0.584 -61.60   0
       353    318.9519     88.2930 300.2415918 +22.4898173     314.9261     72.36637      1.189     1.97     4.329082     20.41155     59.11129         5     0.719     0.408 -19.97   0
       354     64.7726     87.5230 300.1628298 +22.4134306      403.942     72.34795      1.490     3.93     5.015354     20.41155     48.77431         7     0.976     0.453 -14.08   0
       355    549.3189     82.0540 300.3152993 +22.5570209     6225.693     72.38479      1.347     2.42     3.968316     20.41155      751.129        37     1.222     1.049  65.74   0
       356    434.7070     82.0881 300.2796145 +22.5227077     607.2046      72.5136      1.407     2.17     4.374221     20.41155     87.95779         9     0.822     0.647  21.25   0
       357    743.4916     73.2246 300.3786393 +22.6126127     195.8678     72.29264      1.223     4.58     4.656335     20.41155     35.90739         6     1.004     0.592 -28.92   0
       358    801.8232     71.7200 300.3973052 +22.6296383     918.1157     72.31108      1.557     2.67     4.583487     20.41155     104.3351        13     0.939     0.860  64.65   0
       359    894.2817     70.6850 300.4264634 +22.6570087     127.9061     72.47683      1.133     2.48     4.485308     20.41155     69.79488         9     0.854     0.639  72.97   0
       360    242.1561     65.8891 300.2249724 +22.4603730     455.1657     72.36637      1.335     3.08     4.274467     20.41155     71.54835         7     0.914     0.608 -27.05   0
       361    600.5329     64.4214 300.3369612 +22.5672859     477.5834     72.32951      1.340     4.62     4.017616     20.41155     53.94796         8     1.176     0.515  58.88   0
       362    677.6474     62.1075 300.3617289 +22.5897064     6318.345     72.36637      1.390     2.53     4.514404     20.41155     801.3562        38     1.268     1.083  75.50   0
       363    452.4987     60.9430 300.2920050 +22.5219589     1476.549     72.44003      1.377     2.64      4.28597     20.41155     192.8373        17     1.039     0.917  72.42   0
       364    718.9103     59.4513 300.3754447 +22.6012939     850.2792     72.36637      1.396     2.90     4.744385     20.41155     100.3165        15     1.018     0.884  61.14   0
       365    788.4446     57.3783 300.3977843 +22.6215092     357.4471     72.40321      1.145     2.81     4.719025     20.41155     46.70104         5     0.697     0.467  70.73   0
       366    734.6222     55.3932 300.3816555 +22.6048296     598.7268     72.32951      1.296     3.63     4.867025     20.41155     89.10622        11     1.309     0.593  66.88   0
       367    201.2115     53.5065 300.2162563 +22.4445480     823.5424     72.29264      1.757     3.37     4.342379     20.41155     81.17066        13     1.103     0.814  85.63   0
       368     48.3309     53.8568 300.1686335 +22.3988349      335.027     72.36637      1.798     5.26     5.198383     20.41155     28.81596         6     1.104     0.709 -78.09   0
       369   1004.6381     53.2267 300.4665397 +22.6850018     444.9581     72.36637      1.258     3.08     4.277066     20.41155     73.78245        10     0.896     0.878  45.57   0
       370    773.0873     51.2191 300.3949945 +22.6151415     469.5568     72.29264      1.229     2.03     4.811837     20.41155      73.1904         6     0.681     0.558  47.40   0
       371    721.9317     47.0044 300.3804204 +22.5986186     2798.283     72.31108      1.386     2.48     4.901109     20.41155      366.584        25     1.160     1.008  78.61   0
       372    362.6866     47.9977 300.2682562 +22.4913393     378.7888     72.27419      1.408     2.71     4.533018     20.41155     61.54087         7     0.826     0.667  16.99   0
       373    736.9200     45.8969 300.3854494 +22.6027862      716.658     72.47682      1.472     3.97     4.982389     20.41155     82.31284        13     1.339     0.748  58.97   0
       374     15.2987     40.8212 300.1625971 +22.3851911     687.2555     72.27419      1.597     5.62     5.542252     20.41155     97.36106        14     1.527     0.854  61.40   0
       375    808.2368     38.5069 300.4100695 +22.6220040     1620.735     72.31108      1.438     2.58     4.772254     20.41155     226.2093        19     1.094     0.948  41.59   0
       376    886.7963     33.2278 300.4362704 +22.6439924     381.9572     72.31108      1.608     4.34     4.489972     20.41155     38.07252         5     0.751     0.716  36.63   0
       377    124.9747     31.3983 300.1997258 +22.4153537     542.9962     72.29264      1.659     4.02     4.608114     20.41155     71.45393        11     1.285     0.669  48.34   0
       378    745.9891     31.9484 300.3927960 +22.6014886     814.3229     72.34795      1.430     2.79     5.105717     20.41155     101.9829        11     0.926     0.755  45.05   0
       379    552.0120     31.0258 300.3326769 +22.5431572     1212.153     72.34795      1.508     2.95     3.665541     20.41155     133.5019        16     1.028     0.943  60.09   0
       380    455.9154     29.0841 300.3033937 +22.5138247     726.8749     72.45843      1.334     3.78     4.244576     20.41155     115.1212        16     1.219     0.827  69.74   0
       381    837.7609     28.0732 300.4226538 +22.6278373     400.4319     72.32951      1.441     4.12      4.66239     20.41155     53.66455        11     1.014     0.970 -81.74   0
       382    286.1172   1015.7562 299.9301611 +22.7461634       748.64     72.31108      1.742     4.79     72.67767     20.41155     69.06083        14     1.261     0.892  40.24  16
       383    795.0370     20.0632 300.4119329 +22.6127483     499.7951     72.34795      1.159     1.90     4.965436     20.41155     103.7828         9     0.747     0.688 -23.35   0
       384     19.7019     19.4011 300.1709061 +22.3803596     292.4935     72.25574      1.219     3.93     5.509701     20.41155     40.67829         5     0.982     0.451 -12.73   0
       385    650.0656     16.4841 300.3679240 +22.5683301     250.3401     72.45843      1.139     3.59     4.679327     20.41155     50.72142         6     0.947     0.637 -57.11   0
       386    552.8571     16.5509 300.3376309 +22.5392486     465.9431     72.40321      2.089     4.10     3.588844     20.41155     36.59601         6     1.030     0.466 -54.82   0
       387    255.4141   1002.1730 299.9250355 +22.7330526     4129.709     72.36637      8.538    23.15     61.80191     20.41155     91.67403       247     5.351     4.109  18.00  19
       388    203.8384   1022.1655 299.9024982 +22.7233000     1501.484     64.22605      4.707    11.16     73.90876     20.41155     60.27706        28     2.496     1.390  11.20  27
       389    602.9133   1007.0538 300.0315596 +22.8387326     2381.753     72.38479      1.867     4.03     2.351122     20.41155     175.7919        33     1.424     1.337 -50.81   0
       390    411.0267   1013.5443 299.9697282 +22.7830198     717.1823     72.34795      2.744     7.23     1.952122     20.41155     45.69222        14     1.398     1.047  -9.29   0
       391    201.3819    970.6522 299.9184956 +22.7077960     1801.098     72.32951      6.785    12.12     41.76945     20.41155     59.87811        37     2.547     1.607 -22.51   3
       392     10.9831    975.1055 299.8578948 +22.6519033     506.2388     72.27419      1.540     2.49     0.800937     20.41155     59.20894         5     0.774     0.484  54.30   0
