#   1 NUMBER                 Running object number                                     
#   2 X_IMAGE                Object position along x                                    [pixel]
#   3 Y_IMAGE                Object position along y                                    [pixel]
#   4 ALPHA_J2000            Right ascension of barycenter (J2000)                      [deg]
#   5 DELTA_J2000            Declination of barycenter (J2000)                          [deg]
#   6 FLUX_APER              Flux vector within fixed circular aperture(s)              [count]
#   7 FLUXERR_APER           RMS error vector for aperture flux(es)                     [count]
#   8 FLUX_RADIUS            Fraction-of-light radii                                    [pixel]
#   9 FWHM_IMAGE             FWHM assuming a gaussian core                              [pixel]
#  10 BACKGROUND             Background at centroid position                            [count]
#  11 THRESHOLD              Detection threshold above background                       [count]
#  12 FLUX_MAX               Peak flux above background                                 [count]
#  13 ISOAREA_IMAGE          Isophotal area above Analysis threshold                    [pixel**2]
#  14 A_IMAGE                Profile RMS along major axis                               [pixel]
#  15 B_IMAGE                Profile RMS along minor axis                               [pixel]
#  16 THETA_IMAGE            Position angle (CCW/x)                                     [deg]
#  17 FLAGS                  Extraction flags                                          
         1    680.3676     21.7749 300.4216144 +22.5969557     349.8524     72.46643      1.022     3.80     5.357938     20.44498     49.42252         7     0.983     0.539  63.00   0
         2    516.8293     16.9783 300.3722385 +22.5466121      1908.41     72.46643      1.312     2.32     3.811325     20.44498     261.8031        22     1.102     0.949  68.55   0
         3    239.7225     14.5865 300.2867967 +22.4629212     770.4954     72.48489      1.486     3.04     4.929958     20.44498     76.77148        12     0.912     0.860  63.71   0
         4    474.2030     10.8919 300.3609423 +22.5320977     1413.561     72.37408      1.313     2.20     3.853388     20.44498     224.3571        16     0.991     0.860  85.60   0
         5    579.5771      7.6009 300.3948157 +22.5627053     1202.888     72.39256      1.247     2.41     4.305383     20.44498     163.9001        16     1.094     0.774  67.79   0
         6    174.5663      6.7714 300.2690729 +22.4411534     533.0687     72.48489      1.345     2.92     4.948094     20.44498     60.68887         7     0.844     0.582 -14.73   0
         7    223.3671      4.1393 300.2850978 +22.4550198     367.7565     69.45038      1.245     3.46     4.930767     20.44498     58.47248        10     0.949     0.788  64.85  16
         8    919.6085      3.5547 300.5020931 +22.6633154     244.5287     67.31834      1.230     4.68      4.73183     20.44498     32.21014         7     0.913     0.682  15.55  16
         9    399.8646      1.7974 300.3407553 +22.5072199     1796.221     58.99503      1.150     2.26     4.859088     20.44498     324.4741        14     0.898     0.788   0.96  24
        10    123.5837   1005.0984 299.9289504 +22.7122650     744.1443     72.37408      4.995     5.84     27.57417     20.44498     47.44645         7     1.127     0.852  43.16   0
        11    184.0130   1017.5342 299.9436817 +22.7339752     3584.967     72.41104      9.392    36.00     15.79146     20.44498     118.7074       392     7.603     4.732  17.81  24
        12    147.1073   1022.6765 299.9305384 +22.7243662     916.3607     61.87234      4.703     6.63     25.53293     20.44498      39.6654         9     1.369     0.900 -13.02  27
        13    156.9297   1021.8943 299.9338453 +22.7270917     1131.763      65.5465      6.626     9.72     22.41362     20.44498     36.63173        22     1.909     1.380 -83.92  27
        14    152.3424   1019.0326 299.9333513 +22.7248942     1070.118     72.48489      5.565     7.83      23.3184     20.44498     35.85919        13     1.467     1.169 -68.92  27
        15     98.9648   1014.9824 299.9180840 +22.7077035     2306.396     72.46643     10.023    18.01      37.0191     20.44498     56.35221        67     3.289     2.741  63.62  19
        16     84.5658   1014.4856 299.9137722 +22.7032366     1568.022     72.42951     10.027    16.89     43.33918     20.44498     48.97495        52     3.831     2.070  38.49  19
        17     35.8721    991.1316 299.9062476 +22.6819207     1163.268     72.54023      7.687    10.60     51.80142     20.44498     45.25346        17     2.381     1.316  -9.54   3
        18     51.4466   1018.8242 299.9020717 +22.6945323     1623.018     72.48489     11.232    17.36     63.78354     20.44498     47.93188        54     3.160     2.650  75.88  27
        19     28.7248    995.4728 299.9026148 +22.6810177      1569.75     72.54023      4.051    14.43     57.41195     20.44498     53.19184        49     3.492     1.658  -8.27   3
        20     33.4557    992.8886 299.9049252 +22.6816983     1003.654     72.50334      7.107     9.71     54.37368     20.44498     58.66003        18     3.111     0.846  45.46   3
        21     34.4249   1003.0156 299.9019302 +22.6848907     2176.673     72.48489      5.543    15.06     61.29385     20.44498     60.67258        65     2.620     2.407  84.46   3
        22     42.3344   1019.5217 299.8990142 +22.6919951     2376.485     72.55866      7.017    14.50     69.32861     20.44498     62.22748        57     2.621     2.230  52.24  19
        23     36.6682   1013.6661 299.8991603 +22.6886157     2937.724     72.52179      6.020    20.49     67.79457     20.44498     66.67811       137     4.005     3.550 -48.78  19
        24     52.3075   1000.9337 299.9081623 +22.6896654     859.6252     72.61395      5.481     6.28     52.11632     20.44498     31.89461         8     1.917     0.579 -80.50   3
        25    117.7130   1003.7205 299.9275748 +22.7101071     820.6765     72.63237      5.009     5.94      28.7614     20.44498     37.10284         9     1.243     0.798  35.39   1
        26     59.0805   1002.4129 299.9097848 +22.6921234     924.2393     72.44798      5.671     6.37     49.68968     20.44498     35.98358        12     1.221     0.934  -3.31   3
        27     62.2472    998.2674 299.9121177 +22.6918868     860.4236     72.44798      5.233     6.90     46.16057     20.44498     49.51471         9     1.522     0.977  75.12   3
        28     66.0456    997.1995 299.9136453 +22.6927217     1261.888     72.46643      6.333    10.19     43.98883     20.44498     41.29983        25     2.257     1.282 -88.41   3
        29    408.1991   1000.0435 300.0190879 +22.7962645     1103.188     72.46643      1.737     3.71     2.859112     20.44498     100.0657        20     1.216     1.055  54.89   0
        30    338.9262    998.2144 299.9981348 +22.7749473     6561.961     72.46643      1.664     3.26      3.41247     20.44498     592.4486        46     1.402     1.325 -13.50   0
        31     46.6062    985.8789 299.9112913 +22.6836398     924.4208     72.39256      3.844     7.02     44.52215     20.44498     52.57558        21     1.841     1.050 -46.16   0
        32    371.7424    985.1782 300.0125852 +22.7810601      472.295     72.46643      1.556     4.27     3.228305     20.44498     51.94272        11     1.116     0.781  -8.85   0
        33     26.6723    985.0594 299.9053665 +22.6774179      785.218     72.50334      8.327    10.23     50.46101     20.44498     42.45249        13     2.275     1.282 -53.17   3
        34     43.0881    976.2770 299.9133235 +22.6798321     872.1117     72.61395     10.565    11.11     39.12423     20.44498     42.28786        18     2.660     1.293 -53.01   3
        35     32.0531    969.0143 299.9122596 +22.6744371     2149.266     72.48489      6.506    28.23     36.93648     20.44498     59.12946       166     6.540     3.383 -47.80  18
        36     36.0236    979.8610 299.9099628 +22.6787372     1614.189     72.46643      7.847    10.61     43.90886     20.44498     71.33542        30     2.251     1.394 -35.68   3
        37    885.3779    976.9035 300.1752337 +22.9327730     2118.776     72.37408      1.683     3.61      3.82267     20.44498     150.1648        32     1.376     1.254  15.03   0
        38    535.2405    974.1690 300.0670455 +22.8269685     367.4305     72.50334      1.460     5.12     2.800777     20.44498     44.67965         8     0.964     0.768  11.23   0
        39    383.9882    973.2009 300.0202929 +22.7813016     236.3329     72.28162      1.306     3.89     3.188255     20.44498     34.04074         6     0.928     0.468 -34.50   0
        40    567.7563    971.3978 300.0780700 +22.8359296     286.7795     72.46643      1.529     4.76      2.91446     20.44498     34.42776         8     0.959     0.670 -16.60   0
        41    674.1644    965.8327 300.1130177 +22.8662543     756.6896     72.48489      1.867     5.60      3.58146     20.44498     55.56292        17     1.660     0.794  40.08   0
        42   1000.7734    964.5523 300.2152401 +22.9638220     447.6087     72.48489      1.602     5.78     3.965612     20.44498     37.70057        12     1.118     0.840  58.70   0
        43     32.3425    982.7717 299.9078722 +22.6784655     933.6836     72.46643      4.488     6.80     47.32931     20.44498      52.6565        13     2.820     0.460  35.36   3
        44    708.7946    959.9424 300.1257224 +22.8749514     1085.883     72.42951      1.521     3.73     3.631179     20.44498     105.3967        17     1.153     1.041  50.74   0
        45    593.8898    961.9785 300.0892725 +22.8410680     246.4538     72.39256      1.374     5.00     3.071028     20.44498     27.86865         6     1.197     0.590 -33.22   0
        46    486.1924    960.7374 300.0561505 +22.8083991      427.713     72.41104      1.777     4.60      2.96149     20.44498     40.58462         7     0.977     0.758  69.42   0
        47    731.1337    953.6206 300.1347395 +22.8798373     11655.36     72.44798      1.554     3.04     3.652692     20.44498       1029.3        51     1.341     1.249  55.00   0
        48    776.7661    953.2517 300.1490782 +22.8934166     472.4937     72.48489      1.391     4.02     3.643336     20.44498     62.14553        10     1.107     0.649  68.67   0
        49    921.8673    952.8520 300.1944396 +22.9368089     464.7067     72.48489      1.539     4.25     3.797802     20.44498      50.8278         7     0.966     0.634  -5.20   0
        50     43.0267    945.2957 299.9233866 +22.6709370     371.2068     72.41104      1.367     4.67     18.22907     20.44498     60.65969         9     1.315     0.665 -78.57   0
        51    436.4896    941.6016 300.0469112 +22.7879966     451.2271     72.39256      1.447     7.01     3.194155     20.44498     47.41214        13     1.465     0.940  32.55   0
        52    783.0303    941.2533 300.1549354 +22.8918517      401.997     72.48489      1.499     4.17     3.586548     20.44498     42.31038         7     0.787     0.630 -19.26   0
        53    739.7189    935.5795 300.1432859 +22.8772350     1414.215     72.42951      1.520     3.19      3.59093     20.44498     134.6046        20     1.180     1.052   0.57   0
        54    922.5079    934.8019 300.2005140 +22.9318191     425.7642     72.37408      1.505     5.47     3.791977     20.44498     36.30415        10     1.136     0.743   2.73   0
        55    429.8779    933.9680 300.0473381 +22.7838234     314.5825     72.44798      2.083     5.67     3.271955     20.44498      26.5351         7     1.292     0.702  14.97   0
        56    591.1095    932.4470 300.0980178 +22.8317621      584.985     72.44798      2.251     6.63     3.106537     20.44498     46.16857        12     1.419     0.917  24.59   0
        57    778.0485    929.1870 300.1573098 +22.8868947     777.6228     72.48489      1.459     3.78     3.535916     20.44498     70.00871        15     1.136     0.913 -67.81   0
        58    117.6203    928.5314 299.9520155 +22.6885329     487.2228     72.44798      2.339     4.32     7.756716     20.44498     41.00728         7     0.890     0.852 -57.04   0
        59    826.2388    920.3094 300.1752178 +22.8987967     598.5544     72.46643      1.444     3.77     3.570727     20.44498     66.03349        10     0.982     0.820 -48.70   0
        60    677.4139    919.3438 300.1291596 +22.8538901     691.6525     72.44798      1.487     3.75     3.429668     20.44498     82.05207        12     1.022     0.881 -67.74   0
        61    689.0381    916.4401 300.1337254 +22.8565432     566.9238     72.54023      1.384     3.98     3.447151     20.44498     57.44889        11     0.967     0.929 -46.76   0
        62    390.1546    915.8651 300.0408701 +22.7667114     4291.798     72.46643      1.509     2.82     3.455082     20.44498      445.226        33     1.216     1.173  27.10   0
        63    841.5322    912.8490 300.1824126 +22.9012406      263.483     72.46643      1.195     2.69     3.612954     20.44498     44.48824         5     0.726     0.456  68.92   0
        64    168.6457    905.2331 299.9754527 +22.6971754     427.0648     72.50334      1.636     3.94     5.390399     20.44498     42.75026         7     0.950     0.538 -36.96   0
        65     51.6707    904.7011 299.9392803 +22.6619006     549.3268     72.61395      2.070     5.62     6.405477     20.44498     36.61047         9     1.108     0.802 -76.62   0
        66    433.4012    903.8407 300.0582378 +22.7762404     321.8539     72.48489      1.234     4.02      3.42524     20.44498     45.19552         6     0.790     0.585  49.93   0
        67     31.8761    903.6642 299.9334691 +22.6556592     417.8648     72.54023      3.418     5.92     6.162182     20.44498     29.47913         7     1.171     0.841  85.86   0
        68    115.5513    901.4965 299.9601690 +22.6801636     912.6637     72.50334      1.874     4.32     6.245659     20.44498     67.32245        18     1.257     1.000  27.19   0
        69     92.2758    898.7698 299.9538244 +22.6723935     1728.231     72.46643      1.822     4.06     6.421183     20.44498     127.4688        24     1.304     1.140  43.89   0
        70     24.5581    900.2476 299.9323077 +22.6524826     630.0687     72.48489      2.402     3.40     5.931442     20.44498     39.65112         5     0.754     0.444 -68.62   1
        71    964.2125    887.4742 300.2289211 +22.9307318     2110.579     72.48489      1.658     3.41     4.079741     20.44498     158.1674        25     1.214     1.142 -77.54   0
        72    918.5355    885.9539 300.2151714 +22.9166040     2183.794     72.50334      1.543     3.20     3.976852     20.44498     185.9474        25     1.181     1.116  56.92   0
        73    623.9401    886.1953 300.1232913 +22.8283401     429.4679     72.42951      1.577     2.35     3.357925     20.44498     46.53814         5     0.749     0.485  58.44   0
        74    702.0345    880.0531 300.1496139 +22.8499988     637.7457     72.48489      1.453     2.90     3.403771     20.44498     68.46078        10     0.889     0.727  79.01   0
        75    124.9236    880.2310 299.9699998 +22.6768825     398.0271     72.46643      1.342     4.40     4.994541     20.44498     48.84377         9     0.871     0.799  81.71   0
        76    570.0655    873.9549 300.1104983 +22.8086684     4913.355     72.46643      1.431     2.81     3.366873     20.44498      539.826        33     1.176     1.157 -66.42   0
        77     60.5013    875.0018 299.9516856 +22.6560411     366.3623      72.3556      1.430     2.59     4.896534     20.44498     39.01871         6     0.759     0.498  85.27   0
        78    372.3074    870.9578 300.0499292 +22.7484773     647.6334     72.46643      1.489     3.56     3.899632     20.44498     69.24657        13     1.012     0.898 -48.03   0
        79    120.2967    867.9461 299.9725585 +22.6719722     1454.934     72.54023      1.639     3.01     4.381888     20.44498     162.5026        21     1.161     1.072  23.71   0
        80    590.6207    866.3966 300.1193574 +22.8126654     698.3151     72.42951      1.446     3.42     3.427433     20.44498     77.17288        14     0.986     0.906  18.78   0
        81    389.1816    866.0180 300.0567855 +22.7521241     349.3778     72.46643      1.478     3.82     3.818692     20.44498     30.37719         5     0.830     0.505  33.73   0
        82    139.3982    864.6114 299.9795790 +22.6767510     467.3132     72.28162      1.517     6.21     4.215714     20.44498     40.92088        13     1.089     0.995 -15.95   0
        83    746.1163    853.6653 300.1719331 +22.8556438     4292.632      72.5771      1.460     2.66     3.452543     20.44498     427.8875        34     1.206     1.152  18.77   0
        84   1001.1809    853.5577 300.2514873 +22.9320717     424.0172     72.48489      1.813     5.75     4.129238     20.44498     43.33479         8     1.236     0.770  40.65   0
        85    963.3396    853.7155 300.2396329 +22.9207762     1232.825      72.5771      1.593     3.44     4.133983     20.44498     92.44695        16     1.052     0.944  -2.25   0
        86    154.3927    847.9503 299.9896585 +22.6764764     671.4242     72.46643      1.983     2.96     4.209233     20.44498     63.10534         8     0.915     0.696   6.58   0
        87    463.4249    846.0393 300.0863856 +22.7686693     723.0911     72.50334      1.589     3.38     3.719756     20.44498     72.23971        12     1.010     0.838  10.20   0
        88    109.4922    844.4675 299.9768387 +22.6619987     966.9388     72.61395      1.630     3.22     4.214728     20.44498     98.43723        15     1.075     0.916  46.18   0
        89    259.1435    836.3488 300.0259939 +22.7045921      53092.7     72.52179      1.494     2.74     4.153025     20.44498     5296.853       101     1.425     1.352  39.94   0
        90    525.0093    839.1732 300.1077869 +22.7851741     541.6766     72.46643      1.320     3.73     3.699522     20.44498     74.40977         9     1.110     0.669 -30.63   0
        91    930.1083    834.5351 300.2355093 +22.9053085     855.9084      72.5771      1.542     3.72     4.151695     20.44498     83.18233        16     1.107     0.958  56.39   0
        92    517.0272    835.2446 300.1065802 +22.7816526       1619.1     72.48489      1.370     2.61      3.74833     20.44498     202.4007        20     1.066     0.948  65.14   0
        93    187.5182    834.6523 300.0042794 +22.6826077     490.4424     72.50334      1.496     3.81     4.204924     20.44498     51.83021        10     0.996     0.801  14.69   0
        94    233.4095    833.8463 300.0188071 +22.6961510     274.6396     72.48489      1.528     4.16     4.192259     20.44498     34.23325         6     1.025     0.482 -83.81   0
        95    546.1177    831.3697 300.1168963 +22.7892668     950.1187     72.48489      1.352     2.81     3.728563     20.44498     114.3407        15     1.009     0.850  51.32   0
        96    556.8298    829.5530 300.1208222 +22.7919586     520.5544     72.48489      1.324     3.86     3.737924     20.44498     73.62685         8     0.863     0.695  45.93   0
        97    876.5154    826.9390 300.2212700 +22.8870639      282.782     72.59553      1.258     2.96      4.01582     20.44498     43.95574         8     0.802     0.679  -6.19   0
        98    662.2531    825.8770 300.1548470 +22.8225210     548.0002     72.50334      1.366     3.22      3.45895     20.44498     59.85697        11     0.935     0.806 -36.60   0
        99    457.2939    823.3362 300.0918627 +22.7603172     359.7662      72.5771      1.783     3.31     3.784755     20.44498     41.54212         5     0.736     0.457  11.88   0
       100    700.0037    816.1447 300.1697720 +22.8310477     836.1362     72.42951      1.393     2.64     3.424435     20.44498     88.70456        11     0.910     0.711  84.68   0
       101    308.8537    813.5861 300.0488554 +22.7129828     31115.86     72.46643      1.466     2.64     4.109656     20.44498     3499.358        73     1.337     1.286  60.27   0
       102    323.1621    814.1774 300.0531130 +22.7174460     1911.185     72.48489      1.419     2.72     4.106318     20.44498     218.7115        21     1.103     1.011  41.92   0
       103    199.1806    812.3246 300.0151666 +22.6797068     210.0754     72.46643      1.129     4.28     4.202732     20.44498     34.95506         6     0.774     0.675 -86.87   0
       104    831.9632    809.2661 300.2131302 +22.8686349      2726.72     72.46643      1.364     2.55     3.808252     20.44498     337.3081        27     1.142     1.024  79.34   0
       105    320.0155    808.0068 300.0541414 +22.7147321     635.6641     72.39256      1.528     3.54     4.107959     20.44498     63.86744        10     0.888     0.772  78.45   0
       106    861.3343    807.9414 300.2227169 +22.8770586     356.9834     72.50334      1.277     2.48     4.056745     20.44498     40.63414         7     0.701     0.663 -83.41   0
       107    589.7945    805.4670 300.1389203 +22.7949341     853.4137     72.44798      1.330     2.65     3.956704     20.44498     106.1688        13     0.914     0.846 -27.37   0
       108    426.5442    805.9003 300.0879654 +22.7460905     481.0045     72.55866      1.273     2.22     3.670826     20.44498     55.41095         6     0.745     0.498  87.84   0
       109    191.2402    805.3037 300.0149819 +22.6753105     754.4169     72.44798      1.575     3.10      4.20148     20.44498     103.8768        16     1.075     0.979 -66.92   0
       110    436.9860    800.2047 300.0930670 +22.7475892     830.8685     72.33711      1.323     2.45     3.742521     20.44498     119.9156         9     0.770     0.720  20.41   0
       111    838.0154    796.8596 300.2190522 +22.8668870     502.1442     72.42951      1.346     2.92     3.899867     20.44498     71.34852        10     0.894     0.718  73.81   0
       112    338.9484    796.2877 300.0638413 +22.7170520     443.4445     72.50334      1.452     3.18     4.106158     20.44498     44.12812         7     0.843     0.582  29.94   0
       113    294.9825    795.7748 300.0503346 +22.7037123     285.9132     72.48489      1.251     2.83     4.110277     20.44498     48.84761         7     0.720     0.661  73.93   0
       114    383.0792    795.2919 300.0778927 +22.7300073      507.291     72.59553      1.600     2.87     3.896509     20.44498      53.7657         7     0.840     0.562 -28.29   0
       115     24.8182    794.5394 299.9667725 +22.6222664     456.8468     72.42951      1.446     3.94     4.202673     20.44498     62.17568         8     1.084     0.680  25.69   0
       116    591.1785    794.1797 300.1430225 +22.7921100      325.871     72.46643      1.362     3.64     4.002754     20.44498     44.72564         6     0.820     0.634  14.08   0
       117    815.8884    791.8205 300.2137942 +22.8588075     516.7083     72.39256      1.766     3.93     3.742562     20.44498     43.42521        10     0.919     0.849 -78.69   0
       118    189.0480    789.6462 300.0193926 +22.6701632     481.7024     72.48489      1.432     3.24     4.186656     20.44498     59.95447         9     1.039     0.693  56.77   0
       119    512.0895    779.8419 300.1230632 +22.7642755     435.8474     72.46643      1.270     3.40     4.039546     20.44498     56.90509        10     0.918     0.746  83.64   0
       120    482.0435    778.3939 300.1141822 +22.7548479     589.8664     72.48489      1.351     2.87     4.043462     20.44498     78.43817        12     0.906     0.865 -67.75   0
       121    503.7669    775.7327 300.1218090 +22.7606002     1243.877     72.46643      1.320     2.79     4.045776     20.44498      175.144        16     1.042     0.861  43.27   0
       122    391.6855    777.4132 300.0863846 +22.7274608     371.9026     72.41104      1.463     3.67     3.925181     20.44498     50.17521         7     0.962     0.463  11.46   0
       123    898.3990    774.6153 300.2451121 +22.8785979     4478.934     72.31862      1.405     2.43     4.149343     20.44498     555.2144        30     1.132     1.082  32.51   0
       124    423.7326    775.1672 300.0970857 +22.7364306     299.9646     72.46643      1.099     2.23      3.83728     20.44498     54.50237         7     0.802     0.550  59.83   0
       125    585.3258    770.4332 300.1489231 +22.7835401     309.5874     72.44798      1.484     4.08     4.043413     20.44498     48.56306         9     1.089     0.688 -55.40   0
       126    886.8423    766.1069 300.2442760 +22.8726909     1598.765     72.48489      1.381     2.63     4.141849     20.44498     200.8546        21     1.117     0.981  76.28   0
       127    249.8523    759.9070 300.0479658 +22.6798833      944.783     72.52179      1.438     3.10      4.11318     20.44498      122.337        17     1.266     0.868 -41.40   0
       128    713.3790    757.3330 300.1930667 +22.8181760     2626.934     72.44798      1.406     2.58     3.786195     20.44498     325.5041        30     1.458     0.982  10.68   0
       129    917.8856    756.2421 300.2571636 +22.8791611     1675.708     72.42951      1.421     2.82     4.155206     20.44498     175.5397        21     1.103     1.009 -18.16   0
       130     98.3558    743.8151 300.0061114 +22.6298017      621.408     72.48489      1.458     3.31     4.197566     20.44498      67.2157        13     1.029     0.870  31.56   0
       131    795.4420    743.0784 300.2232734 +22.8386835     562.0027     72.44798      1.408     2.74     4.002058     20.44498     72.23842        10     0.889     0.732   7.27   0
       132    831.6133    734.2505 300.2374181 +22.8469901     145932.2     72.52179      1.348     2.38     4.087312     20.44498     16954.08       159     1.388     1.340  57.49   0
       133    593.9169    738.3346 300.1620362 +22.7769040     302.8372      72.5771      1.043     2.76     4.093923     20.44498     68.98894         6     0.893     0.495 -65.82   0
       134    978.6633    735.9525 300.2827164 +22.8915453     1352.615     72.48489      1.394     2.95     4.019763     20.44498     141.2834        18     1.060     0.986  16.26   0
       135    684.0219    734.9332 300.1912052 +22.8029442     902.1754     72.46643      1.695     3.15     3.946309     20.44498     80.19635        14     0.977     0.937  37.77   0
       136    436.9016    735.2151 300.1141750 +22.7289186     115.4497     72.37408      1.316     4.49     4.104546     20.44498     34.12252         6     1.164     0.491  51.44   0
       137    870.4983    733.0001 300.2499466 +22.8582849     928.0128     72.33711      0.577    -1.35     4.121363     20.44498     516.7919         5     0.560     0.243   0.01   0
       138    864.0690    727.0955 300.2498622 +22.8546624     520.0278     72.59553      1.427     3.56     4.100332     20.44498     69.33626        10     1.055     0.763 -31.92   0
       139    517.9089    723.0638 300.1433376 +22.7497281     1542.472      72.5771      1.262     2.29     4.180849     20.44498     263.2505        16     1.044     0.776  72.65   0
       140    699.0897    720.4312 300.2006145 +22.8032982     9353.976     72.41104      1.285     2.27     3.961785     20.44498     1230.327        38     1.129     1.055  49.88   0
       141    200.5373    715.6260 300.0470322 +22.6523857     4905.683     72.46643      1.414     2.51     4.094022     20.44498        650.2        35     1.214     1.137  41.07   0
       142    282.6399    713.8550 300.0731341 +22.6765133     1162.142     72.46643      1.339     2.55       3.9657     20.44498     159.8135        17     0.977     0.954  24.19   0
       143    158.1136    711.3571 300.0352339 +22.6384304     583.3048     72.44798      1.493     3.45     4.106979     20.44498      66.6871        10     1.076     0.704  28.44   0
       144    490.9373    709.0777 300.1394896 +22.7376257     767.0371     72.54023      1.241     2.29     4.280174     20.44498     111.8942         9     0.760     0.710 -24.15   0
       145    482.5331    701.3412 300.1393891 +22.7328851     3271.319     72.50334      1.231     2.25     4.338117     20.44498     443.9608        22     1.025     0.899  57.75   0
       146    472.6852    695.1278 300.1383441 +22.7281485     1354.459      72.5771      1.248     2.65     4.336712     20.44498     218.6785        14     0.980     0.797  49.28   0
       147    401.5251    694.4153 300.1164326 +22.7066011     301.2434     72.46643      1.685     3.98     3.996116     20.44498     35.79253         5     0.940     0.519  45.63   0
       148    866.1769    692.7922 300.2616728 +22.8454421     401.6002     72.46643      1.214     2.05     4.005076     20.44498     60.29889         6     0.662     0.571 -40.06   0
       149    383.3861    692.5236 300.1114042 +22.7006175      407.868     72.48489      1.222     3.45     3.937731     20.44498     47.73393         5     0.748     0.459 -19.54   0
       150    136.1747    691.3799 300.0349100 +22.6261178     730.3444     72.46643      1.365     2.82     4.127031     20.44498     79.30554        13     0.934     0.850  -4.77   0
       151    150.4175    689.7598 300.0398630 +22.6299275     608.1055     72.48489      1.398     3.87     4.106341     20.44498     96.70988        14     1.130     0.901  23.08   0
       152    919.8119    686.2598 300.2805198 +22.8596374     569.2916     72.44798      1.285     3.33     4.129429     20.44498     60.84258        11     0.988     0.777   6.71   0
       153    206.7614    686.3874 300.0584721 +22.6458679     409.6664     72.46643      1.593     5.43     4.054998     20.44498     40.99228         8     1.171     0.710  37.76   0
       154    176.1607    686.7063 300.0488566 +22.6367770     678.0234     72.48489      1.427     3.37     4.078109     20.44498     70.77483         9     0.927     0.667  54.80   0
       155    496.6684    685.3324 300.1489931 +22.7325300     588.9276     72.52179      1.346     2.93      4.42151     20.44498     65.65575        11     0.930     0.765  80.98   0
       156    397.5491    684.8252 300.1183131 +22.7026569     1822.192     72.48489      1.269     2.27     3.956093     20.44498     256.2116        17     0.995     0.825  48.99   0
       157    973.2794    681.9933 300.2985818 +22.8744312     786.8641     72.39256      1.321     2.51     4.252533     20.44498     102.2006        12     0.906     0.781 -28.68   0
       158     51.5153    679.8707 300.0123471 +22.5974092     19639.52      72.5771      1.558     2.85     4.349965     20.44498     2361.554        62     1.369     1.291  28.13   0
       159    482.6617    680.1746 300.1463102 +22.7268493     989.6179     72.46643      1.228     2.01     4.473449     20.44498     160.8559        13     0.847     0.784  58.59   0
       160    517.7634    679.5584 300.1574363 +22.7371989     420.0551     72.54023      1.199     2.78     4.419707     20.44498     53.94189         8     0.800     0.725 -43.53   0
       161    235.8462    671.6261 300.0723123 +22.6503610     136.6846     72.48489      1.064     2.75      3.98954     20.44498     47.50236         5     0.838     0.510 -53.05   0
       162    900.4446    666.0564 300.2810488 +22.8480309     1053.439     72.48489      1.287     2.68      4.04786     20.44498     144.2401        15     1.027     0.802  50.70   0
       163    767.1791    664.0976 300.2401444 +22.8075328     418.0333     72.39256      1.283     2.86     3.945005     20.44498     64.86226        10     0.860     0.777  -9.92   0
       164     63.8400    664.0617 300.0213144 +22.5965755     334.9618     72.46643      1.303     5.16     4.314388     20.44498     44.30552         9     1.089     0.692  -7.67   0
       165    445.6936    660.7244 300.1411278 +22.7101809     360.7203     72.61395      1.201     1.99     4.355088     20.44498     74.06867         6     0.652     0.606 -33.45   0
       166    840.7063    658.9780 300.2647253 +22.8280975     1003.393     72.39256      2.066     2.75     3.945214     20.44498     103.1829        12     0.933     0.817  34.72   0
       167    238.6257    659.9945 300.0769573 +22.6478585     350.4893     72.44798      1.120     3.91     3.980523     20.44498     48.10423         5     1.035     0.424 -27.21   0
       168    402.7268    653.0661 300.1302476 +22.6950970     744.7055     72.50334      1.353     3.34      4.15561     20.44498     93.66203        11     1.065     0.695  45.32   0
       169    550.4304    651.6780 300.1766687 +22.7389918     533.9891     72.44798      1.256     2.74     4.512673     20.44498     93.53036         7     0.844     0.647 -80.26   0
       170    597.6495    649.9906 300.1919196 +22.7526646     378.4856     72.48489      1.092     1.67     4.348147     20.44498     86.28753         7     0.645     0.616  69.49   0
       171    568.0768    649.6738 300.1828143 +22.7437074     576.3113     72.55866      1.171     3.06     4.457993     20.44498     79.71958        10     0.936     0.720  40.56   0
       172    446.9004    648.8136 300.1453749 +22.7071247     947.0168     72.37408      1.389     2.79     4.474148     20.44498     126.2846        15     1.014     0.877  40.95   0
       173    880.6100    644.2394 300.2819565 +22.8358209     3247.118     72.46643      1.294     2.34     3.976022     20.44498     378.3024        23     1.058     0.959  55.05   0
       174    412.3867    644.3851 300.1360748 +22.6955031     1626.247     72.39256      1.186     2.35     4.340259     20.44498     209.2783        14     0.912     0.788  48.58   0
       175    978.6357    642.5150 300.3130862 +22.8646937      640.888     72.44798      1.214     2.36      4.15133     20.44498     79.27826         9     0.858     0.639  39.18   0
       176    777.5803    641.7789 300.2506406 +22.8042405     306.6893     72.46643      1.069     2.97     3.949245     20.44498      49.1559         5     0.710     0.479  76.81   0
       177    387.8790    639.4904 300.1300406 +22.6867482     188.1598     72.61395      1.165     2.84     4.145048     20.44498     37.34005         6     0.766     0.500  -1.52   0
       178    920.4000    634.1792 300.2976334 +22.8448525      203.387     72.37408      1.049     2.17     4.027424     20.44498     47.95234         5     0.698     0.448  68.23   0
       179    275.7272    631.1240 300.0978767 +22.6507073     8956.914     72.54023      1.310     2.29     3.869309     20.44498     1324.649        34     1.142     1.019  50.58   0
       180    398.1288    628.0702 300.1369412 +22.6865452     8832.436     72.54023      1.291     2.21     4.360039     20.44498     1304.446        37     1.127     1.010  71.43   0
       181    163.4965    624.9562 300.0649908 +22.6152669     208.4539     72.48489      1.378     3.73     4.074228     20.44498     30.90154         6     1.185     0.337  39.84   0
       182   1002.8680    623.1728 300.3269321 +22.8663949     982.2834     72.44798      1.397     2.84     4.065868     20.44498     111.6386        17     1.055     0.944 -27.18   0
       183    644.6155    624.2398 300.2149159 +22.7593512     205.0255     72.48489      1.025     2.66     4.209734     20.44498     48.59005         5     0.725     0.443 -69.41   0
       184     42.2348    624.1430 300.0275763 +22.5786451     247.7524     72.48489      1.206     3.27     4.406062     20.44498     37.99757         6     0.746     0.578  40.20   0
       185    809.7961    621.9639 300.2671217 +22.8082036     1840.092     72.48489      1.254     2.13     3.951927     20.44498       277.11        18     0.945     0.889 -85.55   0
       186    894.5190    619.2902 300.2944026 +22.8328212     12426.77      72.5771      1.276     2.29     3.969561     20.44498     1476.121        46     1.183     1.109  70.71   0
       187    458.7359    617.6664 300.1591814 +22.7017349        11441     72.52179      1.254     2.07     4.778417     20.44498     1835.299        47     1.212     1.060  58.02   0
       188    628.2062    613.3137 300.2133563 +22.7512952     580.1483     72.39256      1.268     3.37     4.358397     20.44498     69.93813        13     1.136     0.723  60.15   0
       189    186.1604    613.3313 300.0758130 +22.6187326     1339.388     72.42951      1.360     2.85     4.054391     20.44498     145.8926        15     0.989     0.859 -10.35   0
       190    344.1919    611.9322 300.1254067 +22.6657375     279.2676     72.46643      1.162     2.76     3.825135     20.44498     48.42856         6     0.742     0.555 -46.51   0
       191    432.8752    610.5855 300.1534349 +22.6919477     283.6602     72.48489      1.067     2.81     4.827007     20.44498     60.40382         7     0.891     0.527  55.39   0
       192    390.4175    605.8503 300.1417632 +22.6778561     4526.178     72.46643      1.295     2.17     4.409352     20.44498     645.4507        32     1.148     1.007  60.34   0
       193    733.3591    605.6794 300.2485938 +22.7806203      784.484     72.44798      1.152     2.11     3.972304     20.44498     126.8762        13     1.014     0.743 -46.08   0
       194    368.6844    604.3023 300.1355051 +22.6708940     1249.941     72.63237      1.227     2.13     4.094425     20.44498     185.9662        16     0.933     0.870  63.82   0
       195    122.7245    603.7150 300.0592224 +22.5969409     579.7643      72.5771      1.430     3.24     4.110306     20.44498      95.3006        12     0.965     0.831  17.37   0
       196    810.3619    601.3287 300.2740046 +22.8024461     1670.905     72.42951      1.444     2.71     4.001136     20.44498     184.0333        20     1.099     0.987 -86.82   0
       197    769.4016    603.1664 300.2606416 +22.7906999      249.013     72.42951      1.104     3.49     3.986177     20.44498     29.18921         5     0.801     0.439  70.98   0
       198    507.0501    593.4045 300.1821034 +22.7092578     198487.4     72.44798      1.250     2.11     4.807373     20.44498     28941.15       195     1.383     1.347  42.03   0
       199     57.0883    601.8359 300.0394395 +22.5767061     422.3829     72.44798      1.629     4.88     4.336839     20.44498     39.58754         7     0.842     0.802 -48.45   0
       200    330.5863    599.5098 300.1252117 +22.6580923       378.25     72.41104      1.095     3.53     3.876977     20.44498     52.78194         7     0.893     0.676  41.05   0
       201    690.6851    598.1600 300.2377421 +22.7656713      775.189     72.44798      1.178     2.23     4.040247     20.44498     129.2482        10     0.838     0.693   4.79   0
       202    784.2630    596.4019 300.2674715 +22.7932104     279.8352     72.44798      1.277     3.72     4.026494     20.44498     48.70767         5     0.859     0.465  47.56   0
       203    193.2139    593.5114 300.0844461 +22.6151634     3182.283     72.41104      1.236     2.43     4.055974     20.44498     376.0772        29     1.202     1.040  56.01   0
       204    895.2684    594.4625 300.3027054 +22.8259130     274.0638     72.52179      1.367     3.87     4.064391     20.44498     41.13132         5     0.965     0.762  -8.73   0
       205    371.7582    590.7797 300.1408557 +22.6679353      312.294     72.50334      1.801     5.03     4.153277     20.44498     35.66245         6     1.566     0.457 -55.20   0
       206    759.0800    589.2744 300.2619398 +22.7836168     479.3126      72.5771      1.146     2.58     4.052747     20.44498     81.56296         9     0.916     0.625  87.48   0
       207    778.0109    587.7502 300.2683346 +22.7888519     283.7809     72.48489      1.420     3.05     4.067114     20.44498     45.10299         6     0.885     0.454  41.45   0
       208    538.4033    580.2181 300.1961485 +22.7148724     213.3315     72.37408      1.013     2.26     4.778252     20.44498     54.38398         6     0.690     0.598 -20.28   0
       209    397.6466    573.7242 300.1544518 +22.6708043      2719.81     72.46643      1.341     2.17      4.36024     20.44498     365.9453        23     1.374     0.914 -79.68   2
       210    242.0389    576.2925 300.1052199 +22.6248708     348.6757     72.46643      1.238     2.86     4.027652     20.44498      69.3971         8     0.861     0.642  53.90   0
       211    554.1678    571.3239 300.2039466 +22.7170449     264.4903     72.46643      0.918     2.58     4.745336     20.44498     42.12574         5     0.746     0.424  18.81   0
       212    809.1771    570.2120 300.2837472 +22.7931528     398.0932     72.46643      1.265     2.71     4.183545     20.44498     63.26909         9     0.921     0.628  33.42   0
       213    501.8879    569.2042 300.1883603 +22.7007631     307.4989     72.39256      1.456     5.31     4.792767     20.44498     39.44598         8     1.277     0.624 -36.30   0
       214    715.0319    562.3069 300.2569779 +22.7626714     454.3101     72.39256      1.257     1.68     4.164918     20.44498     85.44603         5     0.678     0.413  22.36   0
       215    794.5646    559.7936 300.2825782 +22.7857817     1711.331     72.48489      1.193     2.10     4.235649     20.44498     288.7728        17     0.991     0.845  -4.53   0
       216    681.2469    560.0255 300.2471939 +22.7518913     288.6277     72.48489      1.282     2.13     4.180652     20.44498     66.06712         7     0.776     0.582 -65.57   0
       217     25.4698    558.7906 300.0436035 +22.5548736      177.546     72.44798      1.228     3.43      4.56332     20.44498     32.84909         5     0.778     0.436 -67.89   0
       218    665.8629    557.4294 300.2432452 +22.7465351      2516.09     72.48489      1.149     2.03     4.236044     20.44498     395.8006        19     0.944     0.867  76.97   0
       219    910.3743    554.5421 300.3203881 +22.8189685     517.8239     72.46643      1.281     3.05     4.384042     20.44498      78.0882        10     0.944     0.828 -59.27   3
       220    909.0634    550.4291 300.3213158 +22.8173940     842.1645     72.48489      1.560     3.05     4.420423     20.44498     104.7085        14     1.072     0.816  49.12   3
       221    570.6389    554.1630 300.2146509 +22.7170554     317.7824     72.54023      1.070     2.48     4.700747     20.44498     67.63095         6     0.713     0.597  37.60   0
       222    453.0380    553.4293 300.1782819 +22.6815885     683.3653     72.50334      1.100     2.34     4.565728     20.44498     110.4297        11     0.844     0.790 -48.84   0
       223    923.2081    551.4536 300.3253937 +22.8219254     1261.971     72.46643      1.198     2.12     4.450274     20.44498     181.6341        16     0.945     0.846  87.13   0
       224    794.8815    549.7881 300.2859280 +22.7830025     2181.731     72.44798      1.414     3.01     4.292801     20.44498     314.1403        23     1.419     0.841  68.70   0
       225    548.2785    547.9774 300.2096988 +22.7085766     786.5549     72.42951      1.500     2.30     4.765681     20.44498     96.93912        10     0.819     0.735 -20.68   0
       226    387.0360    546.8013 300.1598981 +22.6598955       403.58     72.44798      1.274     2.65      4.21089     20.44498     78.64979         7     0.830     0.644 -15.57   0
       227    833.0476    544.9802 300.2993864 +22.7930562     4275.312     72.50334      1.245     2.01     4.330529     20.44498     745.7398        24     1.005     0.914  59.98   0
       228    334.1860    547.6970 300.1431666 +22.6443038     240.1665      72.3556      0.999     2.91     4.152648     20.44498     49.85672         6     0.717     0.645  83.94   0
       229    493.7197    540.9170 300.1950086 +22.6901936     251.5319     72.61395      1.108     3.32      4.77397     20.44498      42.3374         6     0.883     0.469  51.15   0
       230    924.9303    535.2763 300.3311870 +22.8177927     775.3986     72.55866      1.303     2.35     4.511249     20.44498     104.5266        10     0.831     0.721  83.18   0
       231     65.1110    535.6224 300.0634447 +22.5601241     1038.408     72.39256      1.337     3.11     4.340624     20.44498     114.2293        14     1.063     0.828  31.77   0
       232    889.8761    532.7635 300.3210727 +22.8065705     179.3832     72.42951      1.037     4.35     4.429019     20.44498     37.91933         6     1.194     0.451 -61.54   0
       233     33.4341    530.7732 300.0551793 +22.5492284     1937.655     72.48489      0.698     1.00     4.466058     20.44498     1071.217         7     0.626     0.353 -31.41   0
       234    725.8643    528.8907 300.2712102 +22.7563197     343.7935     72.55866      1.114     2.00     4.231574     20.44498     64.76978         6     0.690     0.550  34.30   0
       235     57.8983    525.5587 300.0644731 +22.5550735     467.1164     72.44798      1.346     3.88     4.368062     20.44498     54.52816         9     1.036     0.658   3.80   0
       236    921.1149    524.5884 300.3334697 +22.8135787     206.9992     72.41104      1.066     3.52     4.508279     20.44498      55.5358         5     0.768     0.466 -14.90   0
       237    665.4897    519.4667 300.2554630 +22.7355208     358.2495     72.59553      1.098     2.72     4.277065     20.44498     67.82463         8     0.834     0.719 -29.28   0
       238    273.8355    517.6332 300.1341642 +22.6175769     258.5483     72.50334      1.178     3.45     4.295179     20.44498     32.46608         5     0.769     0.447  16.70   0
       239    606.5333    515.3671 300.2384324 +22.7166743     763.4446     72.46643      1.184     2.54     4.687616     20.44498       108.79        14     1.057     0.756  70.46   0
       240    394.7491    514.1006 300.1729214 +22.6528224     210.6567     72.55866      1.210     3.66     4.332107     20.44498     39.19716         5     0.826     0.467 -36.75   0
       241   1014.0406    513.1345 300.3661751 +22.8381177     859.6299      72.4295      1.214     2.41     4.514465     20.44498     142.9809        10     0.857     0.721  27.80   0
       242    921.2070    507.7339 300.3389741 +22.8087628     553.5576     72.46643      1.229     2.48     4.520025     20.44498     108.1559        11     0.928     0.726  29.36   0
       243    667.2852    507.5445 300.2598954 +22.7326347      900.829     72.54023      1.196     2.10      4.26078     20.44498     148.2273        14     0.918     0.833 -70.22   0
       244    824.4670    503.8326 300.3100801 +22.7786638     1046.523     72.46643      1.218     2.06     4.486155     20.44498     156.9725        14     0.914     0.831  88.09   0
       245    808.7729    500.2870 300.3063399 +22.7729435     663.6932     72.46643      1.321     2.20     4.510284     20.44498     104.5767         9     0.827     0.642  72.77   0
       246    782.7256    501.4471 300.2978448 +22.7654733      257.799     72.46643      1.044     3.91     4.432752     20.44498     44.27141         6     0.865     0.507  38.64   0
       247    789.2789    500.3891 300.3002309 +22.7671326     291.4857     72.44798      1.097     2.64     4.462152     20.44498     44.79768         5     0.684     0.484   7.15   0
       248    553.0388    498.3242 300.2273117 +22.6957466     3246.481     72.42951      1.204     2.02      4.78014     20.44498     552.2023        22     1.013     0.866  72.50   0
       249    913.5129    496.9095 300.3400912 +22.8033477     529.4236     72.63237      1.207     2.41     4.522503     20.44498     80.28584         8     0.808     0.645  24.25   0
       250     29.1627    489.5926 300.0672288 +22.5361358     279.0214     72.48489      1.367     4.56     4.252676     20.44498      41.8938         7     0.963     0.631  46.31   0
       251    393.0383    485.2953 300.1817458 +22.6440410     381.0627     72.44798      1.144     2.44     4.454347     20.44498     57.89025         7     0.711     0.639 -30.97   0
       252    964.3790    477.2674 300.3623354 +22.8129367     1344.749     72.44798      1.224     2.43     4.529201     20.44498     181.0817        17     1.017     0.825  89.12   0
       253    922.7853    475.9395 300.3497946 +22.8000984     891.2218     72.42951      1.259     2.08     4.538681     20.44498     149.3941        14     0.920     0.866  79.45   0
       254    836.0458    476.8858 300.3224428 +22.7743899     421.4816     72.44798      1.276     2.40     4.563279     20.44498     85.15536        10     0.871     0.694  59.32   0
       255    572.7075    474.3769 300.2412143 +22.6947651     213.1454     72.39256      1.019     3.42     4.792123     20.44498     35.14548         5     0.732     0.461 -15.17   0
       256    663.6105    472.1677 300.2702422 +22.7213725     1121.729     72.46643      1.195     2.01     4.287777     20.44498      189.318        14     0.871     0.824  88.98   0
       257    459.4157    472.9932 300.2063965 +22.6604093     388.2662     72.39256      1.263     2.98     4.661047     20.44498      68.6247         9     0.908     0.726 -71.73   0
       258    167.7997    470.6997 300.1164430 +22.5723063     617.9269     72.30012      1.180     2.84      4.62175     20.44498     85.34507        11     0.968     0.739  -3.48   0
       259    230.0158    466.3418 300.1371990 +22.5897162     3677.867     72.44798      1.290     2.35     4.674566     20.44498     481.2119        27     1.056     1.038  47.36   0
       260    963.0395    464.4823 300.3660704 +22.8088609     4416.076     72.42951      1.294     2.16     4.535459     20.44498     702.4297        28     1.096     0.984  62.63   0
       261    177.1855    461.0013 300.1225101 +22.5723387     7387.847     72.31862      1.349     2.41     4.634946     20.44498     942.1859        38     1.219     1.049  49.01   0
       262    317.9731    455.2614 300.1681494 +22.6129127     4763.458     72.46643      1.215     2.12     4.637787     20.44498     738.1933        25     1.005     0.926  61.66   0
       263    943.0095    455.5919 300.3627109 +22.8003072     1692.195     72.33711      1.202     2.06     4.538871     20.44498     310.9562        14     0.912     0.783  58.17   0
       264    562.1152    451.8294 300.2452394 +22.6851154     18267.77     72.46643      1.230     1.98     4.818713     20.44498     3299.239        59     1.303     1.078  23.74   0
       265    579.4273    451.9713 300.2505837 +22.6903445     876.8754     72.42951      1.832     4.83     4.816004     20.44498     77.59499        15     1.537     0.845 -34.54   0
       266    409.7357    453.4158 300.1972952 +22.6398954     395.8041     72.44798      1.306     2.75     4.460324     20.44498     50.71039         5     0.721     0.444 -22.12   0
       267    405.5428    451.3491 300.1966617 +22.6380451     378.8128     72.52179      1.110     3.42     4.472676     20.44498     39.38747         5     0.726     0.465 -71.25   0
       268    188.9368    450.3903 300.1296089 +22.5728186     238.4735     72.41104      1.234     3.47     4.660801     20.44498     35.98399         5     0.788     0.441 -18.67   0
       269    805.5566    448.0413 300.3223078 +22.7569687     204.2464     72.55866      1.023     2.11     4.588725     20.44498     47.43167         6     0.749     0.496 -86.36   0
       270    759.0587    442.0781 300.3097529 +22.7413262     470.2521     72.50334      1.163     2.97     4.395715     20.44498       73.009         7     0.905     0.551  32.62   0
       271    182.1986    439.1746 300.1311565 +22.5675793     434.4894     72.41104      1.138     1.95     4.658559     20.44498     67.30365         6     0.708     0.527  48.53   0
       272    895.7654    434.2418 300.3549122 +22.7800224     772.7374     72.52179      1.293     2.39     4.538681     20.44498     105.6326        10     0.867     0.685 -62.33   0
       273    432.8016    433.8048 300.2108413 +22.6411798     511.2555     72.28162      1.545     2.09     4.551612     20.44498     63.44685         6     0.736     0.510  44.58   0
       274    116.8131    432.1310 300.1131220 +22.5459468     1962.576     72.48489      1.334     2.54     4.582845     20.44498     280.8125        19     1.046     0.905  42.11   0
       275    502.7658    421.2997 300.2366772 +22.6585604     6432.749     72.44798      1.185     2.08     4.851703     20.44498     1011.168        29     1.055     0.914  52.06   0
       276    916.3685    421.5591 300.3654556 +22.7825473      1162.43     72.52179      1.168     2.18     4.538681     20.44498     175.5707        13     0.898     0.749  44.68   0
       277    217.6878    420.5608 300.1482333 +22.5728811     709.8441     72.44798      1.407     2.90     4.770527     20.44498     98.50733        13     0.989     0.860   9.34   0
       278     75.1287    413.9827 300.1060624 +22.5282362     494.0611     72.48489      1.313     3.35     4.587265     20.44498     74.54193         9     0.977     0.736  80.95   0
       279    762.7742    412.8742 300.3203948 +22.7340483     321.5774     72.48489      1.197     2.79     4.465171     20.44498     60.58548         6     0.976     0.528  67.10   0
       280    707.0964    410.3434 300.3038676 +22.7166417     1163.971     72.55866      1.293     2.01     4.360376     20.44498       187.24        18     1.124     0.920  84.71   0
       281    616.7856    411.5297 300.2753508 +22.6899240     450.3877     72.46643      1.078     2.06     4.786443     20.44498     76.78303         8     0.709     0.654  76.01   0
       282    993.7922    408.8209 300.3937404 +22.8020693     173.4472     72.44798      1.146     2.73     4.656123     20.44498      46.9854         6     0.750     0.541  49.01   0
       283    409.4364    407.5981 300.2120807 +22.6266514     6156.334     72.48489      1.199     2.13     4.509134     20.44498      845.063        33     1.104     0.981  59.00   0
       284    801.4114    401.7835 300.3360379 +22.7424348     1471.791     72.41104      1.236     2.09     4.601473     20.44498     209.2999        14     0.908     0.782 -63.54   0
       285    898.8746    401.9571 300.3663660 +22.7716744     565.4775     72.44798      1.335     2.75     4.547938     20.44498     70.59016         9     0.766     0.753 -83.69   0
       286    393.9461    396.3975 300.2108977 +22.6187921      504.471     72.42951      1.303     2.63     4.576941     20.44498     74.91832         9     0.873     0.660  73.21   0
       287    476.9085    394.1660 300.2374394 +22.6430187      444.931     72.42951      1.212     2.15      4.83429     20.44498      73.9319         9     0.749     0.709 -76.48   0
       288    457.2094    392.0143 300.2320070 +22.6364965     250.9484     72.37408      1.173     3.77      4.72437     20.44498     48.13335         7     0.918     0.647 -79.92   0
       289    774.1824    389.6555 300.3314895 +22.7307938     449.6881     72.44798      0.992     1.77     4.621101     20.44498     96.47395         7     0.663     0.589  -8.63   0
       290     56.4801    389.0465 300.1083647 +22.5154880      436.161     72.48489      1.918     4.16     4.783955     20.44498     33.87696         5     0.756     0.652  -8.95   0
       291    297.1011    386.8875 300.1838600 +22.5870284     2457.549     72.63237      1.252     1.99     4.837602     20.44498      432.213        22     0.998     0.951  32.16   0
       292     15.3303    384.4138 300.0970857 +22.5018152     987.4341     72.48489      1.449     2.93     4.814518     20.44498     105.6879        15     1.012     0.908  50.37   0
       293    644.7311    381.4362 300.2938260 +22.6896525     288.2885     72.46643      1.248     2.76     4.716165     20.44498     39.50827         5     0.714     0.451 -21.94   0
       294    244.4521    379.9121 300.1697526 +22.5692403      244.947     72.50334      0.947     3.10     4.901855     20.44498     44.26873         5     0.749     0.457 -70.68   0
       295    266.3515    376.3285 300.1777256 +22.5747780     29654.93     72.44798      1.268     2.25     4.892903     20.44498     3551.093        70     1.291     1.128  55.78   0
       296    801.0267    373.5894 300.3450726 +22.7342173     1272.616     72.46643      1.112     1.90     4.617352     20.44498     244.3971        13     0.900     0.693  35.40   0
       297    756.4684    370.9187 300.3320527 +22.7201037     188.0732      72.5771      1.042     2.79     4.785315     20.44498      40.1224         6     0.764     0.499  88.26   0
       298    716.1937    362.6099 300.3222007 +22.7056522     425.2625     72.31862      1.178     2.92     4.891674     20.44498     89.67889         9     0.929     0.676  62.84   0
       299    140.5750    362.6137 300.1430770 +22.5331259     548.3216     72.46643      1.259     2.58      5.00597     20.44498     62.69822         8     0.856     0.597  74.40   0
       300    364.8788    361.5283 300.2131752 +22.6000673     482.2472      72.5771      1.155     1.98     4.737329     20.44498     83.24163         6     0.719     0.498   3.31   0
       301    676.7123    355.9071 300.3120765 +22.6918992     1812.455     72.63237      1.135     1.98     4.860598     20.44498     336.7831        18     0.971     0.814  81.02   0
       302    484.9016    350.6923 300.2540415 +22.6329293      256.284     72.65078      1.031     2.40     4.861259     20.44498     63.82239         8     0.844     0.615 -87.57   0
       303    891.8292    348.8392 300.3814158 +22.7542963     610.6293     72.46643      1.239     2.11     4.579302     20.44498     97.39603         8     0.743     0.649 -34.76   0
       304    338.5636    340.6924 300.2117530 +22.5861966     2109.147     72.41104      1.353     2.58     4.834319     20.44498     278.4998        21     1.183     0.871  68.08   0
       305    550.5054    339.1169 300.2782219 +22.6492635      359.534     72.65078      1.262     2.78     4.896976     20.44498     56.09449         7     0.864     0.578  11.30   0
       306    777.5889    333.2336 300.3508692 +22.7155998     651.1979     72.44798      1.128     2.85     4.836065     20.44498     110.6582        11     0.996     0.689  20.06   0
       307    659.8936    331.2033 300.3148569 +22.6797630     305.8855     72.37408      1.019     3.18     4.901661     20.44498     68.06339         6     0.905     0.508 -70.18   0
       308    677.2286    330.7361 300.3204086 +22.6848216     244.1434     72.46643      1.193     2.49      4.91467     20.44498     58.38136         5     0.698     0.660 -63.09   0
       309    628.1946    330.0031 300.3053730 +22.6699219     320.1534     72.28162      1.059     2.12     4.892528     20.44498     64.15849         6     0.810     0.458  51.25   0
       310    414.4241    319.9548 300.2420856 +22.6029801     1108.598     72.48489      1.209     2.09     4.769669     20.44498     171.7828        15     0.983     0.794  51.71   0
       311    499.6767    317.6304 300.2693727 +22.6278611       318.66     72.44798      1.271     2.59     4.918596     20.44498     50.44895         5     0.688     0.479   6.50   0
       312    154.6035    315.2205 300.1628207 +22.5237311      287.209     72.42951      1.178     3.44     5.025981     20.44498     31.80919         5     0.798     0.429 -69.54   0
       313    797.7552    313.1164 300.3636847 +22.7158575     245.3576     72.42951      1.011     2.14     4.812251     20.44498     64.46523         7     0.810     0.547  63.03   0
       314    659.2432    311.7676 300.3209632 +22.6739837     2045.188     72.50334      1.159     1.93     4.919935     20.44498      377.067        16     0.909     0.803  73.29   0
       315    920.4584    306.0710 300.4042267 +22.7505733     3134.348     72.50334      1.217     2.08     4.574805     20.44498     441.7315        23     1.007     0.959  72.49   0
       316    981.7451    300.6403 300.4251044 +22.7673593     346.7793     72.44798      1.147     2.53     4.950459     20.44498     69.75637         7     0.853     0.539  52.99   0
       317    367.7029    295.5912 300.2354566 +22.5819806     587.2691      72.3556      1.143     2.72     4.870457     20.44498     97.81635        11     1.005     0.691  30.84   0
       318    989.9777    293.9634 300.4298397 +22.7679038     1645.264     72.48489      1.275     1.96     4.982641     20.44498      278.037        18     0.995     0.866  52.97   0
       319     42.4248    289.9633 300.1361596 +22.4828422     1286.503     72.48489      1.606     3.81      5.05362     20.44498      123.037        21     1.297     0.996 -46.24   0
       320     72.8491    289.7550 300.1456795 +22.4919066     667.5597     72.50334      1.486     3.69     4.937901     20.44498     77.33121         9     1.107     0.549  48.08   0
       321    936.2023    286.4787 300.4154959 +22.7496537     465.1513     72.37408      1.112     1.89     4.634266     20.44498     67.97198         6     0.691     0.499  -1.13   0
       322    780.0281    283.5820 300.3677457 +22.7020599     308.1335     72.46643      1.279     3.23     4.944981     20.44498     47.28093         7     1.003     0.503  63.61   0
       323    126.3812    282.0681 300.1648086 +22.5057533     423.9413     72.46643      1.193     2.37     4.932009     20.44498     62.78728         7     0.713     0.632  67.84   0
       324    921.7056    279.2527 300.4133201 +22.7432362      365.217     72.54023      1.276     2.43     4.629127     20.44498     59.75371         7     0.823     0.559  29.33   0
       325    731.0039    273.0772 300.3558775 +22.6843591     706.3509     72.37408      1.216     2.28     5.001855     20.44498     130.2292        12     0.942     0.760 -78.42   0
       326    321.3800    272.8437 300.2284291 +22.5615644     345.5248     72.50334      1.035     2.93     4.914066     20.44498     62.70102         8     0.872     0.603  82.25   0
       327    821.8788    265.9388 300.3865162 +22.7095204     385.2706     72.54023      1.572     4.13     4.842097     20.44498     50.83615         7     1.063     0.662 -33.41   0
       328    828.9136    262.1170 300.3899495 +22.7105281     2152.154      72.5771      1.233     2.20     4.828319     20.44498      349.412        22     1.158     0.817  65.18   0
       329    247.5883    259.7099 300.2097424 +22.5356742     2131.824     72.41104      1.293     2.26     4.932183     20.44498     306.6304        19     1.061     0.905  60.31   0
       330    325.5047    254.9477 300.2355194 +22.5576618     1044.648     72.54023      1.404     2.84     4.924122     20.44498     111.2768        16     1.027     0.904 -25.43   0
       331     77.3765    255.4398 300.1582215 +22.4834161     308.5864     72.50334      1.173     2.94      5.01611     20.44498     56.16799         5     0.767     0.426 -23.55   0
       332    727.3033    253.9876 300.3609195 +22.6777643     555.5014      72.3556      1.172     2.33     4.965883     20.44498     91.20226         9     0.891     0.597  40.14   0
       333    834.4483    250.9966 300.3952836 +22.7089884      326.997     72.44798      1.029     2.53     4.843382     20.44498     62.33247         6     0.754     0.482  77.90   0
       334    142.1247    246.8123 300.1811418 +22.5003541     562.5285     72.48489      1.250     2.66     5.006321     20.44498     98.95109        11     0.990     0.685  74.16   0
       335    680.0601    243.5962 300.3495724 +22.6606290      1625.51     72.44798      1.214     2.07      4.82411     20.44498     269.0033        18     0.974     0.862  89.50   0
       336    745.0651    243.1138 300.3699828 +22.6799580      657.076     72.55866      1.216     2.53       4.9693     20.44498     106.9953         8     0.849     0.635  87.68   0
       337    111.5940    242.4948 300.1730544 +22.4899608     294.5344      72.3556      1.041     4.23     5.025788     20.44498     35.72478         5     1.039     0.490 -87.79   0
       338    163.7286    240.4454 300.1899225 +22.5050036     454.6075     72.44798      1.122     2.71     4.999422     20.44498     70.81183         6     0.787     0.500  36.74   0
       339    951.6617    236.0794 300.4366737 +22.7397893     957.1537     72.54023      1.294     2.70     4.979086     20.44498     125.0331        12     0.999     0.717  22.68   0
       340    604.6960    234.5208 300.3290429 +22.6354480     1235.071      72.5771      1.148     2.09     4.775455     20.44498     176.1818        13     0.937     0.716  70.79   0
       341    453.3188    236.2369 300.2813583 +22.5905906     225.2847     72.42951      1.251     3.26     5.162708     20.44498     52.13384         6     0.754     0.557  46.02   0
       342    684.0637    235.0076 300.3536065 +22.6593597     734.7134     72.44798      1.258     1.99     4.808265     20.44498     137.2378        10     0.875     0.635  61.04   0
       343    426.0148    231.2025 300.2744947 +22.5809632     373.2966     72.30012      1.271     2.75     5.448381     20.44498     70.26083         7     0.912     0.658  83.21   0
       344    530.8856    226.2136 300.3087553 +22.6109505     1072.995     72.41104      1.320     2.37     4.899429     20.44498     147.8944        12     0.971     0.688 -88.00   0
       345    812.0449    224.9243 300.3967602 +22.6947852     761.7248     72.44798      1.218     2.02     4.922774     20.44498     146.1501        13     0.912     0.817  63.46   0
       346    800.2067    225.7906 300.3927891 +22.6914898     1401.322     72.31862      1.237     2.02     4.926793     20.44498     255.3094        13     0.853     0.781 -45.21   0
       347    858.4102    224.4330 300.4113736 +22.7085254     264.3461     72.46643      1.007     3.08      4.90638     20.44498     49.65271         6     0.851     0.490 -86.78   0
       348    983.0135    221.7912 300.4510893 +22.7450644     243.2342      72.3556      1.387     3.14     5.184353     20.44498     33.38054         5     0.793     0.492  54.27   0
       349    972.9147    215.7007 300.4499153 +22.7402902     1545.816     72.63237      1.219     2.13     5.152084     20.44498     273.0598        18     1.002     0.844  73.60   0
       350    928.8372    215.0396 300.4363821 +22.7269070     1058.336     72.54023      1.223     2.21      4.93249     20.44498     178.9395        13     0.920     0.761  70.57   0
       351    163.0236    208.6787 300.2000098 +22.4956727      662.124     72.42951      1.287     2.74     4.968837     20.44498     96.44364        11     0.879     0.794  32.18   0
       352     24.7571    203.2891 300.1587937 +22.4526700     2231.296     72.46643      1.462     2.61     5.012562     20.44498     259.8865        23     1.131     0.988  25.33   0
       353    847.8480    200.0517 300.4159915 +22.6983532     709.1366     72.50334      1.166     2.06     4.907613     20.44498     141.3256        13     0.915     0.817  44.53   0
       354    182.1500    196.5927 300.2098760 +22.4979365     5648.973     72.46643      1.346     2.47     4.929638     20.44498     718.9653        34     1.194     1.051  62.65   0
       355    163.8757    197.2461 300.2039835 +22.4926459     273.1672     72.46643      1.329     3.38     4.944032     20.44498      36.5824         5     0.971     0.341  44.63   0
       356    165.5667    187.3144 300.2077309 +22.4903015     638.8679     72.42951      1.216     2.68     4.923095     20.44498     83.00634        11     0.982     0.657  35.87   0
       357    981.0128    183.8207 300.4627848 +22.7335450     18177.87     72.44798      1.329     2.20      5.28407     20.44498     2903.003        52     1.217     1.112  70.97   0
       358    826.2170    177.8823 300.4164404 +22.6855033     3607.317     72.42951      1.277     2.19     4.907613     20.44498     575.8661        28     1.214     0.957  73.79   0
       359    375.9107    173.4604 300.2776375 +22.5493640     562.5182     72.55866      1.291     3.31     5.212091     20.44498     95.84056        10     1.040     0.642 -82.47   0
       360    128.6082    174.0664 300.2005412 +22.4754187     327.2052     72.46643      1.309     4.05     4.898004     20.44498     51.81888         7     0.770     0.630 -67.03   0
       361    489.9217    170.8690 300.3139583 +22.5827775     368.3031      72.5771      1.137     2.23     4.883117     20.44498     61.35662         6     0.723     0.546  38.37   0
       362    299.7338    165.0589 300.2566664 +22.5241239     773.2328     72.50334      1.480     2.76     4.980513     20.44498      82.4874        10     0.923     0.684  52.43   0
       363    304.0674    163.5696 300.2584973 +22.5249948     488.3933     72.44798      1.321     3.31     4.982686     20.44498     55.85224         8     0.993     0.667  88.77   0
       364    929.8909    176.5796 300.4491887 +22.7161621     2692.183     72.41104      1.287     2.27     4.961271     20.44498     444.5111        25     1.121     0.964  65.17   0
       365     66.0129    162.0354 300.1849925 +22.4531990      810.465     72.44798      1.639     3.20     4.848628     20.44498      91.5468        12     0.982     0.840  32.01   0
       366    426.9818    160.4811 300.2977388 +22.5609373     1656.932     72.44798      1.239     2.24     5.476593     20.44498     242.2222        16     0.937     0.847  40.52   0
       367    354.9847    160.9699 300.2751789 +22.5395059      545.404     72.46643      1.452     2.41     5.033826     20.44498     71.36164         8     0.762     0.671 -25.50   0
       368    488.6125    159.8049 300.3171397 +22.5792064     440.5208     72.33711      1.395     2.77      4.87974     20.44498     69.00066         9     0.893     0.728 -80.80   0
       369    170.6053    156.3332 300.2193465 +22.4829167     360.8948     72.44798      1.319     2.91     4.873514     20.44498     53.91565         9     0.962     0.628  -8.64   0
       370    715.0447    149.7802 300.3909089 +22.6441396     405.7537     72.52179      1.301     2.96      4.67724     20.44498     71.38896         9     0.929     0.723  51.70   0
       371    861.6534    144.7920 300.4382221 +22.6865961     463.0597     72.46643      1.252     3.37     4.898949     20.44498      60.3194         5     0.844     0.457  41.48   0
       372    991.2708    141.1782 300.4798179 +22.7243492      3837.61     72.48489      1.388     2.51     5.423766     20.44498     458.3086        33     1.482     1.104 -28.27   0
       373    201.0839    140.4931 300.2339588 +22.4875038     5920.027     72.65078      1.337     2.42     4.884535     20.44498     751.0902        32     1.187     1.041  69.95   0
       374    612.3510    142.0357 300.3614305 +22.6111621     304.3282     72.48489      1.077     3.34     4.706384     20.44498     46.29319         5     0.812     0.397  68.08   0
       375    707.5488    140.8303 300.3914764 +22.6393224     381.1112     72.50334      1.018     2.11     4.674131     20.44498     64.63367         6     0.717     0.490 -80.62   0
       376     52.1673    139.9342 300.1878589 +22.4427036     821.7161     72.46643      1.550     3.63     4.939168     20.44498      99.3021        13     1.214     0.794  58.72   0
       377    830.0775    137.7214 300.4306715 +22.6751111     439.9044      72.5771      1.285     2.56     4.868004     20.44498     58.15612         7     0.698     0.667  46.93   0
       378    172.4148    134.4301 300.2270129 +22.4771699     370.5754     72.46643      1.446     3.21     4.876959     20.44498     43.74628         6     0.820     0.535 -44.05   0
       379    216.8397    131.6682 300.2417194 +22.4896918     434.3877     72.42951      1.304     2.72     4.895472     20.44498     56.63663         6     0.724     0.609 -49.35   0
       380    447.1849    125.7394 300.3152945 +22.5570084     6188.438     72.42951      1.269     2.20     4.992127     20.44498     950.5908        34     1.143     1.001  68.74   0
       381    332.4874    125.6741 300.2796283 +22.5226263     664.0768     72.61395      1.179     3.05     4.993888     20.44498     100.8151        11     1.118     0.574  48.50   0
       382    503.8934    120.3990 300.3346775 +22.5724607     259.1026      72.3556      1.235     3.43     4.763095     20.44498     41.56424         5     0.745     0.457 -17.37   0
       383    468.1494    119.6662 300.3237890 +22.5615434     234.1025     72.48489      1.016     2.61     4.846022     20.44498     39.14483         5     0.736     0.435 -17.88   0
       384    699.7397    115.3565 300.3973054 +22.6296610      722.377     72.46643      1.173     2.61     4.691374     20.44498     121.0896        11     1.063     0.631  56.80   0
       385    640.9861    116.4567 300.3786455 +22.6123850     327.7177     72.44798      1.228     3.24     4.693014     20.44498     61.06834         8     0.965     0.572  44.32   0
       386    792.0884    113.9915 300.4265263 +22.6569157     467.2249     72.39256      1.300     3.65     4.767817     20.44498     58.05171         9     0.921     0.738 -70.79   0
       387    815.1891    110.1680 300.4349669 +22.6627312     215.9682     72.46643      1.219     4.35      4.79437     20.44498     26.38692         5     0.849     0.635  49.00   0
       388    139.8554    109.4212 300.2250030 +22.4602297     486.3898     72.48489      1.298     3.40      4.94038     20.44498     67.54031         9     0.908     0.747  28.53   0
       389    498.4052    108.2653 300.3369042 +22.5673301     501.5468     72.46643      1.244     2.59     4.740892     20.44498     73.99975         8     0.846     0.704  72.88   0
       390    575.5156    105.7537 300.3617265 +22.5897028     6227.317     72.44798      1.232     2.23     4.709326     20.44498     896.6796        29     1.128     0.921  62.07   0
       391    350.4723    104.8565 300.2919742 +22.5220349     1464.364     72.48489      1.298     2.46     5.011903     20.44498     213.3545        17     1.015     0.869  78.63   0
       392    616.7806    103.1911 300.3754084 +22.6013236     740.8513     72.42951      1.174     2.02     4.708844     20.44498     135.7023        11     0.894     0.652  78.10   0
       393    686.6481    100.7770 300.3979549 +22.6215499     491.2799     72.48489      1.531     2.76     4.704547     20.44498     44.56471         6     0.706     0.622 -13.80   0
       394    632.8788     98.9003 300.3818139 +22.6049107     752.6354     72.59553      1.512     3.32     4.708844     20.44498     83.59245        10     0.935     0.735 -64.32   0
       395     99.4704     97.3190 300.2163766 +22.4446497     603.0545      72.5771      1.150     2.72     5.124624     20.44498     84.67818        10     0.920     0.746  73.80   0
       396    902.6422     96.3999 300.4666980 +22.6849465     645.8584     72.44798      1.306     2.44     4.890512     20.44498     77.40012        10     0.870     0.691  45.58   0
       397    941.5267     96.0109 300.4789509 +22.6964711     230.4381     72.48489      1.026     1.99     5.000747     20.44498     48.81194         6     0.720     0.499  89.05   0
       398    670.9243     94.3545 300.3951392 +22.6149957     523.1246     72.44798      1.321     2.35      4.73539     20.44498     68.86247         9     0.847     0.649  69.91   0
       399    634.8544     89.6658 300.3854239 +22.6028477     1068.404     72.52179      1.900     4.93     4.738727     20.44498     83.12051        17     1.595     0.718  59.40   0
       400    619.7339     90.6452 300.3803968 +22.5986017     2691.817     72.46643      1.210     2.15     4.723849     20.44498     435.8886        21     1.037     0.863  83.01   0
       401    260.3554     91.2483 300.2683580 +22.4911241     407.4307     72.50334      1.344     3.81     4.929958     20.44498     58.32199         8     1.062     0.562  68.57   0
       402    706.2107     82.1780 300.4100813 +22.6220596     1565.333     72.44798      1.226     2.17     4.839748     20.44498     223.8557        15     1.008     0.760  69.91   0
       403    866.4948     80.7386 300.4605056 +22.6696239     348.6723     72.55866      1.129     2.36     4.851738     20.44498      51.2109         5     0.695     0.469  70.19   0
       404    644.1522     75.2646 300.3929899 +22.6014918     683.6045     72.48489      1.208     2.54     4.823622     20.44498     113.6261        10     0.887     0.687  63.37   0
       405    449.8309     74.7317 300.3326591 +22.5431446     1106.002     72.44798      1.262     2.50      4.62698     20.44498     168.8352        13     1.033     0.707  68.00   0
       406     22.8766     74.9045 300.1998468 +22.4152541     548.9422      72.5771      1.319     3.25     5.414044     20.44498     62.48043         8     0.925     0.587  25.76   0
       407    353.6653     72.8618 300.3033424 +22.5138000     854.5462     72.50334      1.339     2.49     5.029102     20.44498     119.3362        15     0.963     0.888  10.23   0
       408    735.8371     71.5378 300.4227630 +22.6278695     525.0684     72.48489      1.225     2.32     4.926113     20.44498     73.74594         9     0.846     0.631 -72.77   0
       409    996.5607     69.4831 300.5047202 +22.7053070     2298.496     72.42951      1.306     2.34     5.174592     20.44498     316.3736        25     1.117     1.025 -68.50   0
       410    124.9974     62.9897 300.2354407 +22.4424437     3839.784     72.28162      1.393     2.69      5.16287     20.44498     435.4954        30     1.205     1.045  71.15   0
       411    693.2010     63.3863 300.4121214 +22.6127619      619.107     72.30012      1.323     2.70     5.003841     20.44498     91.59782        10     0.838     0.804  83.20   0
       412    547.4873     59.5978 300.3679661 +22.5680431     338.6119     72.39256      1.445     3.70     4.303597     20.44498     38.20078         6     0.939     0.419  71.12   0
       413    450.8734     60.1594 300.3377086 +22.5392693     300.7693     72.44798      1.455     3.41     4.529414     20.44498     47.58294         6     1.046     0.532  23.42   0
       414    686.2182     55.3327 300.4125572 +22.6083558     861.2835     72.44798      1.153     2.07     5.072933     20.44498     134.1622        11     0.926     0.658  73.98   0
       415    241.0087     55.0924 300.2740652 +22.4749418     1287.867     72.39256      1.350     2.56     4.929958     20.44498     170.0267        17     1.015     0.934  64.85   0
       416    651.9708     54.7293 300.4020839 +22.5979291     287.4819     72.46643      1.305     2.26     4.967064     20.44498     55.20231         6     0.800     0.478  40.83   0
       417    467.4576     52.6197 300.3453148 +22.5420698     223.7766     72.46643      1.080     3.61     4.343756     20.44498     42.50094         7     0.963     0.489  83.29   0
       418    724.1050     50.3135 300.4259891 +22.6182546     752.3808     72.65078      1.577     4.38     5.116116     20.44498     65.32146        15     1.187     0.935  84.56   0
       419    647.6463     50.0879 300.4022417 +22.5953000      538.217     72.44798      1.362     2.48     4.975076     20.44498     69.54851         7     0.714     0.645 -41.47   0
       420    744.2289     46.6064 300.4334619 +22.6232126     2156.006     72.46643      1.280     2.15     5.097116     20.44498     349.3166        19     1.039     0.887  78.48   0
       421    449.9836     44.8346 300.3424003 +22.5345989      438.233     72.46643      1.157     2.60      4.44721     20.44498     81.05531         7     0.723     0.649 -71.52   0
       422    127.6310     42.1808 300.2430055 +22.4372575     957.9968     72.46643      1.518     2.62     5.224231     20.44498     121.5766        14     0.988     0.893  65.55   0
       423    918.8666     39.8557 300.4900929 +22.6735367     844.0937     72.52179      1.397     3.21     4.793363     20.44498     107.9329        14     1.040     0.951  55.70   0
       424    692.5258     39.0448 300.4198033 +22.6055610     872.7352     72.44798      1.232     2.27     5.211117     20.44498     133.9562        14     0.981     0.817  30.19   0
       425    400.3056     37.6620 300.3292661 +22.5176580     381.8694     72.55866      1.837     5.35     4.858033     20.44498     40.44667         7     1.204     0.670 -46.73   0
       426    450.3430     31.2326 300.3469219 +22.5307977     427.9748     72.48489      1.122     1.99     4.363317     20.44498     55.54306         5     0.671     0.461  76.58   0
       427    277.1353     29.0317 300.2937483 +22.4782802     469.4694     72.46643      1.486     3.18     4.929958     20.44498     61.45203         7     1.001     0.615 -31.89   0
       428    545.0121     23.9987 300.3787370 +22.5570694     897.5147     72.28162      1.241     2.15     3.891236     20.44498     136.1668        11     0.871     0.709   4.86   0
       429    118.4404   1021.9594 299.9218640 +22.7155516     1149.513     65.26018      8.934    10.24     33.80252     20.44498     41.81091        21     2.406     1.216  30.13  27
       430    339.1699     19.7725 300.3160451 +22.4942046     358.9975     72.46643      1.268     3.09     5.039964     20.44498     50.11678         6     0.786     0.512 -42.78   0
       431    708.1766     18.6598 300.4312884 +22.6043846     754.8728     72.44798      1.274     2.42     5.383847     20.44498     110.3384        10     0.874     0.702  85.82   0
       432    112.3615   1022.5087 299.9197964 +22.7138833     1158.253     62.58169     12.647    14.09     35.85148     20.44498     42.31359        38     3.374     1.637  25.07  27
       433    606.0109   1012.9639 300.0764508 +22.8593297     6820.746     72.46643      1.634     3.23     3.070388     20.44498     562.2894        39     1.339     1.245  39.93   0
       434    119.0826   1011.5319 299.9254577 +22.7127567     1092.171      72.5771      5.394     5.77      30.7378     20.44498     34.77262        10     1.398     0.671 -87.51   3
       435    197.3016   1007.2268 299.9511671 +22.7350116     717.1361     72.41104      1.942     4.91      12.0921     20.44498      60.5476        14     1.162     1.048 -55.16   0
       436    154.5691     21.1086 300.2582093 +22.4392788     534.4573     72.41104      1.436     2.65     5.007319     20.44498     59.18479         8     0.787     0.665  -4.59   0
       437    758.4877   1007.2435 300.1258079 +22.9034282       457.07     72.46643      1.793     4.93     3.880524     20.44498     36.35345         7     1.125     0.611  19.06   0
       438    485.5171   1006.9870 300.0408865 +22.8214600      569.103     72.44798      1.937     3.70     2.764631     20.44498     46.66164         8     0.932     0.738  17.78   0
       439    514.6491   1003.6066 300.0510539 +22.8292326     1536.744     72.46643      1.606     3.33     2.732042     20.44498     146.5201        23     1.198     1.116 -78.17   0
