#   1 NUMBER                 Running object number                                     
#   2 X_IMAGE                Object position along x                                    [pixel]
#   3 Y_IMAGE                Object position along y                                    [pixel]
#   4 ALPHA_J2000            Right ascension of barycenter (J2000)                      [deg]
#   5 DELTA_J2000            Declination of barycenter (J2000)                          [deg]
#   6 FLUX_APER              Flux vector within fixed circular aperture(s)              [count]
#   7 FLUXERR_APER           RMS error vector for aperture flux(es)                     [count]
#   8 FLUX_RADIUS            Fraction-of-light radii                                    [pixel]
#   9 FWHM_IMAGE             FWHM assuming a gaussian core                              [pixel]
#  10 BACKGROUND             Background at centroid position                            [count]
#  11 THRESHOLD              Detection threshold above background                       [count]
#  12 FLUX_MAX               Peak flux above background                                 [count]
#  13 ISOAREA_IMAGE          Isophotal area above Analysis threshold                    [pixel**2]
#  14 A_IMAGE                Profile RMS along major axis                               [pixel]
#  15 B_IMAGE                Profile RMS along minor axis                               [pixel]
#  16 THETA_IMAGE            Position angle (CCW/x)                                     [deg]
#  17 FLAGS                  Extraction flags                                          
         1    690.5319     16.4277 300.3929198 +22.6015298     673.6764     72.06837      1.404     3.38      6.46588     20.33786        88.05        13     1.024     0.885 -30.40   0
         2    496.0953     15.5511 300.3326148 +22.5430999     1105.086     72.14179      1.455     3.00     5.889076     20.33786     121.5804        17     1.067     0.977 -17.00   8
         3    400.1497     13.7069 300.3033332 +22.5138531     840.3745     72.16013      1.555     3.24     6.001577     20.33786     91.79407        16     1.096     0.961  43.20   0
         4    782.6530     12.7325 300.4228412 +22.6280220      386.688     72.10509      1.256     4.12       6.2489     20.33786     56.34499         9     1.268     0.504  34.40   0
         5    739.3022      4.4140 300.4120180 +22.6126614     712.5564     69.84862      1.486     3.21     6.449517     20.33786       71.842        11     1.043     0.697  28.05  16
         6    171.4592      3.5312 300.2354619 +22.4424597     3709.099      66.9063      1.674     3.00     6.456841     20.33786      390.371        33     1.281     1.257 -31.14  24
         7    594.2017      1.3310 300.3677871 +22.5683661     201.5627     55.91394      0.993     3.90     6.437333     20.33786     41.27745         6     1.041     0.420 -12.92  24
         8     69.8425     15.2933 300.2000509 +22.4154072     577.2991     72.10509      1.533     4.17     6.573889     20.33786     61.25271         9     1.257     0.519 -64.37   0
         9    148.2612   1007.9421 299.9021544 +22.7238791     785.4618     72.14179      1.902     6.67     89.90141     20.33786     54.13884        12     1.850     0.675 -47.64   0
        10     86.3575   1011.6841 299.8816908 +22.7063735     5309.923        72.05     16.048   101.63     79.91196     20.33786     166.1306      2206    17.858    16.047  66.09  27
        11     76.6977    953.1219 299.8977382 +22.6866820     5301.369     72.19682     26.512    24.98     31.44059     20.33786      1306.31      3406    20.882    13.312 -23.70  27
        12      3.1056    992.9583 299.8619076 +22.6760159      973.228      65.1218      7.503     9.40    -6.512402     20.33786     36.03423        18     1.867     1.321  -5.48  25
        13      8.8855    992.1337 299.8639720 +22.6775144     815.1978     72.17847      5.715     5.19    -1.242829     20.33786     35.93093         5     1.188     0.642  82.48   1
        14     77.3318    916.5407 299.9098328 +22.6763818      3950.86     72.10509     20.626    54.78     13.94849     20.33786      86.5986      1088    12.444     7.200 -28.85  11
        15    733.9697    987.5118 300.0911622 +22.8936820     724.6479     72.06837      2.119     5.29     3.937238     20.33786     55.56916        14     1.199     1.111 -40.28   0
        16    633.3758    986.6788 300.0600796 +22.8632881     9331.679     72.06837      2.181     5.27     3.800704     20.33786     494.2988        51     1.681     1.507  28.31   3
        17    638.9415    984.6049 300.0624887 +22.8643613     9553.212        72.05      2.100     5.07     3.824366     20.33786     538.3922        51     1.654     1.509   0.63   3
        18      1.4527    987.2092 299.8632642 +22.6738715     681.7908     56.75975      4.498     4.54    -7.406294     20.33786     36.54097         5     1.238     0.474  82.31  25
        19    110.2018    984.6910 299.8978850 +22.7057896     687.0349     71.99487      3.372     3.66     68.67251     20.33786     41.68556         5     1.019     0.378 -16.28   0
        20    164.5839    967.2586 299.9204650 +22.7171097     1163.081        72.05      4.928    10.72      54.6181     20.33786     47.76674        22     1.940     1.649 -35.98   3
        21    166.6620    976.7295 299.9180304 +22.7204496     2102.331     72.12344      5.009    13.88     63.19154     20.33786     57.65312        59     3.029     1.770 -85.65   3
        22    172.8848    998.3509 299.9129318 +22.7285178     2857.173     72.06837      5.925    26.08     81.40967     20.33786     63.47053       149     5.311     3.555  10.48  19
        23    169.4817    996.2111 299.9125697 +22.7268829     1740.742        72.05      4.319     9.36     79.75241     20.33786     63.54295        26     2.243     1.089 -78.45   3
        24    237.8240    973.4099 299.9412434 +22.7408495     7340.622     72.08673      8.716    34.42     45.40643     20.33786     150.4357       735    11.169     4.762  65.22  18
        25    230.9836   1000.3757 299.9303431 +22.7465319     1270.261     72.08673      2.305     8.56     74.98987     20.33786     66.10989        27     1.979     1.374  13.78   0
        26    355.1801    998.7983 299.9694997 +22.7833396     546.8089     72.01324      1.820     5.69     4.418513     20.33786     37.01513         9     1.122     0.814 -46.04   0
        27    926.7205    970.6232 300.1567730 +22.9465931     807.0673        72.05      2.101     7.79     4.067062     20.33786     50.33937        16     1.453     1.167 -50.47   0
        28      4.1154   1021.8484 299.8528227 +22.6846012     1167.177     62.01946      7.524    12.56    -8.807065     20.33786     38.50101        28     2.505     1.752 -13.06  26
        29    146.2263    960.0246 299.9171095 +22.7095264     1057.672        72.05      6.156    10.49     48.35403     20.33786     46.91371        16     2.743     1.118  74.39   3
        30    148.1275    956.6258 299.9188062 +22.7091221     1535.435     72.10509      7.168    10.36     45.83829     20.33786     46.96244        18     3.360     0.890  47.34   3
        31    651.6163    953.7480 300.0764770 +22.8593018     6796.413     72.08673      2.013     4.42     4.191136     20.33786     384.0255        48     1.570     1.474  24.73   0
        32    485.9839   1001.0033 300.0095045 +22.8232049     403.9895     71.97648      2.147     4.99     4.092912     20.33786     31.67369         6     1.271     0.555  -7.38   0
        33    803.4769    947.3878 300.1258880 +22.9029904     454.4004     72.10509      1.985     4.21     4.424405     20.33786      30.0894         5     1.036     0.487  -0.86   0
        34    560.0803    944.4337 300.0509860 +22.8291860     1483.054     72.03162      1.881     4.97     4.404298     20.33786     105.1262        24     1.359     1.219 -13.40   0
        35    454.1153    940.8167 300.0191603 +22.7963747     1122.396        72.05      2.117     4.37     4.454113     20.33786     87.38951        20     1.306     1.212  40.74   0
        36    384.4609    938.8221 299.9981239 +22.7749131     6449.342     72.06837      1.977     4.31     4.738442     20.33786      427.261        46     1.572     1.445  23.06   0
        37    199.8113    986.1741 299.9252674 +22.7331053     3669.217     72.08673      8.529    20.47     69.45068     20.33786      74.0841       209     4.764     3.916  11.54   3
        38    417.9731    925.8420 300.0127781 +22.7812385     681.2219     72.10509      1.971     6.95     4.482596     20.33786     52.05112        14     1.497     0.904  21.19   0
        39    141.2953    955.0854 299.9171828 +22.7066302     1471.261     72.27011      9.125    12.76     43.84028     20.33786     58.24054        31     3.684     1.230 -44.12   3
        40    931.0408    917.9226 300.1752648 +22.9327466     2253.041     72.06837      2.084     5.04      4.40331     20.33786     119.8161        38     1.556     1.461  45.82   0
        41    581.4833    914.7488 300.0673092 +22.8270806     302.5718     72.10509      1.886     5.85     4.513937     20.33786      28.2118         6     1.389     0.694  73.84   0
        42    719.7742    906.5093 300.1130866 +22.8661658     831.7866     72.01324      2.284     6.49     4.486919     20.33786     63.63746        14     1.634     0.879  49.36   0
        43    754.3734    900.9822 300.1256709 +22.8749471     943.9689     72.10509      1.669     4.40     4.536635     20.33786     72.11674        18     1.212     1.022   0.19   0
        44    533.0130    901.7532 300.0564365 +22.8088185     384.7876     72.10509      1.551     3.63     4.552872     20.33786     40.70205         5     1.165     0.326 -66.93   0
        45    210.5630    899.0526 299.9569482 +22.7113404     894.7928     72.10509      8.703     8.72     10.80836     20.33786     39.05247        11     1.840     1.154  36.21   2
        46    776.8306    894.5857 300.1347535 +22.8798393     11455.92     72.08673      1.887     4.27     4.610601     20.33786     728.0662        55     1.511     1.474 -63.94   0
        47    546.8184    991.6151 300.0315061 +22.8387530     2389.367     72.06837      2.013     4.73     4.133601     20.33786      146.632        36     1.542     1.404  63.67   0
        48      2.8837   1004.4713 299.8580933 +22.6792498     1170.861     64.20065      7.094     9.91    -7.828022     20.33786     32.76571        17     2.073     1.321 -29.13  27
        49    967.6563    895.1949 300.1940831 +22.9371843     468.9567        72.05      1.868     5.53     4.457442     20.33786     35.14898         9     1.057     0.816  26.56   0
        50      2.4964   1014.0989 299.8548408 +22.6818936     1357.468     62.44484      5.083     6.33    -10.11371     20.33786     58.02325        12     1.184     0.989 -71.52  27
        51    822.0189    894.8699 300.1487529 +22.8934611     615.5972     72.10509      1.821     6.35     4.625895     20.33786     43.15387        11     1.196     0.947 -24.19   0
        52    175.3128    987.4868 299.9172212 +22.7261306     1257.859     72.21514      4.818     8.53     71.56319     20.33786     53.33008        12     1.934     1.050  29.74   3
        53     88.8207    885.7644 299.9234125 +22.6710026     976.4232     72.10509      3.572     5.75      10.5145     20.33786     55.06273        12     1.267     0.734 -82.41   0
        54    482.5902    882.4893 300.0469971 +22.7881709     584.6282     72.03162      1.746     5.55     4.574964     20.33786     42.93249        11     1.419     0.714  28.50   0
        55    173.3297    990.8361 299.9155149 +22.7264961     1160.395     72.06837      4.383     7.04     75.20341     20.33786     61.88518        16     1.820     0.764  45.31   3
        56    785.3799    876.7914 300.1432063 +22.8772897     1380.237        72.05      1.833     3.94     4.659472     20.33786     91.74946        24     1.251     1.185  39.42   0
        57    968.9637    876.0316 300.2007235 +22.9320691     547.8488     72.10509      2.309     7.38     4.509277     20.33786     36.67602        11     1.606     0.949 -26.82   0
        58    637.3637    873.4265 300.0981596 +22.8319659     550.0482     72.10509      2.019     4.99     4.504701     20.33786     33.42591         8     0.961     0.732  43.82   0
        59    823.4223    869.6631 300.1573883 +22.8866403     993.4645     72.06837      2.454     8.52     4.682538     20.33786     58.29505        17     1.809     1.120  75.92   0
        60    932.8684    867.2836 300.1923046 +22.9187436       503.42     72.19682      1.737     3.86     4.590323     20.33786       42.587         6     0.958     0.446 -38.56   0
        61    872.2092    862.0844 300.1750702 +22.8990789     496.5153     72.03162      1.837     6.64     4.608401     20.33786     37.23462         9     1.410     0.879 -27.23   0
        62    723.1962    860.0500 300.1292623 +22.8538476     695.3464     72.08673      1.848     4.26     4.483127     20.33786     54.76168        14     1.284     0.953   5.88   0
        63    734.8310    857.2226 300.1338090 +22.8565219     492.9521     72.08673      1.684     5.59      4.48027     20.33786     50.70713        11     1.273     0.903  -3.92   0
        64    435.7083    856.5497 300.0408337 +22.7666682     4102.918     72.10509      1.782     3.88     4.588681     20.33786     348.7065        37     1.382     1.311   9.02   0
        65    219.3224    984.4122 299.9319092 +22.7384542     4787.876     72.08673      8.599    26.75     66.56582     20.33786     87.04303       382     6.182     4.770 -46.79   3
        66    161.2437    842.3301 299.9600531 +22.6802722     804.5548        72.05      2.377     4.94      7.69305     20.33786     67.52062        14     1.276     0.988 -38.89   0
        67    138.0421    839.2173 299.9538503 +22.6724188     1664.489     72.10509      2.110     4.53     7.082318     20.33786     125.8746        29     1.496     1.314   4.12   0
        68   1010.0469    828.7330 300.2289267 +22.9307796     2180.293     72.06837      1.975     5.01     4.477178     20.33786     116.8623        37     1.617     1.412 -59.43   0
        69     13.7117    829.0198 299.9185160 +22.6321903     352.3677     72.03162      1.361     4.00     5.265363     20.33786     39.95353         6     1.235     0.370  77.22   0
        70    963.9749    827.0589 300.2150915 +22.9165008     2146.027     72.08673      1.866     4.35     4.541818     20.33786     135.4086        29     1.360     1.293   6.68   0
        71    669.0764    826.6955 300.1232380 +22.8280494     406.8014     72.21514      2.337     6.06     4.478923     20.33786     32.11068         6     1.240     0.833  25.53   0
        72    748.1260    820.9625 300.1497439 +22.8500898     636.6127     72.03162      1.687     3.90     4.448275     20.33786     50.82849        11     1.049     0.783 -41.83   0
        73    615.7833    814.7534 300.1105124 +22.8086483     4907.656     72.12344      1.723     3.75     4.628754     20.33786     367.9134        37     1.361     1.308 -18.69   0
        74    105.8660    815.2060 299.9516519 +22.6558776      366.439     72.08673      1.559     4.55      5.71512     20.33786     44.58043         7     1.206     0.487  73.24   0
        75    418.0317    811.9090 300.0498440 +22.7485538     640.9683     72.03162      1.766     5.29     4.726229     20.33786     59.33435        10     0.984     0.871  42.36   0
        76    165.8807    808.3477 299.9725426 +22.6719136     1426.724     72.10509      1.959     4.24     5.682078     20.33786     131.6441        26     1.401     1.272 -46.97   0
        77    636.3580    807.4131 300.1193102 +22.8127063      784.251     72.10509      1.625     4.02     4.581102     20.33786     75.55267        15     1.119     1.049  30.50   0
        78    185.3745    805.1987 299.9796288 +22.6768574     481.9788     72.03162      1.874     6.19     5.469788     20.33786     38.02116         9     1.323     0.814 -11.77   0
        79    791.8680    794.7084 300.1719187 +22.8556523     4324.423     72.21514      1.781     3.75     4.346058     20.33786      308.116        39     1.364     1.353 -63.35   0
        80   1008.6245    795.0359 300.2394386 +22.9206678     1162.215     72.10509      1.916     4.90     4.459571     20.33786     75.78312        24     1.410     1.225 -24.84   0
        81    201.0052    788.2642 299.9899950 +22.6766865     465.1871     72.06837      1.637     3.38     5.291442     20.33786     53.63852         6     0.983     0.509 -50.51   0
        82    508.9524    786.9650 300.0862650 +22.7686486     627.3237     72.12344      1.481     5.31      4.70139     20.33786     64.77813        11     1.102     0.868   9.50   0
        83    155.1855    784.8553 299.9768529 +22.6619650     950.3622     72.06837      1.794     3.96     5.282538     20.33786     97.68089        18     1.277     1.037 -14.05   0
        84    304.8705    776.9415 300.0259887 +22.7045861     54032.27     72.12344      1.758     3.52     5.302829     20.33786     4546.907       109     1.576     1.526   9.35   0
        85    570.5425    780.4049 300.1075828 +22.7852250     487.3521        72.05      1.647     3.60     4.739988     20.33786     48.76931        10     1.065     0.947 -30.49   0
        86    562.7618    776.1624 300.1065379 +22.7816747     1643.718     72.16013      1.644     3.56     4.739614     20.33786     139.4295        23     1.210     1.112  34.61   0
        87    975.7013    775.5634 300.2354930 +22.9052117     1080.318     72.08673      2.232     5.54     4.617601     20.33786     61.51554        19     1.253     1.184  36.34   0
        88    233.5988    775.0757 300.0044203 +22.6826774     546.3025     71.97648      1.978     4.29     5.300979     20.33786     51.60865         9     1.127     0.679 -39.46   0
        89    591.8020    772.1929 300.1168757 +22.7892380       888.17     71.90288      1.630     4.15     4.794711     20.33786     73.24242        15     1.124     0.967 -68.16   0
        90    602.8062    770.4720 300.1208637 +22.7920415     811.5562     72.03162      2.071     5.21     4.821078     20.33786      52.0341        13     1.122     0.912 -45.62   0
        91    708.0168    769.6908 300.1539075 +22.8233432     2372.743     72.01324      0.438    -1.67     4.552866     20.33786     1945.266         9     0.924     0.237 -85.14   0
        92    745.4314    757.4436 300.1695527 +22.8310341     699.8492     72.14179      1.646     4.67     4.455687     20.33786     58.49157        15     1.188     1.086  19.62   0
        93    354.5818    754.1852 300.0488559 +22.7129596     31525.58     72.06837      1.722     3.42     5.333658     20.33786     2696.067        73     1.453     1.419  41.51   0
        94    877.7900    750.4228 300.2131138 +22.8686636     2757.931     72.08673      1.744     3.67      4.89843     20.33786     225.7478        29     1.296     1.236  40.16   0
        95    365.6207    748.7721 300.0540511 +22.7147152     728.6519     72.08673      1.964     4.24      5.26041     20.33786     58.36219        12     0.976     0.913  -5.79   0
        96    635.6552    746.2553 300.1389710 +22.7949293      922.054     72.12344      1.602     3.21     4.908202     20.33786     91.23365        17     1.128     0.933  68.16   0
        97    482.6307    741.2384 300.0929300 +22.7476286     957.6021     72.08673      2.094     4.30     4.757775     20.33786     90.15037        19     1.381     0.948 -40.58   0
        98     42.2252    741.1618 299.9559344 +22.6155439     493.6601     72.10509      1.866     5.19      5.16323     20.33786      38.6259         7     1.238     0.614  74.53   0
        99    884.0104    738.3749 300.2189703 +22.8670640     442.7592     72.08673      1.716     5.51     5.032955     20.33786     44.46495         9     1.308     0.655  23.83   0
       100    237.0708    745.8906 300.0149859 +22.6753428     901.9764     72.25179      1.649     3.77     5.321347     20.33786     99.77491        18     1.172     1.127 -34.19   0
       101    368.9666    754.8393 300.0531207 +22.7174601     2048.464     72.12344      1.686     3.44     5.199447     20.33786     190.1245        27     1.283     1.207  33.70   0
       102    637.3673    735.5356 300.1429886 +22.7923631     269.4702     72.08673      1.544     5.06     4.965759     20.33786     37.84729         7     1.265     0.572  35.75   0
       103    428.7401    736.1030 300.0778181 +22.7300003      486.633     72.16013      1.697     2.68     4.766716     20.33786     50.07412         7     0.822     0.603  63.77   0
       104     70.8686    735.4954 299.9666794 +22.6225108     499.7462     72.21514      1.718     4.23      5.17014     20.33786     49.16431        10     1.302     0.701 -37.90   0
       105    861.2661    733.0328 300.2136113 +22.8587169     382.5726     72.08673      1.546     5.09      4.86799     20.33786     40.16938         7     1.256     0.698  40.15   0
       106    234.9336    730.5139 300.0193182 +22.6702887     491.1978     72.19682      1.541     6.13     5.335995     20.33786     40.34496        12     1.320     0.800  -0.28   0
       107    558.3271    721.0383 300.1230726 +22.7645140     445.3419        72.05      1.648     4.03     4.860228     20.33786     36.37459         7     0.739     0.703 -85.44   0
       108    527.7827    719.1979 300.1141558 +22.7548317     749.2798     71.99487      1.640     3.73     4.815094     20.33786     60.98131        11     1.017     0.730 -13.06   0
       109    944.2529    715.6525 300.2451518 +22.8785731     4698.177     72.12344      1.795     3.91     5.350168     20.33786     314.3587        38     1.390     1.341 -80.91   0
       110    549.7402    716.6507 300.1218234 +22.7606805     1263.182     72.14179      1.485     3.25     4.836003     20.33786     139.8853        19     1.188     0.942   4.56   0
       111    469.4821    715.8659 300.0970809 +22.7364015     419.7169     72.19682      1.533     4.41     4.847486     20.33786     38.75469         9     1.002     0.743 -73.32   0
       112    932.7297    707.1035 300.2443343 +22.8726651     1702.317     72.21514      1.730     3.90     5.491795     20.33786     123.2312        25     1.311     1.209 -75.87   0
       113    295.6880    700.6440 300.0479269 +22.6799321     972.8713     72.08673      1.677     3.28     5.493733     20.33786     103.0862        14     1.071     0.852  39.88   0
       114    162.4016    701.4076 300.0062160 +22.6401839     287.3836     71.90288      1.482     4.37     5.283645     20.33786     24.76962         5     1.002     0.542 -44.92   0
       115    759.1557    698.3450 300.1930388 +22.8181644     2712.471     72.10509      1.774     3.44     4.968383     20.33786     204.2091        34     1.531     1.198  -3.33   0
       116    963.9562    697.2454 300.2572825 +22.8791812     1749.217     72.12344      1.861     3.74     5.278227     20.33786      118.311        26     1.277     1.207  83.25   0
       117    841.3178    684.3016 300.2232254 +22.8387368     585.0574     72.25179      1.963     6.14      5.28826     20.33786     40.00032        11     1.185     1.120  -0.98   0
       118    144.3836    684.1866 300.0062081 +22.6298381     625.7001     72.03162      1.801     5.35     5.284132     20.33786     52.28036        10     1.250     0.688  48.32   0
       119    877.4946    675.2925 300.2374379 +22.8469811     148493.9     72.25179      1.687     3.41     5.446058     20.33786     13242.61       158     1.553     1.509 -55.65   0
       120    639.8832    679.1054 300.1621105 +22.7769058     392.4587     72.27011      1.593     5.61      5.32209     20.33786     39.90437         9     1.129     0.787  -1.52   0
       121   1023.4841    676.8002 300.2825065 +22.8911248     658.5834     56.96923      1.511     4.33     5.236648     20.33786     85.71822        12     1.361     0.609  89.41  24
       122    729.9618    675.4866 300.1913643 +22.8028510     855.4752     72.06837      1.822     3.78     5.220093     20.33786     68.91751        14     1.103     0.905 -86.59   0
       123    909.7545    668.6505 300.2496609 +22.8547316      278.961     72.10509      1.173     3.21     5.520711     20.33786     48.86269         8     0.956     0.580 -20.59   0
       124    563.7592    663.9847 300.1433038 +22.7497537     1752.142     72.10509      1.519     3.08     5.136324     20.33786     196.8559        22     1.110     1.070  78.06   0
       125    744.8981    661.3967 300.2005991 +22.8032761     9271.754     71.99487      1.549     3.02     5.269473     20.33786      905.363        45     1.297     1.251  82.44   0
       126    246.2942    656.2448 300.0469840 +22.6523772     4878.363     72.10509      1.722     3.22     5.490404     20.33786     475.2264        40     1.371     1.330 -77.22   0
       127    328.2985    654.4313 300.0730898 +22.6764413     1174.593     72.06837      1.610     3.25     5.513784     20.33786     129.1516        18     1.168     0.969  16.50   0
       128    204.7003    651.9075 300.0354540 +22.6386610     378.2024     72.25179      1.444     3.80     5.449464     20.33786     45.96697         6     0.965     0.434 -80.20   0
       129    536.6230    649.9371 300.1394142 +22.7375874     773.3063     72.06837      1.492     3.27     5.174944     20.33786     83.48735        13     1.028     0.832  24.55   0
       130    528.3071    641.9997 300.1394025 +22.7328155     3162.818     71.95808      1.504     2.97     5.261899     20.33786     337.7274        26     1.168     1.127 -81.28   0
       131    518.6241    635.9119 300.1383641 +22.7281653     1526.188        72.05      1.579     3.14     5.324051     20.33786     165.5916        19     1.184     0.962  63.12   0
       132    447.2807    635.7436 300.1162002 +22.7067377     349.4247     72.12344      1.311     3.80     5.316686     20.33786     46.39152         6     0.803     0.516 -44.60   0
       133    912.4688    633.8735 300.2618069 +22.8455464      492.312     72.16013      1.802     3.79     5.456119     20.33786     45.26556         6     1.571     0.263   7.55   0
       134    429.6538    632.5043 300.1117639 +22.7005247     399.9598     72.16013      1.903     5.07     5.333019     20.33786     34.13314         8     1.120     0.648  54.60   0
       135    181.9987    632.0468 300.0348448 +22.6261532     652.4341     72.08673      1.570     3.77     5.468198     20.33786     74.19574        11     1.109     0.736  -8.39   0
       136    196.1929    630.2618 300.0398394 +22.6298968     503.9059     72.06837      1.517     3.81     5.480319     20.33786     74.25387        11     1.098     0.797 -80.53   0
       137    965.9196    627.3722 300.2805986 +22.8596797     487.9349     72.10509      1.647     5.73     5.416714     20.33786     51.25407        12     1.262     0.824  -1.45   0
       138    252.4294    627.6419 300.0581844 +22.6460055     295.8283     72.10509      1.416     4.14     5.501497     20.33786     29.94713         5     1.025     0.477  -2.77   0
       139    221.9290    626.8245 300.0489614 +22.6366265     405.4607     72.08673      1.644     4.75     5.494315     20.33786     41.45758         7     1.419     0.450  50.04   0
       140    542.5567    626.4271 300.1489002 +22.7326118     407.0165     72.10509      1.242     3.92     5.426206     20.33786     53.55568         6     0.890     0.494  -1.06   0
       141    443.3485    625.4468 300.1183207 +22.7026019     1837.111     72.12344      1.521     3.03     5.402397     20.33786     225.8235        21     1.120     1.049  36.23   0
       142    477.0007    625.0312 300.1289350 +22.7125673     1054.913        72.05      0.427     2.33      5.42071     20.33786     871.2573         6     0.473     0.346 -35.95   0
       143   1019.2145    623.0901 300.2986245 +22.8744022     889.2975     72.03162      1.727     4.46      5.38142     20.33786     67.25226        20     1.258     1.129  55.48  16
       144     97.3403    620.2476 300.0123518 +22.5973804     20069.35     72.14179      1.838     3.55     5.503898     20.33786     1821.066        73     1.584     1.472  40.69   0
       145     18.6115    622.1656 299.9872558 +22.5743191     668.7148     72.06837      1.750     4.11     5.607438     20.33786     62.69701        12     1.090     0.888  64.30   0
       146    528.4066    620.8892 300.1462913 +22.7267812     946.1331     71.99487      1.493     3.26     5.473833     20.33786     107.2623        14     0.995     0.876  -5.48   0
       147    563.5564    619.8863 300.1575669 +22.7370247     238.5658     72.06837      1.344     4.17     5.517128     20.33786     34.64531         6     1.054     0.472  29.46   0
       148    900.4254    616.7614 300.2636084 +22.8370209     198.1274     72.10509      1.389     4.30     5.426578     20.33786     43.65382         5     1.128     0.466  30.62   0
       149    282.4835    612.4788 300.0724607 +22.6506619     373.1927     72.21514      1.594     3.77      5.50994     20.33786     30.60386         6     0.952     0.428  72.31   0
       150    611.2249    609.3574 300.1758394 +22.7482808     289.2496     72.14179      1.446     3.11     5.615252     20.33786     38.00237         6     0.898     0.647 -77.92   0
       151    946.4121    607.5361 300.2809546 +22.8481362     1029.171     72.03162      1.648     3.45     5.395985     20.33786     101.2177        17     1.121     0.970   6.49   0
       152     43.5368    604.6097 300.0007051 +22.5767570     1495.388     72.03162      2.007     4.96     5.570988     20.33786     132.5603        29     1.683     1.167  84.64   0
       153    813.1867    605.4595 300.2400664 +22.8076504     443.6532     72.06837      1.327     5.23     5.376335     20.33786     47.29946        11     1.242     0.679  21.97   0
       154    491.8384    601.8811 300.1410758 +22.7103638      625.049        72.05      1.948     4.05     5.578638     20.33786     58.97321         9     1.164     0.583 -55.43   0
       155    886.7131    599.7679 300.2648505 +22.8280298     864.9109        72.05      1.891     3.68     5.413531     20.33786     82.96227        15     1.117     0.961 -37.69   0
       156    631.4969    598.2689 300.1857584 +22.7511674     218.7338     72.21514      1.381     3.41     5.596884     20.33786     35.28489         5     0.746     0.451  68.72   0
       157    448.4320    593.9689 300.1301282 +22.6950842     682.5106     72.08673      1.468     3.65     5.566936     20.33786     78.84455        14     1.060     0.927 -76.78   0
       158    596.6721    592.5547 300.1767626 +22.7390933     543.8492     72.06837      1.713     3.67     5.671647     20.33786     55.91639        11     1.077     0.748   0.85   0
       159    644.3367    590.8772 300.1921608 +22.7528896     335.2819     72.16013      1.414     4.16      5.57999     20.33786     46.13119         8     0.997     0.765 -42.40   0
       160    614.1854    590.4449 300.1829050 +22.7437335     526.0928     72.10509      1.561     4.72      5.67753     20.33786     58.81364        11     1.204     0.895 -17.23   0
       161    492.9054    589.6476 300.1453816 +22.7071693     1094.274     72.10509      1.706     2.76     5.601379     20.33786     112.4509        18     1.115     1.057   2.26   0
       162    926.5742    585.3789 300.2819615 +22.8358264     3236.509     72.06837      1.646     3.23     5.380566     20.33786     312.7771        33     1.313     1.204  21.83   0
       163    458.2957    585.0908 300.1360833 +22.6954898     1663.039     72.27011      1.485     2.87     5.592469     20.33786     180.1709        19     1.038     1.023  65.07   0
       164   1023.5797    583.1091 300.3129746 +22.8642108     427.3096     56.54948      1.317     4.35     5.400348     20.33786     59.23878         9     1.223     0.615  87.07  24
       165    823.3929    582.4482 300.2507241 +22.8040917     287.9148     72.08673      1.701     4.11     5.395548     20.33786     30.89917         5     0.988     0.489   6.00   0
       166     20.0875    578.3977 300.0019294 +22.5622022      5156.45     72.01324      1.949     3.76     5.497014     20.33786     490.5845        44     1.518     1.419  36.18   0
       167    966.1363    575.2809 300.2975874 +22.8447656     423.0776     72.19682      1.593     4.66     5.383937     20.33786     36.73015         6     0.971     0.634 -27.43   0
       168    321.6050    571.6561 300.0978936 +22.6506667     9037.092        72.05      1.575     2.93     5.509023     20.33786     1087.571        44     1.318     1.268  78.95   0
       169    444.0640    568.7705 300.1369520 +22.6865373     9123.996     72.10509      1.487     2.90     5.621813     20.33786     956.0198        43     1.273     1.202  46.46   0
       170    209.5086    565.8679 300.0648957 +22.6154031     243.4898     72.21514      1.327     4.78     5.475988     20.33786     30.58371         6     0.942     0.688  -9.50   0
       171    855.8401    563.1422 300.2671155 +22.8082564     1954.066     72.06837      1.542     3.18     5.383807     20.33786     183.8626        26     1.281     1.112 -65.82   0
       172    690.8260    565.1918 300.2149932 +22.7594326     315.4919     72.08673      1.432     5.22     5.519113     20.33786       32.454         7     0.997     0.772 -26.74   0
       173    940.4896    560.4012 300.2944165 +22.8328097     12748.33     71.99487      1.666     3.22     5.367021     20.33786     1176.693        54     1.402     1.318 -81.14   0
       174    504.6761    558.4375 300.1591839 +22.7017301     11756.46        72.05      1.485     2.68     5.662072     20.33786     1378.819        45     1.259     1.189 -88.26   0
       175    674.1590    554.2627 300.2133474 +22.7512998     646.6157     72.06837      1.449     3.53     5.583002     20.33786     74.75462        11     1.063     0.782  47.91   0
       176    232.0672    553.7040 300.0758633 +22.6186732     1332.343     72.21514      1.648     3.76     5.451497     20.33786     136.6257        20     1.228     0.985  29.52   0
       177    478.9756    552.0422 300.1532564 +22.6921926     367.2506     72.14179      1.498     5.42     5.669534     20.33786     50.86531         9     1.460     0.568  50.10   0
       178    389.9959    552.9601 300.1252526 +22.6657939     394.1038     72.10509      1.452     3.62     5.609957     20.33786     31.75439         5     1.016     0.372  33.39   0
       179    436.2705    546.5484 300.1417420 +22.6778187     4318.171     72.08673      1.504     2.76     5.670519     20.33786      541.985        32     1.308     1.115  40.89   0
       180    779.1678    546.7650 300.2485208 +22.7805913     938.0276     72.12344      1.584     2.94     5.436734     20.33786     104.3543        15     1.026     0.910  39.51   0
       181    414.5635    544.9777 300.1354933 +22.6708631     1392.754     72.10509      1.588     3.04     5.667965     20.33786     159.6429        18     1.152     0.994  69.39   0
       182    168.9207    544.2465 300.0592925 +22.5970277     810.6924     72.10509      1.721     4.68     5.496943     20.33786     65.45425        16     1.181     1.113  76.29   0
       183    856.1087    542.4061 300.2739337 +22.8023749     1490.761     71.99487      1.508     3.01     5.366149     20.33786     152.4427        22     1.181     1.034 -23.61   0
       184    102.2994    542.3867 300.0391797 +22.5765196     318.9599     71.99487      1.507     4.02     5.505303     20.33786     36.55167         5     1.142     0.405 -14.65   0
       185    956.2363    540.7095 300.3057258 +22.8318603     306.2928     72.06837      1.582     4.31     5.364249     20.33786     30.90273         5     0.969     0.546  51.13   0
       186    552.9991    534.1653 300.1821186 +22.7092331       207066        72.05      1.457     2.78     5.795566     20.33786     21039.36       196     1.518     1.427 -15.28   0
       187    377.1491    540.4047 300.1253305 +22.6583379     358.9177     72.06837      1.308     3.47     5.612978     20.33786     41.60065         7     0.993     0.503  46.90   0
       188    736.6661    539.2548 300.2377072 +22.7657056     729.8372     72.14179      1.363     2.82     5.477483     20.33786     93.88017        14     1.019     0.817 -69.24   0
       189    830.3399    537.7745 300.2673998 +22.7933283     298.0397     72.08673      1.434     4.66     5.394889     20.33786     30.39038         8     1.041     0.593  17.43   0
       190    239.0127    533.9468 300.0844396 +22.6150823     3541.091     72.10509      1.579     3.15     5.453663     20.33786     343.5283        31     1.282     1.178  59.97   0
       191    805.1837    530.5588 300.2618969 +22.7837219     594.1008     72.10509      1.984     3.27     5.415771     20.33786     48.05993         8     0.802     0.765  35.57   0
       192    585.0018    520.9012 300.1963963 +22.7150080      374.581     71.97648      1.741     3.90     5.903378     20.33786      43.3281         6     1.011     0.524 -77.93   0
       193    443.5985    514.6675 300.1543759 +22.6708560     2795.102        72.05      1.590     2.67     5.719682     20.33786     301.0868        31     1.444     1.090 -84.46   0
       194    288.3042    517.0039 300.1052774 +22.6249911     434.7486     71.99487      1.267     3.46     5.567982     20.33786      53.8076         7     0.752     0.643  54.88   0
       195    854.8495    511.2283 300.2836652 +22.7930333     339.2103     72.10509      1.502     4.29     5.355527     20.33786     38.39943         7     0.915     0.573  51.52   0
       196    614.0270    506.2892 300.2101850 +22.7195025     712.1188     72.06837      0.540     0.91     5.917705     20.33786     513.1263         5     0.464     0.332  72.02   0
       197    761.0557    503.1124 300.2570479 +22.7626189      457.361     72.12344      1.512     3.24     5.574009     20.33786     47.01941         9     0.815     0.745  65.75   0
       198    840.5242    500.7768 300.2825902 +22.7857396     1719.129     72.12344      1.560     2.84     5.359851     20.33786     180.6004        24     1.227     1.087  44.37   0
       199    727.8611    500.6058 300.2475118 +22.7519590     396.0435        72.05      1.438     3.36     5.710816     20.33786     35.74887         5     0.762     0.430  21.68   0
       200    711.9027    498.3910 300.2432557 +22.7465437     2578.272     71.97648      1.449     2.70     5.747672     20.33786     293.8447        25     1.153     1.071  78.34   0
       201    956.0973    496.4799 300.3200448 +22.8190982     449.6957     72.21514      1.412     5.77     5.331991     20.33786     44.66574         9     1.460     0.641  38.09   3
       202    954.9899    492.1404 300.3211082 +22.8175187     832.9587        72.05      1.741     3.61     5.327527     20.33786     76.29855        13     1.100     0.827  86.71   2
       203    616.6680    495.2339 300.2145974 +22.7171162     469.0221     72.08673      1.484     3.10     5.931679     20.33786     53.76115         7     0.824     0.605 -10.91   0
       204    498.8690    494.2222 300.1782265 +22.6815406     726.5806     72.10509      1.444     3.58      5.86145     20.33786      83.2405        13     1.088     0.820  22.84   0
       205    969.2076    492.5646 300.3254077 +22.8218958     1392.837     72.10509      1.648     3.45     5.350356     20.33786     138.5062        23     1.455     1.017 -47.66   0
       206    840.8627    490.8955 300.2859042 +22.7829996     2317.635     72.17847      1.693     3.88     5.353835     20.33786     241.1737        30     1.614     1.040  68.11   0
       207    594.2911    489.0090 300.2096456 +22.7086252     895.6143     72.01324      2.050     2.62     6.013021     20.33786     78.65038         9     0.867     0.655  21.31   0
       208    879.0959    485.9751 300.2994287 +22.7930296     4255.857     71.99487      1.502     2.95     5.328516     20.33786     434.2757        37     1.274     1.215 -43.02   0
       209    380.3538    488.9068 300.1430488 +22.6445059     335.2523     72.10509      1.677     4.19     5.747915     20.33786     34.96088         5     0.807     0.620 -13.41   0
       210    539.7643    481.9939 300.1949351 +22.6902772     436.3135     72.10509      1.568     3.25     6.213519     20.33786     45.49965        10     0.921     0.729  -0.54   0
       211    970.8729    476.5633 300.3311227 +22.8177917      726.314     72.03162      1.557     3.83     5.351227     20.33786     82.81143        13     1.066     0.884 -81.94   0
       212    111.0767    476.1316 300.0634194 +22.5601311     1000.742     72.17847      1.518     3.19     5.568347     20.33786     98.16325        14     1.081     0.879 -25.26   0
       213    967.3630    465.4448 300.3336369 +22.8135432     335.2035     72.12344      1.488     3.50     5.354154     20.33786     37.81119         6     0.833     0.544 -45.62   0
       214    711.3611    460.2726 300.2554623 +22.7354235     515.4406        72.05      1.429     4.32     5.736405     20.33786      57.2571         8     0.931     0.639 -18.83   0
       215    600.5676    458.4376 300.2215262 +22.7017186     392.4368     72.12344      1.616     4.38     5.998954     20.33786     44.18413         7     1.026     0.574 -25.39   0
       216    319.0274    458.1737 300.1339373 +22.6173016     264.0526        72.05      1.779     5.15     5.743998     20.33786     28.47354         6     1.163     0.644  -8.52   0
       217    652.4035    456.2227 300.2383992 +22.7166053     751.9307        72.05      1.347     2.90     5.883225     20.33786     100.3791        15     0.995     0.916  76.15   0
       218    967.0046    448.8893 300.3388997 +22.8086738     524.0476     71.99487      1.448     4.11     5.367152     20.33786     59.71875        11     1.023     0.911  69.59   0
       219    713.3528    448.5796 300.2598791 +22.7326583     1013.373     72.12344      1.544     3.23     5.676409     20.33786     100.9808        15     1.041     0.920   0.03   0
       220    870.6918    444.7267 300.3101980 +22.7786517     1056.623     72.25179      1.548     2.98     5.258344     20.33786     116.2101        15     1.057     0.884 -40.82   0
       221    855.0290    441.3868 300.3063960 +22.7730030      611.251     72.08673      1.346     2.83     5.256859     20.33786     71.45275        11     0.920     0.750  65.25   0
       222    834.9473    441.7352 300.3000187 +22.7670923      255.309     72.12344      1.246     4.52      5.29202     20.33786      35.8088         6     0.965     0.602  58.43   0
       223    599.1005    439.1502 300.2273299 +22.6957356     3195.915     72.17847      1.366     2.64     6.000446     20.33786     345.1242        25     1.095     1.034 -67.98   0
       224    959.6834    438.1457 300.3401023 +22.8033925     564.6284     72.12344      1.379     3.54     5.371321     20.33786     62.98853         9     0.914     0.804  37.93   0
       225    604.5843    427.1573 300.2329315 +22.6939307     347.1207     72.10509      1.310     3.25     5.966061     20.33786     31.58848         5     0.737     0.451 -70.03   0
       226    370.8876    426.6867 300.1602993 +22.6237953     302.0731     72.23347      1.329     3.93     5.747237     20.33786      49.6393         8     0.993     0.789  -4.92   0
       227    439.0078    426.2985 300.1816337 +22.6440914     433.9767     71.95808      1.574     2.61     5.778002     20.33786     48.19876         7     0.707     0.673  -9.17   0
       228    986.2605    424.9718 300.3526736 +22.8075557     283.2686     72.10509      1.422     3.77       5.3931     20.33786     33.61382         5     0.820     0.498 -30.13   0
       229   1010.5701    418.4206 300.3623881 +22.8129449     1267.826     72.08673      1.499     3.25     5.399185     20.33786     135.0822        20     1.110     1.068 -87.55   0
       230    882.3116    418.3367 300.3223893 +22.7745395     583.8815     72.19682      1.638     4.19     5.236101     20.33786     49.98204        11     1.026     0.855  17.38   0
       231    968.8881    417.1088 300.3498036 +22.8000953      1045.37     72.25179      1.677     3.84     5.393406     20.33786     85.10075        18     1.272     0.929  25.56   0
       232    709.5787    413.2037 300.2701852 +22.7213576     1068.993        72.05      1.300     2.59     5.545407     20.33786     141.4673        16     0.994     0.908  62.85   0
       233    505.2973    413.6081 300.2063970 +22.6603010     320.7063     71.97648      1.159     3.46     5.969514     20.33786      53.0826         5     0.736     0.470 -13.48   0
       234    214.0520    411.1763 300.1165284 +22.5723448     663.0171     72.10509      1.562     3.16     5.960889     20.33786     82.67783        11     1.102     0.747 -86.52   0
       235   1009.2493    405.6280 300.3661280 +22.8088692     4468.718     72.10509      1.659     3.25     5.443441     20.33786     441.9194        41     1.381     1.276 -70.33   0
       236    276.1140    406.8049 300.1372558 +22.5896872     3691.981     72.01324      1.515     2.90     5.801482     20.33786      402.586        32     1.238     1.161  31.59   0
       237    223.2195    401.5611 300.1225007 +22.5723305     7395.532     72.12344      1.567     2.85     5.961198     20.33786     868.3461        40     1.317     1.212  55.51   0
       238    989.1901    396.7511 300.3627478 +22.8003135     1871.494     72.10509      1.563     3.38     5.458125     20.33786     186.5363        22     1.150     1.107 -25.65   0
       239    363.9836    395.8503 300.1681580 +22.6128675     4932.477     72.10509      1.478     2.98     5.732514     20.33786     516.0451        31     1.237     1.094  63.60   0
       240    608.2181    392.6490 300.2452637 +22.6850993     18636.08     72.12344      1.453     2.62     5.944845     20.33786     2222.739        65     1.341     1.278  26.26   0
       241    625.7515    393.1068 300.2505790 +22.6904811     841.6927     72.12344      1.810     4.59     5.923682     20.33786     64.12331        16     1.405     0.775 -36.51   0
       242   1007.6846    393.2289 300.3696639 +22.8048337     355.1662     72.08673      1.618     4.65      5.49516     20.33786     29.30064         7     1.134     0.542  26.14   0
       243    235.6109    390.8545 300.1298301 +22.5729687     194.6814     72.08673      1.234     5.04     5.950149     20.33786     28.16618         5     0.968     0.754  -4.11   0
       244    465.5879    389.1851 300.2019558 +22.6413886     482.8661     72.01324      2.411     4.25     5.803844     20.33786     38.02421         5     1.088     0.473 -31.77   0
       245    805.0967    383.2656 300.3096858 +22.7413423     449.4246     72.19682      1.617     4.32     5.331243     20.33786     43.68764         7     0.774     0.686  -9.92   0
       246    941.8133    375.4451 300.3548761 +22.7800079     794.1196     72.08673      1.585     3.41       5.4245     20.33786     90.28327        16     1.203     0.881  41.93   0
       247    478.7856    374.2415 300.2109154 +22.6410469      451.882     72.10509      1.807     3.64     5.826519     20.33786      39.9003         5     0.838     0.486 -45.91   0
       248    162.9502    372.6202 300.1131452 +22.5459567     2070.797     72.06837      1.610     3.13     6.107786     20.33786     203.6834        27     1.243     1.164  53.21   0
       249    176.6062    368.2780 300.1188014 +22.5488022     282.7875     72.01324      1.491     4.08     6.093848     20.33786     29.44195         5     0.986     0.483 -84.94   0
       250    548.9001    362.0393 300.2367148 +22.6585377      6629.41     72.10509      1.416     2.88      6.00881     20.33786     725.5154        36     1.250     1.108  64.37   0
       251    962.7745    362.7775 300.3655286 +22.7826354     1240.965        72.05      1.611     3.35     5.492184     20.33786     122.8425        20     1.184     1.051  84.81   0
       252    263.6082    361.4997 300.1480663 +22.5729257     706.7054     71.97648      1.797     3.74     5.955863     20.33786     69.99827        11     1.040     0.879  10.31   0
       253    244.1699    360.5835 300.1423156 +22.5668382     130.1037     72.08673      1.235     4.35     5.996873     20.33786     31.86816         5     1.105     0.489   3.76   0
       254    121.5896    354.7111 300.1060937 +22.5284177     405.3682     72.03162      1.483     4.98     6.115019     20.33786     45.65227        10     1.096     0.718 -34.72   0
       255    808.8496    353.6462 300.3204681 +22.7339469     408.0076     72.10509      1.501     5.72     5.321106     20.33786     47.08426         8     1.243     0.742 -24.02   0
       256    662.8968    352.6818 300.2752742 +22.6899804     440.6787     72.23347      1.227     2.50      5.96797     20.33786     63.33883         7     0.729     0.608   1.43   0
       257    752.9896    351.1526 300.3038572 +22.7165103     1162.968     72.10509      1.490     3.55     5.337644     20.33786     109.0713        19     1.232     0.941  82.62   0
       258    455.5026    348.2957 300.2120834 +22.6266168     6312.536     72.27011      1.452     2.53     5.799429     20.33786     751.0546        36     1.230     1.127  87.14   0
       259    160.2330    345.1761 300.1212047 +22.5372603     93.16644     72.08673      1.157     5.58     6.119302     20.33786     28.76017         5     1.214     0.724  15.46   0
       260    847.4492    342.8916 300.3359976 +22.7424055     1396.017     72.12344      1.490     2.85     5.252265     20.33786     161.3357        18     1.142     0.893  64.87   0
       261    944.8991    343.2862 300.3662748 +22.7716792     712.1221     72.25179      1.450     3.11      5.44408     20.33786     70.86014         8     0.818     0.654  31.00   0
       262    440.1461    337.3628 300.2108487 +22.6188753     415.2201     72.10509      1.228     2.47     5.769052     20.33786     56.33131         9     0.821     0.686 -65.30   0
       263    522.5650    334.5580 300.2374277 +22.6427521     505.3058     72.14179      1.652     4.52     5.927673     20.33786     60.77303        10     1.050     0.837 -30.11   0
       264    820.3301    330.6197 300.3315204 +22.7307597     442.8019     72.10509      1.418     3.18     5.330112     20.33786     62.81457        10     0.870     0.817  78.23   0
       265    343.1600    327.4694 300.1838643 +22.5869818     2583.539        72.05      1.502     2.71     5.710449     20.33786      279.685        25     1.152     1.102  66.22   0
       266     61.5534    324.4929 300.0972312 +22.5017461     1033.401     72.10509      1.704     3.33     6.069184     20.33786     136.3529        20     1.230     1.108  54.46   0
       267    312.4643    316.8617 300.1777520 +22.5747385     30341.17     72.12344      1.525     2.82     5.760581     20.33786     3586.614        74     1.432     1.280  55.42   0
       268    847.3602    314.6008 300.3451490 +22.7342408     1367.517     72.10509      1.516     2.92     5.329138     20.33786     190.1299        19     1.127     0.984 -82.33   0
       269      8.7101    304.5547 300.0872732 +22.4801820     4907.315     72.06837      1.798     3.57     6.051129     20.33786     451.5544        41     1.462     1.352  44.50  16
       270    762.3891    303.4786 300.3222560 +22.7056125     627.2043     72.06837      1.638     3.51     5.274179     20.33786     72.61533        11     1.232     0.621   1.66   0
       271    186.9778    302.8724 300.1432471 +22.5331235     492.1176     72.10509      1.498     4.57     5.995986     20.33786     61.47375        10     1.168     0.703  84.26   0
       272    411.3215    302.5489 300.2131680 +22.6002368     484.6781     72.08673      1.168     3.25     5.709899     20.33786     70.81399         9     1.118     0.484  -6.52   0
       273    722.9378    296.8580 300.3121028 +22.6919006     1953.213     72.14179      1.471     2.76     5.346106     20.33786     243.1162        23     1.117     1.035 -87.40   0
       274    531.1348    291.7337 300.2539905 +22.6330077     847.4492     72.14179      0.655    -0.06     5.942435     20.33786     455.4589         9     0.743     0.527  85.58   0
       275    937.9379    289.9347 300.3814121 +22.7542461     633.7755     72.12344      1.385     3.43     5.400421     20.33786     79.60105        12     1.048     0.782  18.63   0
       276    384.7209    281.2426 300.2117977 +22.5861465     2223.385     72.06837      1.679     3.26     5.680561     20.33786     228.2113        26     1.376     1.033  72.19   0
       277    597.0936    280.4683 300.2781950 +22.6495169      261.305     72.23347      1.233     3.10     5.939357     20.33786      37.8361         5     0.738     0.593  74.58   0
       278    816.4600    275.5494 300.3481792 +22.7137603     225.7363     72.14179      1.599     5.05     5.469514     20.33786      31.3316         7     1.032     0.698  44.36   0
       279    823.5616    274.2439 300.3508178 +22.7155098      546.083     72.17847      1.539     4.23      5.48319     20.33786     77.67947        10     1.048     0.803  41.26   0
       280    706.1823    272.3672 300.3148236 +22.6798420     328.4074     72.06837      1.431     3.16     5.615816     20.33786     42.90036         6     0.733     0.613 -46.66   0
       281    674.4088    271.3777 300.3052398 +22.6700471     327.2794     72.08673      1.272     3.12     5.903565     20.33786     42.48099         5     0.892     0.454  12.78   0
       282    460.5330    260.7238 300.2420588 +22.6029527      1239.55     72.17847      1.505     2.89     5.775009     20.33786     129.0186        17     1.122     0.897  61.07   0
       283    267.8489    260.6744 300.1820939 +22.5452289      385.132     72.08673      1.924     4.35     5.806324     20.33786     33.95064         6     0.978     0.550  64.56   0
       284     33.2072    260.6018 300.1091436 +22.4749025     197.8216     71.90288      1.108     3.49     6.044652     20.33786     27.41735         5     1.217     0.289  54.19   0
       285    971.8176    257.5421 300.4024934 +22.7550600     429.2459     72.06837      1.259     3.33      5.51667     20.33786     47.80348         5     0.764     0.422  24.62   0
       286    843.4607    254.2561 300.3635083 +22.7157138     345.1904     72.16013      1.188     3.47     5.610376     20.33786     37.34575         5     0.743     0.468  72.69   0
       287    705.4329    252.7062 300.3209673 +22.6739629     2252.963     72.03162      1.459     2.59     5.720879     20.33786     274.2715        24     1.134     1.059  76.62   0
       288    966.8068    247.1189 300.4043103 +22.7505615     3290.852     72.01324      1.604     3.00     5.564482     20.33786     370.0098        30     1.273     1.200 -74.33   0
       289    413.6581    236.3673 300.2353619 +22.5819146     768.4846     72.10509      1.653     3.66     5.709113     20.33786      77.3848        15     1.136     0.918  31.99   0
       290    119.5232    230.3210 300.1457995 +22.4920708     626.1924     72.19682      1.749     5.97     5.994134     20.33786      68.2382        14     1.444     0.914 -47.21   0
       291     88.8310    230.4511 300.1362139 +22.4829117     1490.267     72.12344      1.907     3.53     6.001755     20.33786     144.7481        20     1.273     1.008 -29.33   0
       292    982.5337    227.9987 300.4154204 +22.7497630     424.8014     72.06837      1.244     2.81     5.613966     20.33786     67.31818        10     1.006     0.593  29.24   0
       293    826.7730    225.1130 300.3677550 +22.7023361     319.1013     72.08673      1.457     4.13     5.758139     20.33786     38.28578         6     1.100     0.443  60.49   0
       294    173.0163    222.3119 300.1650330 +22.5057971     374.2383     72.01324      1.331     3.82     6.005328     20.33786     54.14598         9     1.108     0.711 -58.52   0
       295    968.2816    219.9046 300.4135971 +22.7431705     252.3362     72.25179      1.222     4.25     5.703503     20.33786     37.61394         6     0.789     0.652  15.89   0
       296     28.3298    219.3398 300.1210085 +22.4615904     349.3336     72.12344      1.651     4.34     6.119246     20.33786     44.94389         5     0.892     0.602 -35.04   0
       297    848.9038    216.9133 300.3773176 +22.7065982     342.9951     72.27011      1.145     2.15      5.80595     20.33786     56.03172         5     0.725     0.494 -56.08   0
       298    776.9338    214.1203 300.3557758 +22.6842609     563.2806     72.19682      1.323     3.07     5.762305     20.33786     78.84451        11     1.012     0.776  56.11   0
       299    367.5759    213.6713 300.2283753 +22.5615909     466.4374     72.12344      1.500     3.22      5.70773     20.33786     56.34426         8     0.921     0.649  -3.41   0
       300    867.8571    207.4527 300.3862984 +22.7095464     375.3164     72.14179      1.552     4.03     5.843158     20.33786     42.80779         6     0.976     0.491  -5.36   0
       301     51.6257    206.1992 300.1325111 +22.4647970     366.3651     72.03162      1.996     3.44     6.180679     20.33786      25.8721         5     0.775     0.441 -71.73   0
       302    875.2430    203.2793 300.3899560 +22.7105551     2063.526     72.06837      1.472     2.69     5.843589     20.33786     246.8708        25     1.125     1.072 -25.14   0
       303    774.0048    194.6187 300.3611864 +22.6777741     555.8669     72.03162      1.537     5.01     5.776449     20.33786     62.17464        10     1.506     0.582 -63.27   0
       304    371.8834    195.4940 300.2356105 +22.5576561     1259.955     72.27011      1.696     3.25     5.714673     20.33786     129.7272        22     1.290     0.992   9.26   0
       305    418.7515    192.3144 300.2512333 +22.5707764     402.2603     72.06837      1.594     3.40     5.719569     20.33786     44.13575         6     1.039     0.421  84.00   0
       306    293.7803    200.2618 300.2097548 +22.5356359     2184.881        72.05      1.576     3.20     5.725201     20.33786     219.6281        24     1.211     1.092 -77.86   0
       307    188.5903    187.4875 300.1811692 +22.5004571     760.7186     72.01324      1.691     3.58     6.038857     20.33786     80.40165        14     1.123     0.937 -59.91   0
       308    791.3213    184.4798 300.3698745 +22.6800383     588.0465     72.21514      1.441     4.41     5.782602     20.33786     60.32647        11     1.145     0.800  82.09   0
       309    726.4816    184.5133 300.3496447 +22.6606467     1641.405     72.21514      1.394     2.41     5.788854     20.33786     209.0731        22     1.187     0.976  71.09   0
       310    209.9818    180.9287 300.1899500 +22.5049803     477.5046     72.10509      1.470     3.58     6.048394     20.33786     61.24784        10     0.963     0.718  21.04   0
       311    998.1361    177.4630 300.4366788 +22.7398839     702.2194     72.12344      1.338     3.26     6.369317     20.33786     96.19814        15     1.096     0.943  51.60   0
       312    730.2977    176.0951 300.3535641 +22.6593669     887.4412     72.27011      1.645     3.71     5.777297     20.33786     87.34023        14     1.086     0.945 -67.87   0
       313    499.8047    176.5903 300.2815736 +22.5905228     411.5177     71.93969      1.323     2.85     5.763536     20.33786     64.41273         8     0.932     0.699  37.46   0
       314    650.9832    175.3177 300.3290908 +22.6354081     1166.594        72.05      1.422     2.67     5.793104     20.33786     147.9933        19     1.076     0.988 -31.90   0
       315    471.8583    171.8684 300.2744004 +22.5807987     419.1579     72.10509      1.488     1.82     5.750919     20.33786     59.73486         6     0.700     0.524  48.99   0
       316    846.4590    166.8025 300.3928044 +22.6914477     1467.703        72.05      1.533     3.35     5.875942     20.33786     141.2536        22     1.241     1.013  69.05   0
       317    858.3768    166.0650 300.3967614 +22.6948006     863.3539     72.06837      1.595     3.60     5.894886     20.33786     79.00903        19     1.288     0.950  18.12   0
       318    577.1047    166.8524 300.3088124 +22.6108618     945.7589     72.16013      1.459     3.08     5.773207     20.33786     107.0511        14     0.995     0.911 -24.00   0
       319   1019.4184    156.9805 300.4499638 +22.7403522     1659.268     72.08673      1.636     3.64     6.829357     20.33786     160.0079        25     1.276     1.193 -69.24  16
       320    975.0813    156.3431 300.4363305 +22.7269096     1085.854     72.12344      1.468     2.92     6.403274     20.33786     139.1226        19     1.187     1.034   4.00   0
       321    209.3198    148.9864 300.2000998 +22.4956031     735.0538     72.06837      1.469     4.88     6.102654     20.33786     75.36372        16     1.474     0.898 -37.38   0
       322     91.2949    147.9751 300.1637211 +22.4599571     318.0383     72.01324      1.595     4.11     6.209408     20.33786     33.51147         5     0.821     0.588  -3.06   0
       323     71.0677    143.7450 300.1588034 +22.4526818     2281.952     72.12344      1.790     3.64     6.412896     20.33786     239.3743        35     1.431     1.346  65.61   0
       324    894.2078    141.3017 300.4159690 +22.6983921     743.1057     71.95808      1.480     3.43     5.932075     20.33786     82.75871        13     0.972     0.933 -87.14   0
       325     21.0681    140.0574 300.1444556 +22.4366418     415.5772     72.10509      1.522     5.47     6.845378     20.33786     47.61187         8     1.062     0.794  81.71   0
       326    228.4265    137.1373 300.2098851 +22.4979206     5723.788     72.08673      1.579     2.88     6.122539     20.33786     585.2066        41     1.353     1.231  77.65   0
       327    210.5632    137.8132 300.2041087 +22.4927646       375.58     72.08673      1.719     5.09     6.146496     20.33786      33.0893         9     0.942     0.777 -60.56   0
       328     12.5702    131.5026 300.1445873 +22.4316382     1329.671     72.03162      1.889     3.72     6.892199     20.33786     127.8118        23     1.502     1.141   8.52   0
       329    211.9775    128.2457 300.2076501 +22.4904387     691.1438     72.12344      1.533     3.33     6.185922     20.33786     64.11333        10     0.917     0.809 -40.06   0
       330   1023.8817    125.1686 300.4616708 +22.7325286     295.8813     54.86248      1.595     4.56     6.879613     20.33786     39.80598         8     1.853     0.319 -88.31  24
       331    872.6924    118.9409 300.4165053 +22.6855210     3512.646     72.16013      1.545     3.08     5.917399     20.33786     390.5753        33     1.326     1.194 -88.97   0
       332    976.3502    117.8808 300.4491960 +22.7162173     2832.553     72.10509      1.586     3.13      6.41176     20.33786     284.1332        31     1.300     1.185 -69.99   0
       333    421.9773    114.1424 300.2775809 +22.5492677     735.2743     72.08673      1.392     2.95     5.802801     20.33786     88.03735        12     0.939     0.829  81.44   0
       334    536.7050    111.8588 300.3140536 +22.5829538      365.705     72.16013      1.795     3.06     5.768337     20.33786     44.13362         5     0.841     0.446  40.09   0
       335    346.2295    105.9312 300.2566601 +22.5242283     907.8834     72.06837      2.388     5.68     5.822697     20.33786     73.07871        16     1.387     1.071 -22.38   2
       336    401.5313    102.0310 300.2751405 +22.5396643     457.1324     72.06837      1.279     3.11      5.82051     20.33786     73.13454        10     0.869     0.813  -7.40   0
       337    112.6164    102.6931 300.1850287 +22.4533341     580.1859     72.01324      1.538     3.58     6.477815     20.33786     78.27511        10     1.075     0.832  82.12   0
       338    473.3390    101.1885 300.2977744 +22.5609183      1718.44     72.03162      1.522     2.88     5.819314     20.33786      177.361        21     1.168     1.006  67.06   0
       339    534.9399    100.8753 300.3170639 +22.5792666      530.436     72.14179      1.412     2.56     5.771533     20.33786     57.17355         6     0.727     0.564  42.92   0
       340    217.3645     96.5940 300.2195852 +22.4829555     431.0321     72.10509      1.639     3.19     6.298559     20.33786     47.11322         5     0.901     0.538 -40.47   0
       341    761.9474     91.4206 300.3908832 +22.6444739     359.5467     72.08673      1.284     4.11       5.9082     20.33786     59.49162        10     1.268     0.625   6.69   0
       342    907.8174     85.6712 300.4382490 +22.6864505     380.3379     72.10509      1.445     2.65     5.942754     20.33786      56.1852         5     1.010     0.488 -58.95   0
       343    247.4194     80.9785 300.2339970 +22.4874679     6015.775     72.08673      1.625     3.01     6.119527     20.33786      587.174        40     1.392     1.234  70.53   0
       344    753.9005     81.9322 300.3914493 +22.6393363     398.9951     72.17847      1.637     3.06     5.958654     20.33786     42.82492         5     0.775     0.509 -28.89   0
       345     98.7326     80.7539 300.1878219 +22.4428712     890.1109     72.06837      2.024     4.84     6.547339     20.33786     68.49339        16     1.473     0.805 -34.13   0
       346    219.4834     74.9009 300.2272751 +22.4773551     312.6112     72.25179      1.295     4.16     6.198951     20.33786     37.90592         5     0.881     0.561 -47.25   0
       347    262.8773     72.6952 300.2414912 +22.4897158     414.5941     72.21514      1.520     3.71     6.044776     20.33786     41.50077         6     0.760     0.618 -51.23   0
       348      9.2163     71.6401 300.1629466 +22.4134363     340.7133     72.10509      1.464     3.56     6.760944     20.33786     45.23365         5     0.794     0.461 -12.03   0
       349    493.5484     66.3798 300.3153505 +22.5569570     6427.726     72.06837      1.547     2.75     5.837788     20.33786     742.2363        37     1.321     1.175  87.90   0
       350    379.0027     66.5142 300.2796375 +22.5227077     576.0607     72.01324      1.455     3.51      5.86205     20.33786     67.55199        12     1.017     0.913 -39.13   0
       351    550.8024     61.2017 300.3348642 +22.5726029     307.5525     71.86605      1.263     2.84     5.915485     20.33786     46.50692         6     0.740     0.556 -39.19   0
       352    746.1908     56.2891 300.3973561 +22.6296508     1050.213     72.01324      1.950     5.26      6.11584     20.33786     75.20264        19     1.462     1.016 -65.05   2
       353    838.6074     55.4645 300.4264463 +22.6570567     405.8388     72.06837      1.060     2.64     6.043133     20.33786     63.70773         8     0.948     0.498  -1.80   0
       354    907.0468     53.0382 300.4485850 +22.6768262      272.631     72.14179      1.189     4.56     5.958876     20.33786     30.43731         7     1.089     0.542 -31.44   0
       355    147.1080     52.1091 300.2121482 +22.4491292     242.9159     72.25179      1.355     4.99     6.513484     20.33786     31.55974         7     1.041     0.677  -2.94   0
       356    186.7190     50.1949 300.2250889 +22.4604420     464.3867     72.01324      1.430     2.88     6.320227     20.33786     52.46948         6     0.722     0.577 -56.80   0
       357    544.5605     49.2731 300.3367852 +22.5673037     393.9493     72.06837      1.260     3.06     5.947855     20.33786     57.98611        10     0.944     0.696   0.98   0
       358    621.9079     46.5453 300.3617705 +22.5896643     6334.456     72.14179      1.494     2.82     6.173188     20.33786     791.0223        40     1.303     1.181 -85.06   0
       359    396.8737     45.3706 300.2920533 +22.5219779     1566.448     72.10509      1.538     2.62      5.92995     20.33786     208.9963        23     1.141     1.118 -74.89   0
       360    662.9337     44.1458 300.3753350 +22.6012489      844.769     72.14179      1.361     2.68     6.235369     20.33786     112.2579        12     0.924     0.784  65.33   0
       361    678.9175     39.8964 300.3816944 +22.6048082     554.7042     72.25179      1.599     3.99     6.276101     20.33786     64.90161        10     1.108     0.744 -39.73   0
       362    145.7245     37.7892 300.2163581 +22.4445993     617.0844     72.10509      1.609     3.72     6.530073     20.33786     71.43192        13     1.226     0.912  89.88   0
       363    948.7213     38.2068 300.4663966 +22.6850182     356.2687     72.01324      1.291     3.01     5.891806     20.33786     48.45662         6     0.734     0.602  19.31   0
       364    717.5240     35.3011 300.3952193 +22.6150356     512.6117     72.21514      1.648     4.74     6.280761     20.33786     61.25583         9     1.263     0.742 -84.63   0
       365    666.0902     31.5074 300.3804144 +22.5985568     2734.031     72.25179      1.465     2.78     6.345765     20.33786     324.7696        25     1.181     1.051  70.57   0
       366    680.9568     30.2640 300.3854515 +22.6026467     821.2424     72.08673      1.560     4.49     6.361916     20.33786      89.3187        17     1.501     0.817  54.27   0
       367    752.5285     23.1803 300.4100615 +22.6220185     1418.273     72.12344      1.505     2.93     6.291234     20.33786     140.1586        20     1.130     1.012  35.26   0
       368    154.2289   1017.2408 299.9009848 +22.7283366     771.6256     72.10509      2.350     6.20     97.87327     20.33786     39.43748         8     1.528     0.706 -77.91  16
       369    732.7969   1014.1731 300.0821217 +22.9009859     519.2614        72.05      1.886     4.76     3.691502     20.33786     34.31725         6     1.122     0.573  22.34   0
       370    295.7638   1011.6422 299.9468311 +22.7691997     1292.041     72.16013      3.306     5.53     6.137723     20.33786     89.95482        24     1.708     1.022  52.79   2
       371    293.2969   1013.6537 299.9454091 +22.7690367     452.0266     72.16013      1.146     2.58     6.233499     20.33786     47.71669         5     0.703     0.471 -79.55   3
       372    130.9065   1007.3073 299.8969648 +22.7184887     1704.312     72.25179      2.939    14.53     88.46587     20.33786     70.35379        56     3.259     1.803 -36.15  16
       373      8.0000   1009.8423 299.8579359 +22.6823255     1194.766     72.06837      4.225     3.84    -3.307606     20.33786     30.92132         5     1.468     0.289  90.00  17
       374    198.2228   1002.9085 299.9193292 +22.7374282     1511.984     72.01324      3.798    17.79     85.46601     20.33786     53.38862        44     3.262     2.695  43.09   3
