#   1 NUMBER                 Running object number                                     
#   2 X_IMAGE                Object position along x                                    [pixel]
#   3 Y_IMAGE                Object position along y                                    [pixel]
#   4 ALPHA_J2000            Right ascension of barycenter (J2000)                      [deg]
#   5 DELTA_J2000            Declination of barycenter (J2000)                          [deg]
#   6 FLUX_APER              Flux vector within fixed circular aperture(s)              [count]
#   7 FLUXERR_APER           RMS error vector for aperture flux(es)                     [count]
#   8 FLUX_RADIUS            Fraction-of-light radii                                    [pixel]
#   9 FWHM_IMAGE             FWHM assuming a gaussian core                              [pixel]
#  10 BACKGROUND             Background at centroid position                            [count]
#  11 THRESHOLD              Detection threshold above background                       [count]
#  12 FLUX_MAX               Peak flux above background                                 [count]
#  13 ISOAREA_IMAGE          Isophotal area above Analysis threshold                    [pixel**2]
#  14 A_IMAGE                Profile RMS along major axis                               [pixel]
#  15 B_IMAGE                Profile RMS along minor axis                               [pixel]
#  16 THETA_IMAGE            Position angle (CCW/x)                                     [deg]
#  17 FLAGS                  Extraction flags                                          
         1    883.9877     11.1310 300.4923841 +22.6458914     471.1573     72.75194      1.258     2.41     4.089601     20.52031     66.06099         6     0.743     0.536 -41.75   0
         2    251.4398      7.1904 300.2967275 +22.4553326     378.2292     72.73341      1.295     5.06     4.900696     20.52031     52.87372        10     1.282     0.756  88.11  16
         3    117.7296      2.2817 300.2567595 +22.4138511     1025.128     61.86115      1.225     2.52     4.989153     20.52031     132.6468        14     0.900     0.882  11.70  24
         4    179.8902   1018.6285 299.9458814 +22.7240700     558.8107     72.71488      2.934     3.99     13.22149     20.52031      39.1712         5     1.020     0.488  37.76  16
         5    524.0719   1023.7451 300.0512493 +22.8288706     708.7532     56.20017      1.169     3.27     2.699234     20.52031     128.3037         8     1.089     0.434   2.01  24
         6    131.6004   1022.8245 299.9295112 +22.7107687     659.5182     61.11607      5.088     5.80     17.38965     20.52031     42.47454         8     1.066     0.942   4.39  26
         7    110.5845   1022.8734 299.9229664 +22.7044702     962.9053     60.93943      9.740    11.03      17.2272     20.52031     43.05713        19     2.185     1.550 -15.83  27
         8    101.6643   1022.8997 299.9201868 +22.7017983     846.4236     60.93943      6.139     8.60     17.15758     20.52031     38.81264        16     2.571     0.804  19.11  27
         9     43.7255   1018.6990 299.9035588 +22.6831903     5281.854     72.86298     22.700    71.59     17.17798     20.52031       182.23      1272    23.182     6.135  -7.42  27
        10    241.3757   1003.1083 299.9700431 +22.7380867     236.2001     72.67781      1.319     3.51     3.864031     20.52031     34.11656         5     0.838     0.424  71.09   0
        11     94.8920    999.6726 299.9256448 +22.6931091     886.3918     72.89996      5.778     5.36     14.45148     20.52031     41.69893         9     1.223     0.663  74.57   1
        12    895.0314    997.9327 300.1751971 +22.9327557     2059.825     72.73341      1.679     3.72     2.661511     20.52031     139.2933        27     1.307     1.137 -86.95   0
        13    544.8108    995.4335 300.0669217 +22.8269752     341.0555     72.71488      1.413     4.11     3.122204     20.52031     48.54661         8     0.848     0.807 -74.80   0
        14    393.3068    994.3670 300.0201295 +22.7811963     270.9636     72.67781      1.333     4.50     2.995247     20.52031     52.97571         6     0.946     0.608 -66.79   0
        15    683.9396    986.7248 300.1130737 +22.8662231     746.6326     72.78897      2.076     6.21     3.062075     20.52031     59.04723        17     1.410     0.993  44.51   0
        16   1010.5371    985.7571 300.2151767 +22.9638945     444.6904     72.73341      1.741     5.77     2.354626     20.52031     42.33906         9     1.201     0.781  88.55   0
        17    495.8899    982.0586 300.0560512 +22.8084577     413.4987     72.82598      1.448     4.75     2.707257     20.52031     48.49096        10     1.060     0.798 -83.53   0
        18    718.4559    981.0276 300.1256790 +22.8749433      1144.88     72.73341      1.669     3.88     3.060515     20.52031     90.63471        19     1.193     1.029  78.38   0
        19     41.5513    997.7483 299.9097041 +22.6765351     3612.373     72.77045     13.613    53.98      14.3183     20.52031     77.79199       896    11.830     6.835 -26.12  27
        20    740.7877    974.6445 300.1347134 +22.8798108     11450.26     72.73341      1.542     3.14     3.044785     20.52031     1034.579        47     1.276     1.239 -88.01   0
        21    931.5499    973.9540 300.1943888 +22.9368235     405.5836     72.75194      1.459     5.21      2.60197     20.52031     43.05253        10     1.183     0.660  56.09   0
        22    786.7843    974.9011 300.1489601 +22.8936811     532.3531     72.64072      1.529     4.29     2.909333     20.52031     60.42221        10     1.042     0.769  -4.05   0
        23     52.4424    966.7557 299.9231749 +22.6709271     722.6946     72.82598      1.991     3.93     10.16652     20.52031     78.38754        12     1.298     0.788  18.64   0
        24    446.1106    962.5941 300.0468987 +22.7879355     331.6481     72.64072      1.353     5.13     3.012139     20.52031      37.3536         8     1.110     0.670  -3.41   0
        25    792.3857    962.1497 300.1548566 +22.8917018     436.4187     72.75194      1.417     3.32     2.917972     20.52031     47.28563         8     0.959     0.582 -18.79   0
        26    381.0956   1006.2559 300.0124609 +22.7809392     422.2459     72.78897      1.618     6.00     2.940599     20.52031     42.56616        11     1.128     0.898  39.08   0
        27    749.3085    956.7141 300.1432049 +22.8772214     1437.947     72.89996      1.522     3.31     3.028286     20.52031     133.1242        18     1.135     0.961  68.24   0
        28    932.5832    955.5911 300.2006890 +22.9318619     486.0518     72.67781      1.671     5.12     2.980285     20.52031     45.72623        10     1.236     0.600  37.16   0
        29    601.6458    953.9490 300.0981186 +22.8321302     489.8079     72.75194      1.524     3.79     3.114256     20.52031     41.16337         5     0.877     0.471  83.51   0
        30    787.4185    950.1130 300.1572271 +22.8867576     925.0918     72.67781      1.818     4.13     2.950176     20.52031     75.75318        14     1.091     0.948 -13.12   0
        31    896.0292    947.0573 300.1920711 +22.9184516     437.9096     72.73341      1.466     4.78      3.18304     20.52031     42.48357         9     0.827     0.782 -46.87   0
        32    787.3834    944.5817 300.1590168 +22.8851597     426.5508     72.71488      3.121     5.24     2.958345     20.52031     24.49975         5     1.071     0.725 -22.89   0
        33    687.1088    940.6550 300.1290580 +22.8539557     705.5828     72.78897      1.425     3.66     3.101623     20.52031     75.33044        15     1.039     1.001 -69.93   0
        34    835.8298    941.2653 300.1751930 +22.8987371     576.6686     72.75194      1.519     3.62     3.082866     20.52031     61.03602         8     0.806     0.679  16.75   0
        35    399.8473    936.9852 300.0408426 +22.7667062     4186.458     72.75194      1.438     2.91     3.203032     20.52031     467.8332        32     1.199     1.123 -56.67   0
        36    698.7473    937.5607 300.1336900 +22.8565590     541.9462     72.71488      1.409     3.70     3.092785     20.52031      69.2335        12     1.032     0.823  80.99   0
        37    443.3488    925.3073 300.0581760 +22.7764135     345.9501     72.80748      1.435     4.04     3.309918     20.52031     43.05217         7     1.053     0.444  61.39   0
        38    177.7581    925.8190 299.9754292 +22.6968311     501.2646     72.75194      1.776     4.84     4.242391     20.52031     38.04777         7     1.005     0.661 -17.97   0
        39    124.9285    922.6412 299.9600486 +22.6800562     828.8019     72.71488      1.747     3.03     5.208483     20.52031     76.44925        12     1.033     0.839  42.00   0
        40      6.4038    922.8152 299.9231788 +22.6445086     92.98738     72.58505      1.066     4.29     3.952102     20.52031     25.08817         5     0.955     0.549  40.70  16
        41     33.7325    921.3527 299.9321412 +22.6522981     236.9081     72.71488      1.138     3.91      4.53852     20.52031     49.92503         6     1.014     0.609  44.63   0
        42    102.1369    919.8062 299.9538908 +22.6723992     1598.856     72.69635      1.681     3.37     5.712876     20.52031     181.6705        24     1.326     1.122  26.60   0
        43    973.9006    908.4210 300.2289264 +22.9307064     2119.027     72.65927      1.615     3.37     3.572981     20.52031     164.9391        23     1.145     1.099 -70.52   0
        44    633.1965    907.5807 300.1230341 +22.8282929     569.5229     72.69635      2.186     4.26     3.260173     20.52031     46.15696         6     1.335     0.387 -85.98   0
        45    928.0542    906.9837 300.2150989 +22.9165493     1949.173     72.71488      1.444     3.14     3.554302     20.52031     177.5096        23     1.112     1.060 -26.00   0
        46    133.9482    901.2698 299.9698056 +22.6766396     484.2575     72.71488      1.569     4.71     4.450635     20.52031     47.31596        10     1.222     0.851 -40.99   0
        47    711.7024    900.8069 300.1496876 +22.8498982     567.2086     72.60361      1.241     3.15     3.271812     20.52031     84.42134        10     0.880     0.761 -58.83   0
        48    579.7988    894.9714 300.1105130 +22.8086558     4895.664     72.69635      1.353     2.42     3.384609     20.52031     675.7886        27     1.094     1.026  63.40   0
        49     69.1628    895.6526 299.9515082 +22.6555746     561.6634     72.75194      1.643     5.94     4.563364     20.52031     44.42859        11     1.265     0.784  11.51   0
        50    381.7156    892.3376 300.0497333 +22.7484608     630.2775     72.82598      1.508     3.48     3.315473     20.52031     82.50323        14     1.037     0.991 -17.11   0
        51    129.9453    888.9045 299.9725856 +22.6718935     1482.805     72.80748      1.657     3.63     4.217276     20.52031     126.2729        22     1.252     1.066   8.13   0
        52    600.3873    887.5035 300.1193528 +22.8126899      746.149     72.62217      1.283     2.45     3.402362     20.52031     101.8868        14     0.919     0.866  84.42   0
        53    398.3300    887.3762 300.0565156 +22.7520243      317.395     72.75194      1.531     4.07      3.35705     20.52031     36.99248         7     1.124     0.684 -32.60   0
        54    149.6024    886.4648 299.9794870 +22.6770968     365.4869     72.73341      1.396     4.04     3.925186     20.52031     39.85573         7     0.892     0.646  63.10   0
        55    516.9220    878.0237 300.0964571 +22.7849289     286.8653     72.73341      1.298     3.04     3.499171     20.52031     51.26826         6     0.744     0.693 -69.79   0
        56    755.8870    874.6519 300.1719633 +22.8556434     4215.906     72.77045      1.389     2.54     3.445454     20.52031     527.9846        30     1.161     1.095  67.86   0
        57    972.7280    874.6569 300.2395493 +22.9206597      1147.78     72.75194      1.488     3.92     3.578178     20.52031     114.8981        18     1.196     0.965  -3.79   0
        58    486.8339    871.5433 300.0892025 +22.7740420     359.6015     72.75194      1.309     3.47     3.529695     20.52031     42.04959         5     0.795     0.439  20.88   0
        59    164.2892    869.2213 299.9896612 +22.6765638      434.681     72.65927      1.398     4.07     3.613827     20.52031     41.83516        10     0.915     0.789 -49.97   0
        60    472.8542    867.3974 300.0862016 +22.7686581     603.5497     72.69635      1.342     3.08     3.535102     20.52031     95.65913        11     1.086     0.706 -26.50   0
        61    119.0215    865.2745 299.9768805 +22.6618405      979.296     72.73341      1.548     3.45     3.631499     20.52031     96.14201        18     1.198     0.939  73.34   0
        62    268.8676    857.4817 300.0259844 +22.7045939     53301.25     72.84448      1.456     2.68     3.575199     20.52031     5741.382       100     1.375     1.337  73.79   0
        63    534.4108    860.5632 300.1075817 +22.7851671     437.8806     72.71488      1.204     2.60     3.553012     20.52031     67.96367        10     0.868     0.746  -9.35   0
        64    526.7955    856.4568 300.1065477 +22.7817042      1524.25     72.69635      1.346     2.53     3.561621     20.52031     194.2188        16     0.965     0.912 -31.44   0
        65    197.2266    855.6927 300.0042984 +22.6825745     519.8244     72.67781      1.669     5.09     3.668141     20.52031      51.3564        10     1.186     0.722 -50.52   0
        66    939.5955    855.3590 300.2354978 +22.9051864     934.6207     72.75194      1.559     3.67     3.587959     20.52031     85.32336        18     1.215     0.976 -36.05   0
        67    555.6212    852.3936 300.1168418 +22.7891866     846.4584     72.71488      1.228     2.33      3.56678     20.52031     130.5553        14     0.968     0.800 -44.44   0
        68    566.7396    850.8529 300.1208040 +22.7920800     646.4745     72.78897      1.297     2.34     3.564052     20.52031      91.7153        10     0.803     0.742  22.63   0
        69    886.6487    847.6650 300.2214947 +22.8871046     349.1964     72.75194      1.768     3.51     3.725661     20.52031     48.22814         5     1.017     0.350 -19.36   0
        70    671.9396    846.9430 300.1548311 +22.8225140     438.8986     72.80748      1.406     4.82     3.559928     20.52031     54.68497        10     0.955     0.781  31.86   0
        71    467.3271    844.5135 300.0919276 +22.7604353     367.9884     72.86298      1.370     3.07     3.530776     20.52031     48.23726         5     0.894     0.498   3.20   0
        72    318.5670    834.6924 300.0488511 +22.7129766     31353.45     72.67781      1.418     2.51     3.502008     20.52031     4146.367        72     1.277     1.243 -87.21   0
        73    709.6466    837.0535 300.1697930 +22.8309846     750.0881     72.77045      1.320     3.48     3.691125     20.52031     95.82706        11     1.040     0.794 -67.10   0
        74    332.8203    835.1358 300.0531390 +22.7173816     2076.458     72.71488      1.419     2.67       3.4744     20.52031     254.2608        23     1.179     0.991  71.52   2
        75    329.6043    828.9506 300.0541512 +22.7146426     528.2911     72.71488      1.365     3.91     3.486979     20.52031     63.37531        11     0.988     0.889  17.37   2
        76    841.6660    830.3665 300.2131024 +22.8686519     2600.412     72.73341      1.375     2.55     3.883503     20.52031     295.4308        25     1.106     1.044  -9.31   0
        77    599.3948    826.6971 300.1388292 +22.7949447     977.8755     72.64072      1.429     2.75     3.564125     20.52031     115.2873        17     1.026     0.978 -50.36   0
        78    200.9717    826.4605 300.0149725 +22.6753181     836.2137     72.75194      1.432     2.71     3.650479     20.52031     91.15826        15     1.004     0.836  -5.08   0
        79    436.1851    826.3687 300.0881417 +22.7458860     528.5905     72.73341      1.458     3.33     3.469083     20.52031     53.19455         8     0.897     0.625  12.73   0
        80    446.7213    821.3988 300.0930365 +22.7476218     803.8776     72.62217      1.181     2.46     3.491653     20.52031     122.4051        11     0.877     0.755  82.89   0
        81      5.9999    822.1294 299.9558126 +22.6155355      550.729     72.64072      1.633     4.89     3.705572     20.52031     50.45033         9     1.001     0.791 -28.45  16
        82    847.8826    818.0931 300.2190331 +22.8669919      340.308     72.89996      1.233     2.76     3.974247     20.52031     65.96056         8     0.826     0.621  39.11   0
        83    348.5189    817.7938 300.0636627 +22.7171194     407.3396     72.65927      1.397     2.50     3.446132     20.52031     58.90421         5     0.723     0.458 -69.05   0
        84    304.8091    817.1267 300.0502877 +22.7038100     338.0609     72.73341      1.319     3.10     3.571333     20.52031     53.78539         6     0.761     0.592  10.25   0
        85     34.0497    816.3578 299.9664007 +22.6223047     548.7913     72.75194      1.799     4.58     3.668657     20.52031     57.65556        12     1.160     0.849 -37.38   0
        86    600.8315    815.5145 300.1429145 +22.7921667     351.0916     72.73341      1.428     2.55     3.567333     20.52031     54.44104         7     0.834     0.604  80.24   0
        87    392.2054    816.0873 300.0778052 +22.7297400     482.7485     72.64072      1.533     3.21     3.433459     20.52031     48.52192         7     0.824     0.668  32.17   0
        88    825.5039    812.9536 300.2137307 +22.8588070     420.9558     72.75194      1.257     2.75     4.001431     20.52031     53.99411         8     0.800     0.666  -1.62   0
        89    198.6196    810.7672 300.0193466 +22.6701126     459.1816     72.73341      1.427     4.01     3.631622     20.52031     66.46217        12     1.092     0.923 -63.34   0
        90    973.8224    804.9651 300.2625670 +22.9009737     234.5733     72.75194      1.223     3.82     3.452121     20.52031     27.37254         5     0.836     0.502  31.84   0
        91    521.9355    800.9049 300.1231083 +22.7643080     447.2157     72.82598      1.230     3.14     3.637243     20.52031     66.97918         6     0.769     0.544  55.84   0
        92    529.5422    800.3295 300.1256630 +22.7664248     58.33767     72.75194      1.277     3.40     3.660184     20.52031     48.24897         5     0.785     0.426 -66.94   0
        93    491.5976    799.1716 300.1142308 +22.7547093       593.37     72.67781      1.208     2.81     3.594587     20.52031     90.13014         9     0.925     0.632  16.34   0
        94    400.8107    798.6054 300.0861688 +22.7273076     344.7744     72.58505      1.304     2.57     3.446762     20.52031     48.64015         6     0.696     0.624 -68.40   0
        95    908.1066    795.6109 300.2451200 +22.8785901      4607.43     72.67781      1.396     2.67     3.847132     20.52031     544.9656        33     1.188     1.130 -57.88   0
        96    511.8715    796.2802 300.1214806 +22.7599619     3426.682     72.84448      1.139     4.93     3.655571     20.52031     2167.185        15     1.383     0.499  16.73   0
        97    433.4299    796.2913 300.0970690 +22.7364312     370.6939     72.69635      1.303     4.39     3.496913     20.52031     47.80672         6     0.915     0.599 -22.15   0
        98    594.9355    791.7521 300.1488091 +22.7835791     385.7396     72.75194      1.229     3.70     3.677059     20.52031     58.51631         7     0.920     0.629  11.20   0
        99    896.5191    787.1010 300.2442760 +22.8726729      1714.75     72.86298      1.350     2.53     3.941943     20.52031     198.1757        21     1.138     0.965  -6.49   0
       100    259.6521    781.2527 300.0479175 +22.6799692     834.0225     72.77045      1.293     2.50     3.690488     20.52031     113.0241        14     0.964     0.842 -59.77   0
       101    722.9011    778.4054 300.1930013 +22.8181249     2587.897     72.62217      1.339     2.36     4.065165     20.52031     317.1658        25     1.184     0.986  10.77   0
       102    927.6040    777.2277 300.2571789 +22.8791549     1663.231     72.69635      1.352     2.70     3.853565     20.52031     171.4609        19     1.082     0.924  40.24   0
       103    108.3655    765.3685 300.0060687 +22.6300022     677.1248     72.75194      1.549     2.64     3.554471     20.52031     82.66114        11     0.957     0.720 -24.44   0
       104    805.0385    764.1453 300.2232305 +22.8386577     521.3268     72.73341      1.384     2.61     4.134103     20.52031     90.90049        11     0.988     0.688 -15.99   0
       105    841.2686    755.2820 300.2374043 +22.8469739     145973.3     72.84448      1.313     2.32     4.123749     20.52031     18035.87       147     1.351     1.265 -86.76   0
       106    603.8022    759.5474 300.1620449 +22.7769961     422.0237     72.71488      1.385     3.75     3.998209     20.52031      48.3124         8     0.861     0.700  62.48   0
       107    988.2808    757.2718 300.2825907 +22.8916082     1246.503     72.86298      1.414     2.63      3.38866     20.52031     144.1499        18     1.141     0.884   0.86   0
       108    693.6721    755.7383 300.1912697 +22.8028535     758.9091     72.77045      1.185     2.21     4.078896     20.52031     124.3772        11     0.943     0.736 -86.90   0
       109    873.6332    748.4529 300.2497132 +22.8547142     460.4234     72.75194      1.413     4.35     4.102534     20.52031     47.51753         7     1.036     0.521 -43.18   0
       110    527.5585    744.2876 300.1432739 +22.7497487     1530.348     72.73341      1.138     2.09     4.090876     20.52031     236.6998        14     0.844     0.820  79.16   0
       111    708.7452    741.4908 300.2005985 +22.8032832     9010.387     72.78897      1.191     2.11     4.164544     20.52031     1358.685        32     1.038     0.981 -79.06   0
       112    210.2685    736.8604 300.0470047 +22.6524169     4951.598     72.75194      1.333     2.38     3.641338     20.52031     703.4992        31     1.108     1.065 -89.88   0
       113    292.3586    734.8191 300.0731873 +22.6764677     1234.438     72.75194      1.269     2.31     3.808165     20.52031      190.833        16     0.954     0.890 -25.77   0
       114    168.1148    732.6655 300.0352684 +22.6385616     459.4311     72.82598      1.219     3.28     3.591327     20.52031     72.07163         9     0.899     0.795  39.05   0
       115    500.5242    730.2542 300.1394241 +22.7376125     675.0453     72.77045      1.134     2.13      4.07636     20.52031     128.0058        11     0.856     0.731  46.67   0
       116    492.2031    722.4379 300.1393764 +22.7328736     3088.358     72.77045      1.173     2.05     4.068724     20.52031     459.2785        22     0.940     0.924 -17.39   0
       117    482.4795    716.1718 300.1383883 +22.7281588     1366.447     72.75194      1.177     1.99     4.056191     20.52031     221.5952        17     0.978     0.801  53.54   0
       118    677.7960    714.5698 300.1997139 +22.7862748     151.0603     72.69635      1.128     3.80     4.224327     20.52031     38.20129         6     1.197     0.346  61.55   0
       119    876.1532    713.5579 300.2618475 +22.8454480     437.2005     72.77045      1.241     3.00        4.116     20.52031     62.84372        10     0.920     0.744  50.26   0
       120    393.1090    712.9980 300.1116154 +22.7004381     440.4509     72.64072      1.350     3.21     3.855076     20.52031     53.17023         9     0.894     0.752 -74.29   0
       121    145.6754    712.4958 300.0348543 +22.6260427     609.1253     72.88147      1.343     2.53     3.691414     20.52031     87.05255        11     0.898     0.767 -81.88   0
       122    160.0011    710.8104 300.0398537 +22.6298593     601.3682     72.54791      1.371     3.06      3.69667     20.52031     81.98428        13     1.119     0.734  57.99   0
       123    185.7926    707.7667 300.0488583 +22.6367275     556.2692     72.73341      1.297     2.48     3.719511     20.52031     89.61803        11     0.865     0.786 -73.10   0
       124    929.3325    707.1902 300.2804971 +22.8595570     400.9357     72.73341      1.246     2.26     4.113823     20.52031     71.76302         7     0.786     0.564 -57.47   0
       125    506.5091    706.6788 300.1489531 +22.7326424     347.7117     72.88147      1.093     3.13     4.142268     20.52031     59.56346         7     0.889     0.617 -41.14   0
       126    407.2691    705.9757 300.1183036 +22.7026715     1808.492     72.73341      1.196     2.08     3.888505     20.52031      272.092        17     0.973     0.809  62.78   0
       127     61.2137    701.0338 300.0123420 +22.5974025     19623.43     72.71488      1.461     2.57     3.768938     20.52031     2529.364        62     1.342     1.274  30.82   0
       128    983.0026    702.8670 300.2986388 +22.8743982     827.5411     72.73341      1.385     2.84     3.806143     20.52031     115.1881        12     0.942     0.829  76.58   0
       129    492.0810    701.0734 300.1462857 +22.7267062     979.8846     72.84448      1.208     2.24     4.119053     20.52031     157.6098        12     0.928     0.754  80.36   0
       130    527.5303    700.1922 300.1576047 +22.7370858     262.0461     72.71488      0.935     2.10     4.206499     20.52031     61.58083         5     0.691     0.436 -63.17   0
       131    216.8752    707.2757 300.0586783 +22.6459154     301.5897     72.82598      1.329     3.44      3.73088     20.52031     40.13866         5     0.986     0.346  45.85   0
       132    575.5581    688.7965 300.1762601 +22.7482189     224.1119     72.75194      0.928     1.89     4.294044     20.52031     60.26018         5     0.690     0.467 -70.56   0
       133    910.2318    687.1143 300.2810703 +22.8480662     1017.706     72.73341      1.251     2.23     4.115774     20.52031     162.1698        13     0.873     0.852 -21.95   0
       134      7.1903    685.3293 300.0006699 +22.5766817     1630.549     72.71488      1.858     4.62     3.779198     20.52031     117.7185        27     1.650     1.031 -83.61  16
       135     73.2970    685.7980 300.0210488 +22.5966616     462.3778     72.64072      1.411     3.97     3.815358     20.52031     50.54418         9     1.054     0.783  43.83   0
       136    776.9709    685.2073 300.2401564 +22.8075772     360.0297     72.73341      1.107     2.31     4.173614     20.52031     75.82414         8     0.769     0.689  -8.87   0
       137    455.5785    681.9230 300.1411540 +22.7102616     548.7336     72.73341      1.371     2.51       4.0762     20.52031     82.30328         9     0.861     0.657 -24.38   0
       138    850.5951    679.8359 300.2648468 +22.8281026     897.6681     72.75194      1.590     2.34     4.129214     20.52031     103.8493        12     0.859     0.800  31.83   0
       139    604.2273    678.2175 300.1886253 +22.7537794     190.4695     72.73341      1.087     3.86      4.34331     20.52031     34.61276         6     0.787     0.542  42.55   0
       140    594.3411    678.2159 300.1855479 +22.7508145     128.4062     72.69635      1.220     3.71     4.331805     20.52031     40.18707         5     0.898     0.442  42.39   0
       141    412.1048    674.2108 300.1301361 +22.6950080     795.5103     72.67781      1.205     2.10     3.980906     20.52031     115.0069        10     0.790     0.727 -61.96   0
       142    560.1168    672.5596 300.1767325 +22.7389277     436.5606     72.69635      1.050     1.94     4.299813     20.52031      81.7733         6     0.710     0.495   3.96   0
       143    456.4878    670.0345 300.1453022 +22.7071228     1002.617     72.71488      1.273     2.32     4.113115     20.52031     145.6233        13     1.025     0.806  51.98   0
       144    607.3688    670.9894 300.1919535 +22.7526466     492.9221     72.73341      1.108     2.37     4.360864     20.52031     77.88295         7     0.726     0.611  74.89   0
       145    577.8810    670.8026 300.1828337 +22.7437505     534.7708     72.64072      1.236     2.50     4.331664     20.52031     89.61431        10     0.903     0.658  55.80   0
       146    642.8193    669.1944 300.2035757 +22.7627610     198.6822     72.67781      1.074     2.93     4.327444     20.52031     40.67273         5     0.747     0.643  58.62   0
       147    890.2683    665.3411 300.2819264 +22.8358293     3235.873     72.75194      1.195     2.14     4.118611     20.52031     461.6918        25     1.051     0.959 -88.75   0
       148    422.0003    665.2471 300.1361288 +22.6954042     1792.917     72.73341      1.256     2.24     4.042945     20.52031      266.813        19     1.156     0.816  78.41   0
       149    988.1374    663.2845 300.3131112 +22.8645650     703.6974     72.84448      1.238     3.31     4.111741     20.52031     91.73215        13     1.080     0.760 -76.75   0
       150    787.1465    662.3676 300.2507533 +22.8040685     380.4265     72.75194      1.429     2.52     4.175954     20.52031     52.57434         6     0.697     0.634 -69.92   0
       151    929.5776    655.0656 300.2975225 +22.8446572     307.2241     72.71488      1.168     2.31     4.115057     20.52031     56.90321         7     0.695     0.660 -58.35   0
       152    285.3929    652.2313 300.0978741 +22.6506873     9140.973     72.73341      1.241     2.20     3.816731     20.52031     1250.332        39     1.089     1.071 -51.67   0
       153    407.8387    649.2134 300.1369357 +22.6865554     8766.154     72.75194      1.211     2.10     4.070891     20.52031     1453.776        33     1.029     0.993  61.58   0
       154    812.3391    646.8873 300.2636366 +22.8071736     256.9166     72.82598      1.286     2.64     4.167426     20.52031     46.88659         5     0.750     0.420 -69.45   0
       155    173.3621    646.5320 300.0649033 +22.6154354     211.5357     72.71488      1.073     4.20     3.928645     20.52031     29.90011         6     1.072     0.469  56.71   0
       156   1012.4645    644.3676 300.3268490 +22.8664183     888.9691     72.73341      1.293     2.52     4.110561     20.52031     109.4041        14     0.919     0.861 -71.34   0
       157    654.0712    645.3931 300.2148177 +22.7593012     305.2826     72.69635      1.202     3.02     4.373618     20.52031     51.57014         5     0.778     0.538  82.07   0
       158    819.4824    643.0948 300.2670957 +22.8082253     1699.344     72.89996      1.147     2.01     4.162855     20.52031     270.3524        16     0.908     0.816  68.64   0
       159    904.1676    640.3826 300.2943740 +22.8328250     12337.33     72.71488      1.242     2.18     4.121013     20.52031     1744.629        38     1.077     1.040 -73.13   0
       160    468.4478    638.7929 300.1591802 +22.7017442     11722.68     72.75194      1.164     1.95     4.275301     20.52031      1864.27        40     1.098     0.993 -76.77   0
       161    638.0781    634.5967 300.2133471 +22.7514065     579.9952     72.64072      1.206     2.43     4.416243     20.52031     75.54807         9     0.775     0.756  84.45   0
       162    195.8443    634.2249 300.0758909 +22.6186522     1341.434     72.75194      1.273     2.62     3.912742     20.52031     188.0821        16     1.024     0.832  70.77   0
       163    353.8363    633.2266 300.1253354 +22.6657687     228.3332     72.75194      1.055     1.81     4.033894     20.52031     62.58715         6     0.700     0.514 -47.83   0
       164    442.4489    631.8149 300.1533591 +22.6919438     495.8591     72.77045      1.119     2.14     4.230009     20.52031     75.45232         7     0.698     0.631 -72.64   0
       165    400.0850    626.9221 300.1417701 +22.6778329     4308.585     72.84448      1.254     2.18      4.14784     20.52031     714.0141        28     1.054     0.978  79.49   0
       166    742.9789    626.9224 300.2485153 +22.7806503      681.764     72.73341      1.143     1.93     4.184328     20.52031     151.9579         9     0.752     0.655  42.03   0
       167    378.4147    625.4472 300.1355087 +22.6709094     1208.986     72.75194      1.102     2.07     4.119187     20.52031     174.0163        15     0.990     0.769  57.05   0
       168    132.5455    624.7272 300.0593079 +22.5969324     719.1384     72.73341      1.313     2.82     3.997911     20.52031     99.02545        14     0.963     0.881  27.90   0
       169    820.0152    622.2350 300.2740431 +22.8023936     1561.516     72.73341      1.320     2.54     4.165091     20.52031     195.4778        19     1.097     0.870 -48.28   0
       170    516.7247    614.4881 300.1821046 +22.7092464     200327.9     72.86298      1.161     1.97     4.615344     20.52031     33295.16       195     1.345     1.305 -64.18   0
       171    340.3872    621.0381 300.1251146 +22.6582369     271.4856     72.73341      0.996     2.84     4.043653     20.52031     66.62055         6     0.895     0.465 -79.01   0
       172    920.1992    620.9819 300.3056792 +22.8320554     167.0478     72.65927      1.067     3.32     4.116402     20.52031      37.6333         5     0.804     0.489 -33.81   0
       173    700.3011    619.4530 300.2376487 +22.7657123     725.3009     72.82598      1.094     2.10      4.31991     20.52031     132.7282        14     0.868     0.813 -89.51   0
       174    793.8226    617.5963 300.2673886 +22.7932112      197.779     72.69635      1.125     3.44     4.176723     20.52031     31.72116         5     0.756     0.452  18.34   0
       175    904.8260    615.7609 300.3025835 +22.8259490     197.0605     72.75194      1.032     2.52     4.123754     20.52031     59.30754         6     0.727     0.598 -86.22   0
       176    202.7186    614.5677 300.0844168 +22.6150765     3544.573     72.73341      1.361     2.28     3.930674     20.52031     488.0132        29     1.113     1.079  29.67   0
       177    769.7885    615.2745 300.2606545 +22.7853409      155.615     72.75194      1.083     3.82      4.18143     20.52031      38.2277         5     0.869     0.483 -46.78   0
       178    768.5530    610.5764 300.2617967 +22.7836213     488.8399     72.75194      1.153     2.45     4.182049     20.52031     82.82988         9     0.878     0.662 -44.45   0
       179    382.0346    610.8165 300.1413903 +22.6677969     211.7427     72.73341      1.164     2.72     4.193527     20.52031     41.33044         5     0.776     0.491  55.41   0
       180    787.4534    608.7653 300.2682746 +22.7887659     393.5775     72.75194      1.407     3.57     4.178425     20.52031     49.49692         6     0.890     0.562  24.78   0
       181    548.3942    601.1861 300.1962855 +22.7149245     204.9425     72.60361      1.083     2.10     4.811282     20.52031     53.05762         5     0.687     0.457  70.20   0
       182    407.3282    595.1511 300.1543499 +22.6708879      2905.18     72.71488      1.327     2.34     4.333942     20.52031     419.5127        28     1.495     0.911 -88.69   0
       183    251.6304    597.2659 300.1052439 +22.6247889     349.0906     72.73341      1.051     2.77     4.005641     20.52031     64.03854         7     0.848     0.603  45.10   0
       184    563.5471    591.9992 300.2039884 +22.7168306     231.6923     72.69635      1.192     4.10     4.770332     20.52031     33.99703         5     0.772     0.623   0.12   0
       185    818.9384    590.6853 300.2839628 +22.7930085     457.9851     72.86298      1.354     3.42     4.176566     20.52031     56.39166         8     0.865     0.654 -85.09   0
       186    836.0055    585.9302 300.2908275 +22.7967572     211.9503     72.69635      1.049     2.17     4.174232     20.52031     46.53046         5     0.635     0.535  89.81   0
       187    724.5944    583.4273 300.2569260 +22.7626486     311.6312     72.71488      1.018     2.33     4.285046     20.52031     70.16647         6     0.800     0.461 -74.95   0
       188    804.3315    580.8043 300.2826224 +22.7857929     1697.168     72.69635      1.187     1.94     4.185471     20.52031      303.797        16     0.907     0.841 -79.90   0
       189    675.4678    578.5914 300.2431955 +22.7465343     2444.332     72.73341      1.063     1.90     4.436179     20.52031     387.9761        15     0.838     0.790  66.18   0
       190    919.6704    575.8484 300.3201849 +22.8189298     642.5544     72.71488      1.514     2.37     3.986097     20.52031     72.64059         8     0.760     0.680  -5.57   0
       191    885.0624    574.9590 300.3096846 +22.8083051     286.2391     72.71488      1.343     3.44     4.104915     20.52031     47.86038         5     0.782     0.499  69.17   0
       192    580.5624    574.9994 300.2148106 +22.7170516     509.6428     72.73341      1.189     2.21     4.773382     20.52031     83.60721         7     0.708     0.633 -56.72   0
       193    462.8208    574.6193 300.1782879 +22.6816377     653.1136     72.73341      1.174     2.17     4.624347     20.52031     118.4208        10     0.800     0.729 -28.78   0
       194    932.8594    572.4657 300.3253966 +22.8219093     1270.264     72.77045      1.168     2.14      3.93207     20.52031     197.4533        13     0.961     0.745 -59.27   0
       195    918.6342    571.5571 300.3212566 +22.8173863     690.4995     72.78897      1.269     2.42     3.974076     20.52031     88.02204         9     0.814     0.688 -21.19   0
       196    804.5679    570.8909 300.2859180 +22.7830161     2225.053     72.67781      1.362     3.04     4.189353     20.52031     291.4781        27     1.510     0.893  79.17   0
       197    557.8975    569.1745 300.2096479 +22.7085838       511.27     72.67781      1.122     2.60      4.85233     20.52031      102.566         9     0.901     0.642  58.14   2
       198    557.6599    564.9093 300.2109600 +22.7072880     363.1867     72.82598      1.065     2.56     4.862723     20.52031     55.33503         6     0.761     0.497  88.78   3
       199    343.7819    568.8829 300.1431214 +22.6442894     374.3004     72.67781      1.318     2.28     4.230427     20.52031     47.94183         6     0.694     0.566  50.65   0
       200    842.7073    566.0399 300.2993809 +22.7930514     4216.375     72.73341      1.180     1.97     4.185819     20.52031     740.0914        26     1.022     0.917 -61.32   0
       201    396.3418    568.1164 300.1597185 +22.6598341     425.3954     72.84448      1.264     1.98     4.462379     20.52031     78.52173         5     0.674     0.456  74.61   0
       202    483.4547    565.5139 300.1876678 +22.6852116     243.5329     72.78897      0.989     4.34     4.727554     20.52031     41.90314         7     1.062     0.534  45.98   0
       203    503.5479    561.8619 300.1951077 +22.6901884     350.4133     72.78897      1.188     1.70     4.801835     20.52031     60.53988         5     0.638     0.473  68.95   0
       204    934.5275    556.3006 300.3311704 +22.8177641     726.0075     72.89996      1.109     2.81     3.851426     20.52031     110.8039        13     1.030     0.726 -47.47   0
       205     74.6302    556.7676 300.0634014 +22.5600608     960.3823     72.73341      1.376     2.43     4.572823     20.52031     145.3525        14     0.913     0.878  -2.75   0
       206    874.1292    553.7801 300.3131595 +22.7989444     173.3052     72.75194      1.132     3.39     4.144589     20.52031     33.26395         5     0.988     0.337  45.31   0
       207    735.5206    550.1945 300.2711303 +22.7563785     294.1383     72.65927      1.102     1.81     4.326521     20.52031     66.34554         5     0.665     0.471  69.31   0
       208     67.1568    546.5577 300.0643974 +22.5548897      581.556     72.82598      1.450     3.90     4.651244     20.52031     54.22141        10     0.944     0.795 -84.68   0
       209    930.7377    545.4238 300.3335235 +22.8135034     412.5754     72.71488      1.141     2.39     3.804945     20.52031     63.06021         7     0.863     0.482   8.85   0
       210    501.4463    543.7786 300.2003301 +22.6843670     119.9065     72.77045      1.110     3.44     4.879934     20.52031     30.44208         5     0.785     0.436 -68.47   0
       211    674.9553    540.3964 300.2554486 +22.7354118     540.5875     72.75194      1.034     2.62     4.427341     20.52031     82.74945         7     0.815     0.568  35.61   0
       212    563.8440    538.4285 300.2214905 +22.7015391     432.9366     72.77045      1.406     2.64     4.887898     20.52031     63.94739         8     0.864     0.618 -14.98   0
       213    616.1888    536.5367 300.2384021 +22.7166881     710.6764     72.67781      1.036     2.01     4.765449     20.52031     123.4772        10     0.814     0.657  77.80   0
       214    895.6716    535.9634 300.3256651 +22.8002796     333.3557     72.71488      1.703     4.98     4.010507     20.52031     35.51728         6     0.875     0.806  11.72   0
       215   1023.4023    534.0258 300.3661263 +22.8379853     862.0756      58.0634      1.169     2.75     3.633008     20.52031     136.7273        11     1.014     0.644  77.03  24
       216    404.4377    534.7633 300.1730752 +22.6526893     173.6045     72.80748      1.016     2.40     4.675891     20.52031     41.41939         5     0.691     0.468 -70.97   0
       217    930.5105    528.8255 300.3388465 +22.8086657     686.4839     72.67781      1.269     2.43     3.804945     20.52031     111.3646        11     0.977     0.634  39.15   0
       218    676.8906    528.7298 300.2598424 +22.7326413     878.2148     72.89996      1.164     1.75     4.400047     20.52031     166.4586        11     0.835     0.671  78.06   0
       219    834.0505    524.8456 300.3100698 +22.7786228     1004.956     72.75194      1.220     2.37      4.21435     20.52031     173.9126        11     0.921     0.644  72.04   0
       220    818.3314    521.1086 300.3063851 +22.7728392     708.3945     72.86298      1.217     2.28     4.226025     20.52031     101.1796        10     0.817     0.699  23.20   0
       221    798.5714    521.3828 300.3001381 +22.7669971     335.9195     72.73341      1.027     2.30      4.23806     20.52031     70.43274         5     0.699     0.440  65.32   0
       222    562.7743    519.3226 300.2273656 +22.6957326     3182.179     72.73341      1.130     1.95     4.835882     20.52031     532.1946        22     0.932     0.902 -82.81   0
       223    923.1378    518.0029 300.3400645 +22.8033471     382.0288     72.73341      1.091     1.95     3.845378     20.52031     97.39899         9     0.741     0.677  78.74   0
       224    490.7152    512.5048 300.2071522 +22.6721711     212.7573     72.91843      1.197     3.40     4.825327     20.52031     36.17534         5     0.759     0.440  22.64   0
       225     39.0419    511.3751 300.0670957 +22.5363618     270.8072     72.78897      1.146     3.59     4.792848     20.52031     45.87075         6     0.983     0.472  59.70   0
       226    334.2310    507.2985 300.1601619 +22.6237511     163.4725     72.71488      1.107     2.85     4.546817     20.52031     47.66199         6     0.700     0.654 -64.89   0
       227    402.7103    506.6286 300.1816792 +22.6440957     382.2928     72.71488      1.193     2.67     4.707858     20.52031     65.87751         5     0.688     0.479   6.98   0
       228    974.1440    498.3240 300.3623638 +22.8129704     1357.297     72.75194      1.187     2.04     3.724583     20.52031     223.1093        14     0.843     0.839  49.03   0
       229    846.0154    498.0066 300.3225197 +22.7744965     469.9561     72.64072      1.235     2.98     4.220624     20.52031     90.03087        11     1.005     0.682 -74.85   0
       230    932.3763    496.9504 300.3497855 +22.8000647     1009.484     72.73341      1.137     2.09     3.803076     20.52031     169.5275        12     0.816     0.772 -22.31   0
       231    673.2752    493.2240 300.2702527 +22.7213600     1014.977     72.77045      1.095     1.79      4.32193     20.52031      201.126        15     0.945     0.732  63.26   0
       232    469.0638    493.7391 300.2065114 +22.6602918      380.949     72.77045      1.052     2.11     4.783788     20.52031     73.43435         7     0.686     0.637  89.38   0
       233    177.2594    491.8707 300.1163739 +22.5722387     657.4543     72.77045      1.413     2.78     4.612043     20.52031     87.33079        11     0.957     0.766  49.83   0
       234    239.6478    487.4766 300.1371930 +22.5896933     3734.815     72.73341      1.182     2.03     4.722826     20.52031     545.1625        27     1.090     0.943  81.84   0
       235     17.0589    489.4754 300.0673827 +22.5234838     154.0399     72.78897      1.145     4.14     4.878952     20.52031     31.30918         5     0.769     0.636  80.34   0
       236    972.7477    485.5096 300.3660919 +22.8088692     4420.045     72.77045      1.208     2.08     3.726452     20.52031     690.1733        26     1.016     0.936 -89.84   0
       237    186.8456    482.2129 300.1224905 +22.5723435     7593.995     72.75194      1.273     2.23     4.708825     20.52031     1107.428        33     1.091     1.030  54.88   0
       238    691.3350    482.1491 300.2794759 +22.7235915     133.7272     72.77045      0.976     3.41     4.296082     20.52031     39.54341         5     0.762     0.440  74.10   0
       239    565.6104    481.4063 300.2405673 +22.6856951     341.0795     72.60361      1.166     2.97     4.709797     20.52031     53.18413         5     0.717     0.471 -15.05   0
       240    327.5988    476.3340 300.1681588 +22.6128750     4602.305     72.71488      1.150     2.13     4.661325     20.52031     672.1533        24     1.040     0.874  72.03   0
       241    952.7508    476.6270 300.3627417 +22.8003267     1896.652     72.75194      1.175     1.99     3.773812     20.52031     297.0629        18     0.959     0.823 -15.40   0
       242    571.8260    472.9490 300.2452498 +22.6851297      18076.8     72.75194      1.173     1.84     4.620255     20.52031     3676.377        44     1.074     0.952  80.29   0
       243    418.6953    475.0321 300.1969169 +22.6398189     412.0404     72.71488      1.507     3.35     4.734131     20.52031     41.59064         5     0.785     0.413 -72.31   0
       244    589.4859    473.1313 300.2506886 +22.6904756     921.7844     72.82598      1.896     5.01     4.526115     20.52031     89.06715        15     1.424     0.754 -37.16   0
       245    414.7889    472.4655 300.1965354 +22.6379108     312.4021     72.67781      1.474     4.44     4.712634     20.52031     30.96671         7     0.897     0.626 -78.40   0
       246    815.7227    468.6553 300.3226142 +22.7569872     219.4456     72.77045      1.098     2.51     4.286191     20.52031       43.215         5     0.729     0.434  19.24   0
       247    768.8159    463.2378 300.3097573 +22.7413766     404.8343     72.73341      1.110     2.31     4.314648     20.52031     69.73436         8     0.750     0.660  35.48   0
       248    192.0209    460.3628 300.1311967 +22.5676265     355.2163     72.75194      1.182     2.55     4.683945     20.52031      58.4204         7     0.814     0.595  71.31   0
       249    905.5390    455.1676 300.3549924 +22.7800178     691.6796     72.77045      1.235     2.60     3.956594     20.52031      111.957        13     1.002     0.764 -55.15   0
       250    442.4466    455.0506 300.2107974 +22.6412039     247.9624     72.77045      1.062     2.36     4.657435     20.52031     61.47242         6     0.766     0.493  83.73   0
       251    126.5668    453.1587 300.1131963 +22.5459239     1969.095     72.78897      1.272     2.33     4.665038     20.52031     273.8591        18     0.989     0.886  85.93   0
       252    512.5240    442.4673 300.2366920 +22.6585999     6510.648     72.82598      1.074     1.93     4.596698     20.52031     933.8428        30     1.032     0.886  73.83   0
       253    926.1921    442.6783 300.3654889 +22.7826146     1153.803     72.67781      1.173     2.00     3.887719     20.52031     219.7068        16     0.958     0.819  66.84   0
       254    227.1733    442.1036 300.1480536 +22.5729311     471.2752     72.67781      1.111     2.26     4.708203     20.52031     98.79989         9     0.803     0.669 -69.59   0
       255     84.8012    434.8994 300.1061509 +22.5281551     450.5432     72.60361      1.203     3.01     4.692014     20.52031     62.80292        10     0.974     0.688  23.68   0
       256    772.5212    434.1033 300.3203757 +22.7341161     475.1236     72.84448      1.286     1.93      4.35419     20.52031     78.64868         7     0.772     0.551  -9.65   0
       257    626.2754    432.4779 300.2753492 +22.6898262     468.2591     72.84448      1.005     2.41     4.285575     20.52031      96.5946         9     0.895     0.626 -48.09   0
       258    716.6242    431.3434 300.3038573 +22.7165750      1062.07     72.73341      1.084     2.23      4.29202     20.52031     174.3045        11     0.848     0.689  66.66   0
       259    419.0912    428.7090 300.2120868 +22.6266388     6115.774     72.89996      1.142     1.91     4.468657     20.52031     1148.166        31     1.035     0.935  83.15   0
       260    908.3771    423.0166 300.3663209 +22.7716276     507.5072     72.73341      1.210     2.86     3.960926     20.52031     108.4688        12     0.977     0.812   2.74   0
       261    811.0312    422.8418 300.3360340 +22.7424176     1386.661     72.75194      1.217     1.90     4.368535     20.52031     267.8487        14     0.816     0.805 -75.63   0
       262    403.8733    417.4146 300.2110207 +22.6188335     500.6908     72.73341      1.122     2.24     4.391113     20.52031     88.52138         9     0.842     0.639  74.58   0
       263    486.3557    415.1145 300.2374319 +22.6429009     467.0139     72.71488      1.132     2.20     4.613913     20.52031     72.08651         7     0.716     0.596  77.71   0
       264    764.2234    413.6876 300.3244213 +22.7257641     354.8897     72.67781      1.351     2.30     4.352762     20.52031     55.49137         6     0.682     0.626  50.46   0
       265    466.8468    413.2481 300.2319671 +22.6365166     165.0441     72.75194      1.096     2.21     4.575081     20.52031     54.58099         6     0.735     0.519 -44.20   0
       266    783.9186    410.4962 300.3315947 +22.7307476     493.6084     72.88147      1.121     2.21     4.389837     20.52031     86.63737         9     0.846     0.618  76.23   0
       267    306.6680    408.0884 300.1838162 +22.5870094     2556.948     72.88147      1.225     2.04     4.338826     20.52031     420.4336        20     1.041     0.831  53.17   0
       268     25.0039    405.5471 300.0971092 +22.5017937     946.9311     72.73341      1.378     2.93      4.73634     20.52031      103.241        13     0.955     0.841 -71.03   0
       269    654.3639    402.1870 300.2939344 +22.6895426     292.4408     72.71488      1.256     2.15     4.270931     20.52031     43.61883         5     0.721     0.423  66.98   0
       270    253.8128    401.4070 300.1695520 +22.5692411     326.2523     72.62217      1.433     4.66     4.511768     20.52031      34.2957         6     0.954     0.645  76.19   0
       271    275.9880    397.4670 300.1777258 +22.5747604     29500.17     72.73341      1.224     2.12     4.404711     20.52031     4574.177        64     1.199     1.072  80.33   0
       272    810.6137    394.7231 300.3450364 +22.7342122     1399.654     72.75194      1.104     1.96     4.322877     20.52031     262.8357        13     0.837     0.749  78.27   0
       273    765.7981    392.6055 300.3317588 +22.7201781     258.9806     72.54791      1.198     2.50      4.33677     20.52031     43.47526         5     0.703     0.462  17.46   0
       274    725.8671    383.4509 300.3222910 +22.7055845      551.172     72.71488      1.272     2.06     4.292677     20.52031     94.53518         9     0.840     0.598  67.49   0
       275    150.1134    383.8327 300.1430272 +22.5330954     452.4529     72.69635      1.202     2.32     4.538543     20.52031     81.71034         8     0.809     0.595  40.55   0
       276    374.2444    382.4833 300.2131479 +22.5999212     616.2593     72.69635      1.430     2.67     4.354307     20.52031     78.82738         9     0.861     0.657 -77.09   0
       277    686.3807    376.9073 300.3121158 +22.6918737     1923.058     72.65927      1.146     2.04     4.286997     20.52031     333.9653        17     0.948     0.798 -87.84   0
       278    494.4753    371.8201 300.2540185 +22.6329018     299.5437     72.73341      1.073     2.27      4.33106     20.52031     59.76832         6     0.664     0.617  -6.48   0
       279    901.5754    369.7312 300.3815058 +22.7542746     604.5833     72.73341      1.146     2.97     3.887022     20.52031     99.81538        10     0.920     0.770  19.82   0
       280    348.1481    361.7371 300.2117675 +22.5861407     2254.575     72.78897      1.411     2.78     4.393364     20.52031      296.577        21     1.293     0.818  63.67   0
       281    560.4156    360.3503 300.2782676 +22.6493708     332.8779     72.77045      1.060     2.34     4.205048     20.52031     61.78669         5     0.661     0.490  83.54   0
       282    787.2862    354.3735 300.3508697 +22.7156287     416.5864     72.73341      1.031     2.03     4.302481     20.52031     104.1638         8     0.760     0.615  89.93   0
       283    686.7595    352.1125 300.3202851 +22.6848633     285.8983     72.71488      0.929     2.06     4.287382     20.52031     63.56942         5     0.715     0.469  37.29   0
       284    669.6210    351.9914 300.3149863 +22.6796935     296.6451     72.71488      1.071     2.75     4.283167     20.52031     61.18099         9     0.853     0.688 -22.96   0
       285    637.8962    351.1819 300.3053689 +22.6699553     243.3696     72.64072      0.985     2.03     4.259203     20.52031     63.38467         6     0.694     0.544 -33.15   0
       286    423.9578    341.1147 300.2420454 +22.6029464      1139.07     72.69635      1.167     2.01      4.19069     20.52031     209.0585        12     0.846     0.783 -20.67   0
       287    231.1838    341.3171 300.1820285 +22.5452073     374.7841     72.69635      1.429     2.93     4.516156     20.52031     51.50207         6     0.763     0.541  53.03   0
       288    509.1314    338.3266 300.2694550 +22.6276751     349.6907     72.80748      1.291     2.74     4.214193     20.52031     49.17166         5     0.888     0.350 -47.54   0
       289    935.5318    336.4447 300.4029018 +22.7548747     272.1231     72.69635      1.053     2.85     4.064292     20.52031     66.53019         5     0.730     0.459 -69.75   0
       290    807.3770    334.2158 300.3636757 +22.7158534     253.6279     72.73341      1.055     1.93     4.266519     20.52031     52.50885         5     0.673     0.458  71.21   0
       291    668.8252    332.8393 300.3209569 +22.6739523     2144.315     72.77045      1.165     2.00     4.287285     20.52031     435.2937        16     0.961     0.737  86.59   0
       292    930.0455    327.0696 300.4042350 +22.7505366     3155.503     72.71488      1.220     1.99      4.07891     20.52031     559.0933        22     0.967     0.897  64.72   0
       293    475.8273    326.2594 300.2630080 +22.6142275     310.3321     72.73341      1.769     6.28     4.215869     20.52031     40.37844         8     1.142     0.972 -69.21   0
       294    991.4074    321.9775 300.4250241 +22.7674458     376.5064     72.71488      1.051     1.92     4.478094     20.52031     75.75407         6     0.705     0.491 -89.33   0
       295    301.6547    318.8054 300.2112469 +22.5598753    -110.2195     72.73341      0.981     2.33     4.352546     20.52031     50.32335         5     0.721     0.438  71.11   0
       296    377.1683    316.8846 300.2353559 +22.5819625     646.5035     72.71488      1.190     1.99     4.257042     20.52031     110.2154         9     0.716     0.706 -81.89   0
       297    999.5712    315.0315 300.4298256 +22.7678928     1602.049     72.73341      1.163     2.02     4.569727     20.52031     254.1625        17     0.902     0.828 -70.41   0
       298     52.0971    311.1802 300.1361624 +22.4828467     1545.917     72.65927      1.655     2.80     4.616859     20.52031     159.3016        23     1.273     1.086 -55.50   0
       299     82.9514    311.3431 300.1456941 +22.4921483     551.1392     72.78897      1.265     2.39     4.568769     20.52031     99.25356         9     0.803     0.743  67.38   0
       300    946.0046    307.4311 300.4155873 +22.7496691     572.1004     72.71488      1.148     2.28     4.289221     20.52031     94.47316         9     0.843     0.648 -72.83   0
       301    789.9323    304.3010 300.3679515 +22.7020304     375.0559     72.82598      1.349     4.37     4.302313     20.52031     52.02301         9     0.959     0.864  52.08   0
       302    136.0090    303.1430 300.1648408 +22.5057082     391.8177     72.71488      1.188     2.44     4.534708     20.52031     86.40598         9     0.880     0.657  -8.51   0
       303    930.9386    300.2339 300.4132259 +22.7430887     314.0552     72.75194      1.171     2.61     4.239659     20.52031     68.55044         8     0.885     0.673  25.35   0
       304    601.9815    299.1750 300.3110700 +22.6442526      1103.12     72.75194      0.464     0.86     4.236373     20.52031     800.1612         6     0.495     0.296  72.95   0
       305    812.2908    296.2484 300.3775334 +22.7064124     356.6451     72.75194      1.331     3.08     4.289859     20.52031     46.47636         6     0.710     0.645 -21.30   0
       306    740.4813    294.1360 300.3558431 +22.6842969     534.0984     72.84448      1.021     2.27     4.302026     20.52031     98.07693         6     0.731     0.499  87.05   0
       307    330.7762    293.9958 300.2283567 +22.5614827     435.7974     72.69635      1.293     2.54     4.264719     20.52031     63.59785         7     0.754     0.606  76.42   0
       308    838.6013    283.2244 300.3899615 +22.7105483     2031.423     72.67781      1.118     2.03     4.292776     20.52031     302.0336        17     0.889     0.836  79.64   0
       309    257.1967    280.7750 300.2097685 +22.5356273      2210.61     72.69635      1.227     2.06     4.475688     20.52031     386.3034        18     1.030     0.817  77.21   0
       310    144.0823    281.4890 300.1743781 +22.5019144      281.639     72.84448      1.327     4.48     4.568832     20.52031     39.49009         7     0.961     0.594 -55.63   0
       311     86.6620    276.2783 300.1582285 +22.4831983     442.8795     72.80748      1.656     4.93     4.640171     20.52031     44.53373         8     1.185     0.580 -29.38   0
       312    335.0228    275.9396 300.2355382 +22.5575711     1107.133     72.71488      1.337     2.37     4.283551     20.52031     147.6633        12     0.949     0.748   1.91   0
       313    777.0316    274.5183 300.3735995 +22.6896062     107.7328     72.73341      1.049     3.98     4.314184     20.52031     35.48815         5     1.068     0.424 -65.16   0
       314    736.9681    274.8203 300.3610186 +22.6776933     579.6887     72.73341      1.225     2.27     4.333402     20.52031     111.5272        11     0.876     0.744  55.15   0
       315    843.9894    271.9343 300.3953057 +22.7089163     277.5984     72.69635      1.124     2.73     4.292103     20.52031     82.29074         9     1.033     0.545 -77.05   0
       316    382.0157    272.2680 300.2513465 +22.5706032     349.6845     72.71488      1.088     3.48     4.210057     20.52031     36.34901         5     0.803     0.491  55.83   0
       317    151.9875    268.0490 300.1811969 +22.5004273     860.0556     72.77045      1.347     2.60     4.626698     20.52031     111.4144        10     0.853     0.742  64.17   0
       318    270.3147    267.7308 300.2180808 +22.5358152     417.9044     72.82598      1.348     2.74     4.546973     20.52031     48.51032         5     0.851     0.428   9.13   0
       319    689.6987    264.7844 300.3495508 +22.6606499     1507.452     72.64072      1.082     1.89      4.34434     20.52031     313.8663        15     0.919     0.739  89.96   0
       320    754.6466    264.3351 300.3699300 +22.6799748     661.0008     72.77045      1.206     2.15     4.342119     20.52031     91.77142        10     0.818     0.687  57.94   0
       321    416.4040    260.8490 300.2657508 +22.5776308     265.1432     72.71488      1.134     2.17     4.189495     20.52031     48.05374         5     0.693     0.455 -69.41   0
       322    173.4654    261.3844 300.1900346 +22.5049547     330.2623     72.71488      1.121     2.49     4.664957     20.52031     59.23125         9     0.903     0.618   7.21   0
       323    693.7523    256.4930 300.3535047 +22.6594813     862.6696     72.75194      1.441     2.18     4.361263     20.52031     125.4476        11     0.957     0.716  88.57   0
       324    961.1733    257.1603 300.4366363 +22.7397561     887.9308     72.78897      1.145     2.05     4.586967     20.52031     148.0673         9     0.724     0.699  51.57   0
       325    614.2616    255.3994 300.3291030 +22.6353541     1214.809     72.69635      1.098     2.03     4.333195     20.52031     212.0144        14     0.958     0.761  78.73   0
       326    435.4599    252.0815 300.2745252 +22.5808238     389.7943     72.80748      1.306     2.24     4.190578     20.52031     62.20103         6     0.746     0.498 -89.05   0
       327    540.4478    247.2778 300.3087580 +22.6109051     766.7549     72.73341      1.082     2.28     4.340814     20.52031     125.3145        11     0.810     0.790  71.05   0
       328    821.7162    246.0827 300.3967545 +22.6948146     839.0642     72.86298      1.308     2.45     4.298225     20.52031     126.3535        12     0.908     0.767  60.56   0
       329    809.6664    246.8951 300.3927354 +22.6914397      1371.38     72.86298      1.152     1.93     4.300743     20.52031     258.1086        14     0.853     0.798  60.77   0
       330    868.4830    245.0533 300.4116658 +22.7085228     215.3301     72.77045      1.141     2.53     4.293379     20.52031     47.89048         6     0.775     0.496  84.47   0
       331    982.5834    236.8178 300.4499160 +22.7403157      1679.65     72.71488      1.171     1.96     4.834601     20.52031     265.7517        16     0.914     0.830  60.36   0
       332    938.4215    236.1676 300.4363549 +22.7269080     1117.858     72.73341      1.135     2.18     4.469141     20.52031     178.0846        14     0.879     0.842 -69.69   0
       333    841.1538    228.8466 300.4084068 +22.6956801     243.2312     72.77045      1.540     4.04     4.295121     20.52031     27.86313         6     1.344     0.346 -85.56   0
       334    172.4812    229.7151 300.2000062 +22.4955684     802.6164     72.86298      1.426     2.55     4.816601     20.52031     101.0415        12     0.940     0.763  39.43   0
       335     34.4075    224.4354 300.1588208 +22.4526476     2188.043     72.75194      1.413     2.48     5.579791     20.52031     272.6445        20     1.083     0.959  51.61   0
       336    857.5839    221.2027 300.4160088 +22.6984020     753.5269     72.60361      1.137     2.02     4.328528     20.52031     124.4432         7     0.677     0.606 -81.28   0
       337    191.8156    217.7614 300.2098944 +22.4979336     5450.345     72.75194      1.282     2.29     4.883556     20.52031     849.0641        29     1.152     0.962  70.09   0
       338    173.4570    218.6823 300.2038896 +22.4926936     325.8925     72.78897      1.413     3.41     4.859467     20.52031     43.01534         5     0.907     0.492 -84.28   0
       339    174.9902    208.4765 300.2076777 +22.4902233     572.2679     72.71488      1.213     4.56     4.891756     20.52031     79.63399        10     1.115     0.671 -82.49   0
       340    990.6693    204.9188 300.4627903 +22.7335621     18076.12     72.84448      1.241     2.27     4.971931     20.52031     2674.743        46     1.161     1.020  77.81   0
       341    835.8750    199.0364 300.4164354 +22.6855288     3371.459     72.67781      1.179     1.98     4.490416     20.52031     631.8865        22     1.005     0.836  78.21   0
       342    939.5404    197.6557 300.4492020 +22.7161682     2672.623     72.80748      1.181     2.18     4.709642     20.52031     412.5004        25     1.159     0.893 -64.73   0
       343    385.3224    194.3467 300.2776623 +22.5492146     793.0949     72.77045      1.183     2.13     4.262497     20.52031     117.2405         8     0.838     0.576 -73.46   0
       344    138.1386    195.1808 300.2005394 +22.4753571     394.9333     72.71488      1.268     3.56     4.976529     20.52031     45.53766         7     0.904     0.610 -21.69   0
       345    499.4853    192.2216 300.3138744 +22.5828138     266.4237     72.67781      0.916     2.02     4.395622     20.52031     52.62371         5     0.674     0.464  67.58   0
       346    309.2621    186.1820 300.2566545 +22.5240734     589.7337     72.69635      1.250     2.74     4.652281     20.52031     77.42191         7     0.821     0.528  51.19   0
       347    313.6991    184.8080 300.2584802 +22.5250087     426.5945     72.60361      1.351     2.57     4.602275     20.52031     57.81318         6     0.723     0.570  44.49   0
       348     75.5163    183.3772 300.1849122 +22.4531913     590.4893     72.69635      1.203     2.65     5.348395     20.52031     71.91088        11     0.892     0.785 -42.08   0
       349    436.5438    181.6357 300.2977222 +22.5609129     1841.398     72.75194      1.229     2.07     4.343547     20.52031     311.6404        21     1.120     0.943  38.51   0
       350    364.6525    182.0213 300.2752317 +22.5394797     488.8598     72.73341      1.346     4.38     4.244514     20.52031     56.74841         8     1.107     0.574  46.28   0
       351    498.4890    180.9225 300.3172304 +22.5792689     296.9724     72.86298      1.051     1.85     4.437224     20.52031     54.38665         6     0.700     0.497  83.65   0
       352    180.2279    177.4833 300.2193615 +22.4828954     418.4598     72.73341      1.345     3.15     4.972689     20.52031     61.09119         9     0.993     0.685  57.10   0
       353    725.3447    170.8263 300.3911460 +22.6443207     368.7426     72.73341      1.149     2.03     4.588533     20.52031     76.80547         5     0.701     0.439 -70.54   0
       354    309.9421    166.6660 300.2631978 +22.5186723     220.4933     72.77045      1.054     2.48     4.618843     20.52031      43.1073         5     0.842     0.471  -1.05   0
       355    870.7945    165.0359 300.4383525 +22.6862073     305.7503     72.75194      1.181     3.45     4.873082     20.52031     52.32822         9     0.968     0.638  61.70   0
       356   1001.2034    162.1942 300.4799393 +22.7244264     3654.134     72.54791      1.280     2.16     5.011031     20.52031     540.3628        27     1.112     0.982  81.84   0
       357    996.5195    164.1326 300.4778494 +22.7235821     396.3589     72.84448      1.559     2.56     5.008511     20.52031     45.59028         5     0.727     0.454 -68.42   0
       358    210.7228    161.5944 300.2339948 +22.4874752      5718.61     72.64072      1.248     2.30     4.967871     20.52031     875.5788        26     1.099     0.922  69.09   0
       359    717.2899    162.0213 300.3914935 +22.6393773     285.4043     72.65927      1.095     1.87     4.613925     20.52031     61.59717         7     0.658     0.639  11.69   0
       360     61.8767    161.1957 300.1878712 +22.4427341     668.0298     72.64072      1.319     2.92      5.59149     20.52031     83.16194        12     1.009     0.742  80.67   0
       361    840.0304    158.6184 300.4308450 +22.6751515     352.4141     72.71488      1.146     1.87     4.795696     20.52031     85.75562         8     0.730     0.650  89.02   0
       362    226.1026    152.5152 300.2417210 +22.4894784     300.2096     72.89996      1.184     2.68     4.946972     20.52031     63.47936         8     0.862     0.646  53.54   0
       363    456.7878    146.8519 300.3153063 +22.5569856     6185.278     72.77045      1.219     2.07     4.421384     20.52031     1060.324        29     1.102     0.913  70.85   0
       364    342.1480    146.5913 300.2797264 +22.5225586     723.6933     72.73341      1.352     2.93     4.344235     20.52031     103.9689        14     1.021     0.889  69.94   0
       365    709.2014    136.4583 300.3972669 +22.6296065     936.6053     72.67781      1.469     2.13      4.69944     20.52031      122.336        12     0.988     0.704 -81.89   2
       366    650.6185    138.1362 300.3784751 +22.6125445     192.9796     72.69635      1.129     1.81     4.669143     20.52031     56.68591         5     0.671     0.448 -67.86   0
       367    801.7313    134.9881 300.4265745 +22.6568902     347.0584     72.75194      1.041     1.96     4.736403     20.52031     94.06978         7     0.719     0.559  75.84   0
       368     21.4555    133.3666 300.1843431 +22.4226250     129.8319     72.75194      1.036     4.21     5.798111     20.52031     29.13869         5     0.979     0.517 -45.14   0
       369    149.5512    130.7420 300.2249907 +22.4602782     489.1884     72.78897      1.239     2.52     5.069206     20.52031     69.30549        11     0.869     0.790 -16.18   0
       370    585.1387    126.9339 300.3617189 +22.5897127     6305.582     72.77045      1.231     1.99     4.791647     20.52031     1137.771        32     1.081     0.944  73.68   0
       371    508.3898    129.1142 300.3371197 +22.5673488     370.4571     72.67781      1.205     1.95     4.591754     20.52031     71.78183         6     0.754     0.486 -86.04   0
       372    360.0490    125.9871 300.2919780 +22.5220045     1538.564     72.77045      1.260     2.08     4.308312     20.52031     260.0157        17     0.992     0.834  80.22   0
       373    626.2218    124.2382 300.3753859 +22.6012429      768.212     72.75194      1.070     2.23     4.753415     20.52031      134.134        11     0.883     0.689 -88.82   0
       374    695.9799    122.3920 300.3977113 +22.6216035     518.7877     72.69635      1.833     3.17     4.709841     20.52031      60.7164         8     1.237     0.623  88.30   0
       375    642.1413    120.2098 300.3816503 +22.6048528     751.2971     72.69635      1.231     2.42     4.725911     20.52031     113.5471         9     0.856     0.698  44.10   0
       376    109.0132    118.3347 300.2164185 +22.4445626     622.4026     72.67781      1.340     3.16     5.134635     20.52031     73.67969        10     0.933     0.782  27.22   0
       377    912.1921    117.7358 300.4666040 +22.6849969     511.8086     72.71488      1.228     2.32      4.92134     20.52031     98.74074         9     0.807     0.699  63.18   0
       378    951.2633    117.1238 300.4789858 +22.6965153     370.0713     72.78897      1.130     2.69     4.953866     20.52031     56.58003         7     0.727     0.644 -68.39   0
       379    680.5570    115.7489 300.3950621 +22.6150752     443.4643     72.77045      1.021     2.06     4.676407     20.52031      90.1648         7     0.807     0.495 -86.30   0
       380    167.1862    116.6483 300.2350426 +22.4615180     352.1096     72.75194      1.854     2.47     5.031052     20.52031     40.77881         5     0.736     0.429 -20.60   0
       381    629.4423    111.7768 300.3804309 +22.5986256      2834.93     72.78897      1.173     2.03     4.782889     20.52031     467.6827        19     0.962     0.847  89.10   0
       382    269.9329    112.4014 300.2683597 +22.4910956      479.859     72.71488      1.302     3.07     4.846653     20.52031     61.95253        11     0.895     0.833 -71.04   0
       383    644.3708    110.4192 300.3855204 +22.6027062     850.1352     72.73341      1.586     4.81     4.743457     20.52031     112.9991        14     1.521     0.605  53.23   0
       384    715.7700    103.3521 300.4100523 +22.6220558     1407.411     72.75194      1.104     2.01     4.837198     20.52031     242.3216        14     0.874     0.757 -75.52   0
       385    876.2219    101.6526 300.4606066 +22.6696042     243.4788     72.73341      1.119     1.96     4.905521     20.52031     51.44746         5     0.708     0.425 -22.30   0
       386    653.6370     96.6094 300.3928856 +22.6015115     752.2206     72.73341      1.203     2.35     4.735752     20.52031      128.825        11     0.974     0.666 -80.60   0
       387    459.3915     95.8018 300.3326759 +22.5430976     1192.963     72.54791      1.279     2.46     4.436703     20.52031      173.637        17     1.131     0.773  55.56   0
       388     32.1995     95.8431 300.1998505 +22.4150751     595.6954     72.73341      1.356     2.77     5.585447     20.52031     88.20309         9     0.925     0.686  87.27   0
       389    363.2423     94.1771 300.3032889 +22.5138232     826.8992     72.78897      1.319     2.84     4.367245     20.52031     117.4299        11     0.929     0.755  52.38   0
       390    745.5713     92.6145 300.4228197 +22.6278918     465.6315     72.75194      1.147     4.17     4.958216     20.52031     77.71095        10     1.375     0.558  51.41   0
       391   1006.1993     90.5721 300.5047321 +22.7053182     2351.435     72.69635      1.305     2.19     4.959002     20.52031     363.7815        19     1.053     0.889 -84.58   0
       392    793.8560     97.6827 300.4362215 +22.6438054     183.1397     72.78897      0.874     3.09     4.905525     20.52031     43.13821         5     0.760     0.425  17.58   0
       393    702.6316     84.5888 300.4120452 +22.6127272     591.2813     72.73341      1.105     2.33     4.846065     20.52031     99.84665        10     0.854     0.725  56.12   0
       394    134.6098     84.1650 300.2354542 +22.4424251     3794.277     72.73341      1.373     2.42     5.062678     20.52031     448.0615        26     1.124     1.028  47.25   0
       395    557.0829     81.0990 300.3678509 +22.5681359     266.2915     72.89996      1.139     2.07     4.760471     20.52031     54.39575         6     0.714     0.542  48.79   0
       396    460.3875     81.1920 300.3377242 +22.5391978     376.5154     72.62217      1.705     3.33     4.433227     20.52031     39.35355         5     0.762     0.421  67.23   0
       397    695.8582     76.5672 300.4125369 +22.6083928     832.2452     72.75194      1.104     1.83      4.84798     20.52031      156.895        10     0.760     0.697 -27.49   0
       398    250.4851     76.2697 300.2740315 +22.4748894     1092.003     72.84448      1.179     2.41     4.898599     20.52031     157.8082        14     0.904     0.850  72.36   0
       399    661.7893     75.6189 300.4022326 +22.5979185     411.1126     72.69635      1.318     3.48     4.792807     20.52031     43.06874         5     0.762     0.458  15.46   0
       400    477.1482     73.4225 300.3454598 +22.5419861     301.0539     72.73341      1.205     3.36     4.444215     20.52031     44.07709         6     0.728     0.637 -52.97   0
       401    733.7047     71.3699 300.4260128 +22.6182304     758.6793     72.65927      1.403     3.87     5.017744     20.52031     74.29688        11     1.108     0.671  80.37   0
       402    657.1730     71.1423 300.4022467 +22.5952492     504.9544     72.73341      1.136     1.92     4.827272     20.52031     86.75487         8     0.745     0.612 -55.43   0
       403    753.8052     67.6603 300.4334786 +22.6231817     2034.972     72.69635      1.169     2.12     5.008528     20.52031     371.8596        20     1.025     0.852  70.59   0
       404    459.2758     66.1532 300.3422554 +22.5345433     430.4666     72.73341      1.218     2.33     4.428411     20.52031     74.88805         6     0.802     0.477  55.49   0
       405    137.0172     63.2800 300.2429751 +22.4371496     931.6713     72.73341      1.346     2.68     5.088079     20.52031      127.556        16     1.042     0.870  53.76   0
       406    928.6401     60.9922 300.4901374 +22.6735981     718.2886     72.77045      1.106     2.07      4.56343     20.52031      139.116        10     0.956     0.625 -61.98   0
       407    511.2231     62.5572 300.3595887 +22.5490707       299.26     72.78897      1.358     3.44     4.527054     20.52031     29.34076         5     0.748     0.457 -19.19   0
       408    702.2275     60.2004 300.4198289 +22.6055942     780.0242     72.69635      1.156     2.26     4.936083     20.52031     129.3211        11     0.848     0.733  48.82   0
       409    409.2571     58.4867 300.3291782 +22.5173557     379.4926     72.82598      1.573     2.63     4.382487     20.52031     52.32745         5     0.710     0.481  14.89   0
       410    459.9703     52.9130 300.3467652 +22.5309465      356.627     72.73341      1.313     2.54      4.42584     20.52031     44.15763         5     0.640     0.557 -88.51   0
       411    287.1992     50.1987 300.2939014 +22.4784030     488.8462     72.51076      1.560     2.66     4.503802     20.52031     69.52864         7     0.868     0.554  33.90   0
       412    554.7388     45.1246 300.3787876 +22.5570938     931.8211     72.78897      1.307     2.29     4.593805     20.52031     138.9067        14     0.908     0.893 -29.68   0
       413    787.2540     44.4649 300.4514237 +22.6265252     193.0239     72.77045      1.052     2.61      4.98138     20.52031     55.33041         7     0.894     0.522 -58.22   0
       414    289.5510     42.8219 300.2970247 +22.4769886     246.7278     72.73341      1.253     2.45     4.433001     20.52031     48.66851         5     0.701     0.478  74.61   0
       415    163.9684     42.5932 300.2580587 +22.4392871     401.8189     72.73341      1.225     3.02     5.226107     20.52031     63.48857         9     0.855     0.723  16.61   0
       416    348.6677     41.0822 300.3159739 +22.4942022     274.5494     72.84448      1.280     3.41     4.362307     20.52031     35.74821         5     0.775     0.433 -73.29   0
       417    717.8459     39.9233 300.4312701 +22.6044402     688.5543     72.71488      1.180     1.95     5.060074     20.52031     133.4995        10     0.815     0.678 -84.12   0
       418    526.4611     38.1421 300.3722491 +22.5466176     1920.884     72.80748      1.247     2.25     4.467237     20.52031     298.5352        20     1.044     0.918  82.92   0
       419    249.1576     35.6304 300.2867970 +22.4628184     709.3661     72.77045      1.336     2.46     4.924131     20.52031     98.32792        10     0.931     0.619  63.70   0
       420    483.7301     32.1036 300.3609071 +22.5320833     1334.624     72.86298      1.246     2.26     4.447031     20.52031     202.1671        18     1.034     0.857 -81.86   0
       421    588.9152     28.6532 300.3947691 +22.5625942     1259.436     72.78897      1.205     1.98     4.856484     20.52031     259.1046        15     0.940     0.864  84.77   0
       422    184.1090     27.6863 300.2691518 +22.4410423     415.1152     72.89996      1.166     2.72     5.281317     20.52031     78.90713        10     0.906     0.712  38.76   0
       423    414.1940     26.1637 300.3411953 +22.5095468     318.6518     72.77045      1.248     4.64     4.360112     20.52031      44.1613         7     0.981     0.683  76.70   0
       424    233.0412     25.7263 300.2849979 +22.4551438     460.2949     72.71488      1.399     1.83     5.173388     20.52031     76.68291         7     0.675     0.622   5.07   0
       425    409.5132     22.5482 300.3409113 +22.5071056     2133.254     72.77045      1.263     2.22     4.357853     20.52031     302.8184        19     1.005     0.887 -86.67   0
       426     56.4822     20.5664 300.2318029 +22.4007428      1483.26     72.69635      1.421     2.76       4.7936     20.52031     193.2129        21     1.084     1.002  68.59   0
       427    900.2941     20.1120 300.4945558 +22.6533549      337.248     72.91843      1.245     2.16      4.17489     20.52031     55.99231         5     0.718     0.427  74.08   0
       428    540.1022     17.1636 300.3832976 +22.5446732     379.2245     72.73341      1.220     2.45     4.363642     20.52031      64.4128         7     0.791     0.631  53.09   0
       429    199.2158     14.6876 300.2780619 +22.4418362     371.5063     72.67781      1.215     2.13     5.338936     20.52031     50.76759         5     0.707     0.438 -15.70   0
       430    417.8407   1021.3389 300.0189796 +22.7962943     970.8987     67.98387      1.559     3.45     2.915665     20.52031     100.7861        17     1.106     0.986  12.03  16
       431    348.6149   1019.2841 299.9981178 +22.7749228      6506.15     72.69635      1.632     3.38     2.878956     20.52031     593.2595        39     1.292     1.258 -47.45  16
