#   1 NUMBER                 Running object number                                     
#   2 X_IMAGE                Object position along x                                    [pixel]
#   3 Y_IMAGE                Object position along y                                    [pixel]
#   4 ALPHA_J2000            Right ascension of barycenter (J2000)                      [deg]
#   5 DELTA_J2000            Declination of barycenter (J2000)                          [deg]
#   6 FLUX_APER              Flux vector within fixed circular aperture(s)              [count]
#   7 FLUXERR_APER           RMS error vector for aperture flux(es)                     [count]
#   8 FLUX_RADIUS            Fraction-of-light radii                                    [pixel]
#   9 FWHM_IMAGE             FWHM assuming a gaussian core                              [pixel]
#  10 BACKGROUND             Background at centroid position                            [count]
#  11 THRESHOLD              Detection threshold above background                       [count]
#  12 FLUX_MAX               Peak flux above background                                 [count]
#  13 ISOAREA_IMAGE          Isophotal area above Analysis threshold                    [pixel**2]
#  14 A_IMAGE                Profile RMS along major axis                               [pixel]
#  15 B_IMAGE                Profile RMS along minor axis                               [pixel]
#  16 THETA_IMAGE            Position angle (CCW/x)                                     [deg]
#  17 FLAGS                  Extraction flags                                          
         1    511.9392     12.0994 300.3722047 +22.5465787     1900.833     72.60453      1.346     2.32     4.038709     20.45791     282.5461        20     1.068     0.890 -75.90   0
         2    234.8537      9.6512 300.2867822 +22.4628780     688.7387     72.54917      1.352     3.08     4.192933     20.45791     100.2291        14     1.113     0.805 -87.84   0
         3    469.2898      6.0138 300.3609000 +22.5320574     1386.036     72.45681      1.312     2.57     4.039042     20.45791     195.4117        17     1.091     0.838  47.31  16
         4    574.7786      2.6309 300.3948410 +22.5626729     1302.716     63.36537      1.255     2.27     3.915356     20.45791     220.6126        18     0.984     0.938 -61.68  24
         5    169.8256      2.1148 300.2690062 +22.4412284     375.4635     60.71002      1.300     3.29     4.550996     20.45791     62.60219         8     0.942     0.625  57.94  24
         6    601.1931   1008.0313 300.0764870 +22.8593259     6674.993     72.51225      1.712     3.45     3.261031     20.45791     507.3213        42     1.384     1.305  26.81   0
         7    874.7717   1023.7150 300.1566265 +22.9458853     326.1989     56.12481      1.402     3.97     3.373947     20.45791     58.66977         5     1.012     0.446   4.21  24
         8    187.8650   1021.7090 299.9434398 +22.7391852     5661.289      66.3997     12.432    37.49     14.76519     20.45791     135.7804       418    12.267     4.922  44.53  27
         9    130.4802   1023.2191 299.9251133 +22.7223852     578.6569     58.98693      2.649     3.94      32.2206     20.45791     37.62797         5     0.894     0.496 -89.19  27
        10    112.9854   1021.8625 299.9201185 +22.7167424     1773.891     65.58794      9.090    15.49     37.91455     20.45791     62.89563        51     3.883     1.718  -7.92  26
        11    192.8301   1001.9214 299.9514238 +22.7350049     655.5063     72.51225      1.629     3.53     11.74471     20.45791     68.48036        12     1.163     0.806  41.71   0
        12    752.7834   1001.4947 300.1258366 +22.9029242     374.6691     72.43832      1.714     5.10     3.439337     20.45791      30.5569         5     1.049     0.702 -73.89   0
        13    509.5944    998.9157 300.0509356 +22.8292269     1433.977     72.43832      1.571     4.10     3.219516     20.45791     143.3818        26     1.385     1.126 -84.04   0
        14    481.2389   1002.1307 300.0410631 +22.8216399     439.5407      72.4753      1.637     5.17     3.175995     20.45791     39.78623         8     1.119     0.674 -23.38   0
        15    179.2324   1022.6166 299.9404611 +22.7368530     4011.755     62.08427     24.419    39.02     16.99383     20.45791     120.2723       254    18.699     2.260   4.70  27
        16     28.7360   1000.6993 299.9008323 +22.6853747     1933.275     72.60453      5.353    18.51     67.09885     20.45791     57.29561        78     5.081     1.873  36.40  19
        17     59.3642    994.7599 299.9122796 +22.6928722     1005.143     72.58608      6.431     8.81      49.4268     20.45791     40.78515        12     1.643     1.319 -56.58   2
        18     25.3734    992.1284 299.9025772 +22.6819091     1760.385     72.49377      5.242    21.62     61.32509     20.45791     52.68853        76     4.500     2.886  19.82  19
        19    334.1149    993.3231 299.9981537 +22.7749570     6432.731     72.62298      1.709     3.37     2.721977     20.45791     565.8587        41     1.365     1.307 -28.29   0
        20    403.3546    995.3757 300.0190252 +22.7963284     970.0573     72.53071      1.682     3.87      2.87961     20.45791     94.49771        20     1.181     1.131  -9.85   0
        21     40.8811    980.4257 299.9112029 +22.6832138     750.4808     72.49377      8.925    10.70     45.91862     20.45791     40.74496        17     2.600     1.227 -72.83   0
        22    366.8462    980.0873 300.0126429 +22.7809869     426.3729      72.4753      1.572     5.94     2.826461     20.45791     38.72422        11     1.180     0.843  81.05   0
        23    651.3250    980.0303 300.1012142 +22.8663325     310.6855     72.51225      1.450     4.60     3.311442     20.45791     28.09761         5     1.045     0.575  15.72   0
        24     28.9515    974.9907 299.9092659 +22.6780736      2021.67     72.53071      6.904    22.35     45.73647     20.45791      57.7323       106     4.814     2.882 -13.35  19
        25     22.1584    965.2034 299.9103408 +22.6732290     1553.917     72.53071      4.322    14.46     39.12731     20.45791     43.31861        43     3.455     1.684 -72.54   3
        26     30.2216    962.5281 299.9137159 +22.6748841      2238.81     72.53071      5.556    16.52     35.66033     20.45791     63.63309        72     3.263     2.326   1.30   3
        27    530.6256    969.1491 300.0671707 +22.8269997     291.8545     72.53071      1.477     2.50     3.244353     20.45791     51.42427         6     0.730     0.587  11.12   0
        28    669.1490    960.6209 300.1130833 +22.8661101     741.9951     72.51225      1.706     4.69      3.37947     20.45791     74.16587        15     1.297     0.866  50.85   0
        29    880.5551    971.9866 300.1752680 +22.9327713     2096.606     72.53071      1.781     4.12     3.388471     20.45791     137.1847        33     1.424     1.338  75.08   0
        30    996.5435    959.9671 300.2153534 +22.9640930     513.4431     72.53071      1.659     5.39     3.007817     20.45791     47.30133         9     1.361     0.603  -1.52   0
        31    704.1711    955.2067 300.1257556 +22.8750611     866.6376     72.51225      1.516     3.60     3.415447     20.45791     87.25027        15     1.075     0.913  58.00   0
        32    480.7801    955.6510 300.0560478 +22.8081716     302.4085     72.49377      1.281     3.88      3.10601     20.45791     33.51707         5     1.061     0.407 -85.40   0
        33     51.9186    954.0038 299.9232297 +22.6789578      380.516     72.43832      4.398     4.84     24.84742     20.45791     37.55582         5     1.167     0.568  -9.81   0
        34    726.2308    948.7969 300.1347147 +22.8798379     11339.34     72.49377      1.608     3.26     3.426153     20.45791     968.6753        52     1.350     1.312 -45.56   0
        35    772.2688    948.8995 300.1490273 +22.8936741     370.8002     72.60453      1.446     4.78     3.428532     20.45791     39.02518         8     0.984     0.658 -79.16   0
        36    917.5397    948.3993 300.1944772 +22.9370884     398.4392      72.4753      1.641     4.23     3.370788     20.45791     39.38859         6     1.072     0.476 -34.39   0
        37     38.1631    940.2263 299.9234397 +22.6708788      481.815     72.53071      1.512     3.70     16.37674     20.45791     55.01976         9     1.077     0.628  81.76   0
        38    431.7104    936.6732 300.0469525 +22.7880039     397.8599     72.67828      1.513     3.85     3.057967     20.45791     46.06882         9     1.048     0.794 -36.10   0
        39     28.2690    931.9126 299.9230713 +22.6655251      214.459     72.64142      1.500     6.82     10.42131     20.45791     35.46506         9     1.306     0.999  37.10   0
        40    734.8571    930.7496 300.1432756 +22.8772456     1326.095     72.56763      1.550     3.48     3.424219     20.45791     108.6749        20     1.130     1.091  46.09   0
        41    918.3477    929.2691 300.2009549 +22.9318383     435.2634     72.51225      1.671     4.49     3.426608     20.45791     36.91459        10     1.086     0.903 -25.19   0
        42    586.8434    927.7409 300.0981495 +22.8319869      534.576     72.51225      2.061     4.50     3.333265     20.45791     45.55257         9     0.995     0.877  26.63   0
        43    772.9855    924.4166 300.1572179 +22.8868620     882.6489     72.45681      1.677     4.26     3.427287     20.45791     91.00067        15     1.254     0.980 -67.42   0
        44    112.9552    924.4501 299.9518098 +22.6888171     499.4484     72.54917      2.510     4.55     7.329428     20.45791     34.79961         5     1.023     0.576  79.10   0
        45    882.1008    921.1783 300.1922853 +22.9186489     361.1167     72.43832      1.401     3.32     3.433154     20.45791     44.46653         5     0.780     0.511 -52.05   0
        46    821.5311    915.8145 300.1751478 +22.8989493     443.0444     72.53071      1.408     3.91     3.435465     20.45791     46.48003        11     1.046     0.736 -41.43   0
        47    672.6770    914.5946 300.1291601 +22.8539610     668.9227     72.41984      1.544     3.70     3.516804     20.45791     74.24017        14     1.085     0.859  23.85   0
        48    275.5283    914.6165 300.0055456 +22.7348049     303.5567     72.51225      1.464     4.92      3.87732     20.45791     28.63483         6     0.998     0.688 -68.06   0
        49    385.2812    910.9804 300.0408662 +22.7667024     4153.388     72.49377      1.527     2.89     3.347995     20.45791     470.8198        31     1.200     1.142 -85.85   0
        50    684.1050    911.4661 300.1337381 +22.8564906     624.1916     72.64142      1.457     3.42     3.506915     20.45791     73.86571        13     1.112     0.783  43.77   0
        51    428.2335    899.3969 300.0579994 +22.7762693     330.5047     72.51225      1.467     5.10     3.245848     20.45791     45.97932         8     1.092     0.672 -37.52   0
        52    163.5842    899.3151 299.9757217 +22.6968135     490.0956      72.4753      1.814     4.07      4.89799     20.45791      46.8567         6     0.931     0.688  69.02   0
        53     47.8865    899.1838 299.9398133 +22.6620372     624.5718      72.4753      2.673     4.25     6.306203     20.45791     50.76214         8     0.933     0.876 -36.64   0
        54     27.9990    899.6234 299.9334925 +22.6561910     461.1842     72.45681      2.415     4.19     6.313332     20.45791     33.93307         6     0.914     0.554 -89.96   0
        55    110.5629    896.5870 299.9601315 +22.6801127     939.6634     72.49377      2.061     4.42     5.993753     20.45791     66.27202        18     1.182     1.117  78.94   0
        56     87.6672    893.9675 299.9538694 +22.6724873     1686.771     72.51225      1.764     3.73     6.102519     20.45791      133.241        24     1.377     1.152   3.10   0
        57    959.3961    882.5742 300.2289510 +22.9307347     2201.915      72.4753      1.798     3.67     3.510077     20.45791     147.8315        30     1.358     1.194  -1.80   0
        58    913.7808    881.2130 300.2151678 +22.9166711     2134.718      72.4753      1.609     3.27     3.534312     20.45791     169.2035        27     1.313     1.097 -20.59   0
        59    619.3472    881.2233 300.1234072 +22.8283894     527.1319     72.53071      1.950     4.50     3.555109     20.45791     44.64394         7     1.016     0.566 -64.16   0
        60   1010.7578    877.4415 300.2466427 +22.9446543     315.5146     72.62298      1.485     3.08     3.486039     20.45791     44.05368         6     0.866     0.681  69.65   0
        61    697.1403    874.8234 300.1497212 +22.8498837       680.84     72.49377      1.585     4.70     3.529752     20.45791     65.97537        15     1.221     0.957  69.27   0
        62    119.7934    875.4136 299.9698878 +22.6768149     344.1116     72.40134      1.387     3.41     4.764271     20.45791     54.39181         9     0.895     0.869   5.68   0
        63    565.2113    869.0060 300.1105238 +22.8086458     4798.812     72.38284      1.432     2.71     3.405328     20.45791     527.9381        33     1.182     1.162  89.60   0
        64     55.0373    870.2284 299.9514541 +22.6558858     458.7341     72.53071      1.782     4.46     4.643687     20.45791     47.63374         7     0.961     0.671 -27.17   0
        65    367.3646    866.3470 300.0498130 +22.7485250     641.2913     72.53071      1.425     3.12     3.676578     20.45791     82.21137        14     1.013     0.894   8.21   0
        66    115.4228    862.9868 299.9725719 +22.6719406     1304.446     72.49377      1.624     3.36     4.301701     20.45791     126.9918        23     1.337     1.057  19.83   0
        67    585.9609    861.5989 300.1193944 +22.8127442     735.7202     72.53071      1.429     3.28     3.509122     20.45791     74.83557        14     1.073     0.830  68.63   0
        68    134.8101    860.0809 299.9795420 +22.6769280     526.2717     72.45681      1.598     3.97     4.245932     20.45791      59.2504        10     1.206     0.670  53.65   0
        69    502.5590    853.3781 300.0961025 +22.7853677     294.3141     72.54917      1.504     3.48     3.248275     20.45791     35.42516         5     1.060     0.330  68.37   0
        70    741.3908    848.7516 300.1719902 +22.8556693     4249.199     72.53071      1.508     2.74     3.502707     20.45791     432.5397        33     1.185     1.174  61.32   0
        71    958.3310    848.7618 300.2396193 +22.9207053      1182.91      72.4753      1.650     3.83     3.627244     20.45791     94.84543        18     1.194     1.025  50.55   0
        72    996.6392    849.0598 300.2514718 +22.9322716     426.3634     72.51225      2.313     4.16     3.611351     20.45791     37.96097         6     0.916     0.540   2.26   0
        73    149.6962    842.8929 299.9897590 +22.6764695     414.8282     72.69671      1.573     3.70      4.18542     20.45791      53.5556         6     0.938     0.617  11.92   0
        74    458.3777    841.2389 300.0862998 +22.7686307     675.4743     72.54917      1.367     3.39     3.346596     20.45791      67.3175        12     0.989     0.796  44.00   0
        75    104.8238    839.3811 299.9769564 +22.6619918     914.3541     72.51225      1.572     3.65     4.227425     20.45791      87.5356        16     1.142     0.939 -37.45   0
        76    254.3188    831.4584 300.0260021 +22.7045943     52842.39     72.56763      1.555     2.81     4.050596     20.45791     5448.039        99     1.414     1.387 -55.17   0
        77    519.7380    834.5417 300.1075774 +22.7851166     531.6025     72.56763      1.634     2.53     3.307853     20.45791     71.37048         7     0.812     0.625  64.05   0
        78    182.5654    830.0360 300.0041571 +22.6826500      522.672     72.58608      1.476     5.20     4.149373     20.45791     53.17183        12     1.321     0.883  82.83   0
        79    512.0703    830.3212 300.1065632 +22.7816056     1676.676     72.62298      1.451     2.82     3.307014     20.45791     160.9541        19     1.086     0.981  34.80   0
        80    925.2070    829.5316 300.2355441 +22.9052550     854.9373      72.4753      1.403     2.92     3.669105     20.45791     88.76093        14     0.932     0.903  19.96   0
        81    228.1352    829.3336 300.0185521 +22.6961265     336.9877     72.56763      1.365     3.19     4.123513     20.45791     44.43964         6     0.740     0.632 -46.18   0
        82    541.1593    826.4307 300.1168845 +22.7892148     791.9467     72.53071      1.400     2.87     3.340665     20.45791     90.04136        14     1.007     0.828  79.66   0
        83    551.9496    824.8528 300.1207572 +22.7919985      567.711     72.54917      1.424     3.33      3.37434     20.45791     70.38415        10     0.942     0.712  31.47   0
        84    872.1203    822.0297 300.2214307 +22.8871890     396.6474     72.51225      1.480     4.15     3.703946     20.45791     53.18423         7     0.910     0.546 -43.65   0
        85    657.6522    821.1035 300.1548948 +22.8226235     296.6933     72.58608      1.313     3.34     3.613929     20.45791     39.55339         7     0.850     0.579  59.86   0
        86    124.8329    820.7900 299.9892207 +22.6626690     290.8752     72.51225      1.242     4.63     4.152367     20.45791      29.5031         5     1.282     0.474 -28.45   0
        87    452.0045    818.3608 300.0917577 +22.7601553     315.3227     72.53071      1.434     4.31     3.421448     20.45791     33.94484         7     0.764     0.692  10.27   0
        88    695.1711    811.3052 300.1697697 +22.8310615     788.6735     72.43832      1.397     2.85     3.635935     20.45791     87.21088        11     0.940     0.725  31.79   0
        89    304.0519    808.7124 300.0488657 +22.7129961     31107.46     72.54917      1.477     2.67     3.995398     20.45791     3242.271        75     1.337     1.323  71.94   0
        90    318.2545    809.2283 300.0531153 +22.7174059     1869.579     72.51225      1.419     2.59     3.919667     20.45791     218.8232        24     1.144     1.047  49.06   0
        91    827.0868    804.5394 300.2130801 +22.8686679     2808.457     72.60453      1.466     2.74      3.81782     20.45791     290.6102        26     1.151     1.076   4.23   0
        92    315.1967    803.4242 300.0540518 +22.7148236          609      72.4753      1.290     3.37     3.955876     20.45791     62.04969         8     0.874     0.654  55.85   0
        93    856.7689    802.5458 300.2229818 +22.8769926     324.7321     72.53071      1.456     3.44     3.828695     20.45791     40.31787         5     0.738     0.464  18.34   0
        94    585.0396    800.5764 300.1389563 +22.7949563     846.1098     72.54917      1.329     2.86     3.518552     20.45791       94.031        12     0.937     0.782  85.35   0
        95    186.6363    800.5472 300.0150129 +22.6754166     797.9458     72.53071      1.610     3.29      4.13134     20.45791     81.16692        15     1.113     0.907 -28.42   0
        96    421.7729    800.0875 300.0882928 +22.7458433     349.4587     72.49377      1.267     3.70     3.560383     20.45791     71.70375         8     0.869     0.811  11.14   0
        97    479.2333    798.6242 300.1066511 +22.7626608     257.0566     72.53071      1.122     2.60     3.371023     20.45791     46.82737         5     0.742     0.422 -22.86   0
        98    432.3380    795.4297 300.0930953 +22.7476765     944.2835     72.53071      1.438     3.61     3.543046     20.45791     107.7046        15     1.146     0.949  -8.84   0
        99    833.3593    791.9656 300.2191249 +22.8669376      440.543     72.56763      1.443     3.96     3.851907     20.45791     58.78094         7     0.881     0.568  52.02   0
       100    378.4733    790.3771 300.0779783 +22.7300671     445.8808     72.56763      1.553     3.03     3.691706     20.45791     45.01124         6     0.891     0.420 -69.87   0
       101    290.1942    790.9573 300.0503300 +22.7037453     311.0458     72.53071      1.252     3.12     4.111765     20.45791      36.1418         8     0.805     0.747 -84.28   0
       102     18.8122    788.9993 299.9666191 +22.6217268     627.4014     72.32731      2.381     8.29     3.559342     20.45791     38.53264        13     2.102     0.914  36.84   0
       103    585.7266    788.9971 300.1429360 +22.7918392     342.3828     72.41984      1.426     5.01     3.499451     20.45791     48.78708         7     1.282     0.554  51.85   0
       104    810.9476    787.0433 300.2137396 +22.8588061     375.7533     72.54917      1.385     4.79     3.846457     20.45791     43.19205         9     0.846     0.770  52.32   0
       105    184.3670    784.8199 300.0194219 +22.6702258     563.8153     72.51225      1.604     3.34     4.007812     20.45791     68.64343        11     1.045     0.848 -34.19   0
       106    507.1377    775.2043 300.1229532 +22.7643107     466.7625     72.49377      1.482     2.87     3.395609     20.45791     62.36485         7     0.772     0.695  41.46   0
       107    477.2914    773.4639 300.1142288 +22.7548590     608.8096     72.62298      1.415     2.67     3.440416     20.45791     78.51878        10     0.912     0.750  65.40   0
       108    499.0490    770.8074 300.1218651 +22.7606229     1359.958     72.51225      1.345     2.59     3.409899     20.45791     182.7668        18     1.004     0.948   2.21   0
       109    386.0181    772.4468 300.0861564 +22.7271869     234.3226     72.54917      1.249     3.95     3.717928     20.45791     36.10643         5     0.897     0.497   0.16   0
       110    893.5432    769.6980 300.2451308 +22.8785814     1902.484     72.60453      0.815     2.74     3.845293     20.45791     474.8077        32     1.217     1.106  55.65   0
       111    418.9805    770.2338 300.0971322 +22.7364407      392.434     72.51225      1.250     2.62     3.675649     20.45791     50.88369         7     0.689     0.684  71.63   0
       112    580.5397    765.6782 300.1489041 +22.7835910     358.1792     72.56763      1.474     3.85      3.44356     20.45791     36.59554         6     0.909     0.467  -0.58   0
       113    881.9955    761.1083 300.2443234 +22.8726536     1580.672     72.41983      1.414     2.80     3.892889     20.45791     166.0864        21     1.079     1.029 -59.94   0
       114    244.8894    755.2147 300.0478643 +22.6798990     872.9307     72.45681      1.596     4.72     3.924678     20.45791      90.6632        19     1.345     1.017  67.86   0
       115    708.3638    752.5113 300.1930003 +22.8181387     2507.265     72.49377      1.342     2.53      3.76367     20.45791     292.7589        27     1.327     0.994   1.13   0
       116    913.1742    751.2298 300.2572581 +22.8791601     1671.491     72.51225      1.399     3.07     3.831754     20.45791     166.3342        18     1.015     0.970  78.58   0
       117     93.6238    739.1640 300.0060647 +22.6298982      661.007     72.53071      1.730     5.15     3.633972     20.45791     63.21136        15     1.192     1.070  66.90   0
       118    790.4573    738.4124 300.2231671 +22.8386998     623.7911      72.4753      1.565     3.44     3.867424     20.45791     62.06067        11     1.013     0.872  49.54   0
       119    826.7972    729.3767 300.2374324 +22.8469971     145710.9     72.45681      1.380     2.43     3.892552     20.45791     17083.64       156     1.407     1.350 -89.00   0
       120    589.0599    733.0392 300.1621701 +22.7767779     362.6856     72.51225      1.217     3.45     3.423898     20.45791      50.0385         7     0.872     0.538  44.94   0
       121    973.8974    730.9848 300.2827800 +22.8915403     1300.479     72.41983      1.524     3.32     3.628555     20.45791     112.3308        19     1.099     1.059 -46.43   0
       122    679.0667    729.7248 300.1912820 +22.8028134     893.7416     72.58608      1.417     2.21     3.614569     20.45791     111.6055        12     0.880     0.773  55.94   0
       123    859.7768    722.4559 300.2499642 +22.8548934     356.8167     72.53071      1.189     2.71     3.947173     20.45791     60.77256         9     0.992     0.561  61.97   0
       124   1023.0514    720.3445 300.3015741 +22.9032102     529.4339     59.86586      1.446     4.51     3.427379     20.45791     60.48875        11     0.998     0.852 -78.96  24
       125    694.2258    715.5493 300.2006135 +22.8032882     9197.157     72.53071      1.304     2.32     3.736704     20.45791     1141.878        41     1.164     1.107 -79.66   0
       126    513.0309    718.1533 300.1433379 +22.7497058     1687.144     72.54917      1.340     2.41      3.52213     20.45791     230.8347        20     1.070     0.938  72.90   0
       127    195.7236    710.7739 300.0470268 +22.6523993     4994.771     72.53071      1.472     2.65      3.63219     20.45791     594.8934        37     1.262     1.179  55.54   0
       128    277.7680    709.0206 300.0731065 +22.6765145     1162.044     72.51225      1.391     2.22     3.919871     20.45791     183.7536        18     1.006     0.938  88.79   0
       129    153.5839    706.5761 300.0352926 +22.6385495     474.3333     72.51225      1.357     3.20     3.597245     20.45791     70.37702         9     0.945     0.693  48.56   0
       130    486.1003    704.3363 300.1394467 +22.7376638     869.4945     72.60453      1.508     2.53     3.683002     20.45791     96.93703        11     0.940     0.682 -42.87   0
       131    477.6982    696.4648 300.1393903 +22.7328849     3230.552     72.60453      1.263     2.28     3.758726     20.45791     429.6323        22     0.998     0.966 -41.38   0
       132    467.7550    690.2291 300.1383226 +22.7281133     1366.403     72.54917      1.283     2.59     3.830201     20.45791     187.8063        16     0.984     0.863 -69.38   0
       133    861.6539    687.9530 300.2617668 +22.8455459     561.4516     72.54917      1.441     4.00     3.873852     20.45791     57.97921        11     1.054     0.803 -80.28   0
       134    396.3659    689.4594 300.1163569 +22.7064807     233.3807     72.54917      1.086     3.39     3.969889     20.45791     47.39692         5     0.725     0.461  19.82   0
       135    131.0875    686.3287 300.0348824 +22.6259917     755.1458     72.65985      1.567     4.72     3.674235     20.45791     62.70062        12     1.196     0.742  50.85   0
       136     31.1462    685.1868 300.0042003 +22.5956684     343.9643     72.51225      1.744     3.87     3.973105     20.45791     30.32816         5     1.371     0.312  58.31   0
       137    145.6081    684.6931 300.0399269 +22.6298802     640.3533     72.41984      1.422     3.38      3.63049     20.45791     82.65822        11     1.019     0.827  63.18   0
       138    171.1492    681.8533 300.0487887 +22.6367303     590.9922     72.54917      1.537     4.77      3.58819     20.45791     55.95856        10     1.123     0.759 -55.11   0
       139    914.9692    681.4258 300.2805134 +22.8596467     458.5671     72.51225      1.338     2.99     3.836266     20.45791     55.27718         6     0.783     0.492   4.38   0
       140    491.6664    680.3851 300.1489652 +22.7324590     531.9796     72.49377      1.316     2.85     3.791385     20.45791     63.10102        10     0.838     0.799 -74.31   0
       141    392.6798    679.9589 300.1182982 +22.7026490     1739.556     72.49377      1.313     2.17      3.99263     20.45791     270.9066        18     1.010     0.886  60.75   0
       142    202.6514    681.4455 300.0587140 +22.6460663     404.2898     72.53071      1.650     2.62     3.596919     20.45791     67.66886         6     0.897     0.624  30.78   0
       143    426.7995    679.0181 300.1292208 +22.7126127     307.9715     72.43832      1.337     3.06     4.034604     20.45791     39.34658         5     0.791     0.492  36.19   0
       144     46.6995    674.9572 300.0123569 +22.5974037     19615.73     72.49377      1.596     2.90     3.876147     20.45791     2150.177        70     1.417     1.377  49.15   0
       145    968.4142    677.1337 300.2985776 +22.8744264     797.1411      72.4753      1.325     2.80     3.660543     20.45791     100.1538        13     0.989     0.801  46.42   0
       146    477.7230    675.4394 300.1462327 +22.7268581      1008.23     72.49377      1.248     2.37     3.879682     20.45791     147.7657        15     0.986     0.854 -80.85   0
       147    512.7614    674.4451 300.1574627 +22.7370801      330.408     72.56763      1.204     3.25      3.72564     20.45791     54.88284         7     0.954     0.572 -30.07   0
       148    230.9825    666.9821 300.0722232 +22.6504182     352.9783     72.51225      1.262     3.81     3.620627     20.45791     50.91528         5     0.814     0.510 -27.07   0
       149    895.7114    661.3046 300.2810488 +22.8480961     955.1112     72.69671      1.313     3.04      3.84886     20.45791     119.6696        14     1.130     0.733  32.66   0
       150    560.6272    662.6340 300.1762043 +22.7480425     168.7056     72.53071      1.133     3.47      3.75159     20.45791     57.20479         5     0.968     0.405  17.24   0
       151    762.5414    659.3845 300.2401587 +22.8076377     348.0267     72.49377      1.136     2.66     3.863164     20.45791       69.331         9     0.849     0.728  29.76   0
       152    626.1445    656.9449 300.1984567 +22.7660521     412.7528     72.54917      0.520     2.50     3.891536     20.45791     195.9426         5     0.664     0.282  43.18   0
       153    440.9945    655.7592 300.1411983 +22.7101951     373.6656     72.53071      1.237     2.54     4.177938     20.45791     72.62118         8     0.839     0.678 -80.32   0
       154    233.3854    655.0109 300.0768611 +22.6477051     324.5491     72.41984      1.333     2.81     3.654965     20.45791     58.84742         7     0.837     0.696 -26.30   0
       155    835.9907    653.7847 300.2648729 +22.8280410     947.4099     72.41984      1.770     2.81     3.849854     20.45791     105.3571        12     1.033     0.791  67.27   0
       156    580.4895    652.2982 300.1857486 +22.7510305      303.883     72.69671      1.219     3.45     3.889449     20.45791     47.56656         5     0.753     0.456 -70.03   0
       157    397.6313    648.1102 300.1301906 +22.6949947     659.7251     72.45681      1.309     3.24     4.151634     20.45791     88.33594        11     1.026     0.706  -9.36   0
       158    545.5779    646.5342 300.1767514 +22.7389084     587.8811     72.49377      1.528     2.89      3.92814     20.45791     75.64152         9     0.928     0.739  44.93   0
       159    593.1095    645.2034 300.1919846 +22.7527772     515.2994     72.41984      1.495     3.13     3.946027     20.45791      61.3897        10     0.982     0.719   0.64   0
       160    563.3715    644.4166 300.1829800 +22.7436355     626.0378     72.51225      1.367     3.37     3.962387     20.45791     73.98965        10     1.007     0.668 -55.30   0
       161    442.0144    643.9990 300.1453380 +22.7071257     986.3162     72.36433      1.458     2.72     4.293777     20.45791     124.6161        12     0.955     0.804  84.61   0
       162    407.4124    639.4574 300.1360463 +22.6954451      1690.25      72.4753      1.281     2.31     4.233965     20.45791     209.7545        21     1.052     0.970 -87.23   0
       163    973.9633    637.4870 300.3131959 +22.8646972      697.721     72.49377      1.354     2.69     3.708782     20.45791     83.23418        10     0.918     0.673  58.28   0
       164    772.5788    636.7242 300.2506523 +22.8041377     293.6972     72.51225      1.117     3.12     3.905448     20.45791     45.77094         6     0.843     0.498 -46.56   0
       165    744.6420    636.1742 300.2421247 +22.7956072     160.1978     72.54917      1.003     2.48     3.993156     20.45791     39.73527         5     0.737     0.426 -68.65   0
       166    757.4231    635.1826 300.2464300 +22.7991529     220.3067      72.4753      1.129     3.19     3.960371     20.45791     41.54826         5     0.932     0.375  -6.14   0
       167    383.4257    634.0570 300.1303379 +22.6867012     447.8731     72.51225      1.839     4.25     4.149616     20.45791     37.66906         7     0.867     0.697 -25.87   0
       168    228.4071    630.5339 300.0832681 +22.6391897     201.5574     72.53071      1.199     3.97     3.701411     20.45791      35.3228         6     0.917     0.491 -89.58   0
       169    875.7435    639.3201 300.2819683 +22.8357976     3209.985     72.54917      1.310     2.31     3.893678     20.45791     406.7733        26     1.075     1.017  82.72   0
       170    915.1248    629.1446 300.2975558 +22.8446733     369.2354     72.53071      1.264     2.43     3.852812     20.45791     58.67684         8     0.786     0.659 -49.08   0
       171    270.9310    626.2206 300.0978925 +22.6507094     8986.842     72.49377      1.342     2.33     3.782934     20.45791     1187.799        41     1.162     1.123  56.88   0
       172    393.3711    623.2067 300.1369585 +22.6865702     8960.991     72.51225      1.281     2.29     4.245684     20.45791     1086.724        41     1.134     1.097 -89.47   0
       173    158.7244    620.5837 300.0648391 +22.6154285     408.2696     72.51225      1.807     4.08     3.450726     20.45791     33.67636         5     0.978     0.487   5.18   0
       174    998.0820    618.2948 300.3269576 +22.8664070     966.7269     72.67828      1.453     3.18      3.70274     20.45791     112.4787        13     1.018     0.827  31.88   0
       175    805.0068    617.0616 300.2671500 +22.8082078     1856.399      72.4753      1.322     2.36     3.837009     20.45791     246.6234        20     1.081     0.911  67.88   0
       176    889.6755    614.4124 300.2944078 +22.8328160     12366.29     72.53071      1.311     2.30     3.906667     20.45791      1574.43        46     1.215     1.119  87.97   0
       177    453.9058    612.7790 300.1591848 +22.7017311     11218.35     72.43832      1.289     2.15     4.679444     20.45791     1764.431        40     1.137     1.050  85.82   0
       178    181.4358    608.3874 300.0758619 +22.6187442     1393.448     72.49377      1.321     2.43     3.518253     20.45791     162.1124        18     1.069     0.941  30.89   0
       179    623.8005    608.3929 300.2135061 +22.7514089     563.9332     72.32731      1.296     3.05      4.09913     20.45791     68.14346         7     0.736     0.665   4.23   0
       180    339.3002    607.4044 300.1252717 +22.6658183     401.8674     72.40134      1.178     2.95      4.03893     20.45791     48.31248         6     0.813     0.519 -42.50   0
       181    428.0047    605.7090 300.1534216 +22.6919348     302.4053     72.41984      1.075     3.32     4.525506     20.45791      56.2225         6     0.841     0.584  52.26   0
       182    385.5874    600.9640 300.1417647 +22.6778523     4452.967     72.49377      1.297     2.21     4.286234     20.45791     648.3331        27     1.070     0.976 -88.24   0
       183    728.4661    600.8235 300.2485727 +22.7806063      777.746     72.49377      1.168     2.25     4.166163     20.45791      112.205        12     0.829     0.799 -36.27   0
       184    363.8769    599.3828 300.1355238 +22.6708874     1321.275     72.51225      1.363     2.31     4.178757     20.45791      170.651        18     1.044     0.884  63.94   0
       185    118.1155    598.9089 300.0592609 +22.5970265      687.385     72.67828      1.344     3.02     3.759768     20.45791     105.1646        10     0.929     0.760  80.68   0
       186    805.3547    596.4477 300.2739575 +22.8023906     1700.726     72.53071      1.405     2.54     3.842967     20.45791     187.9217        19     1.045     0.940 -39.91   0
       187     51.8339    596.9042 300.0393169 +22.5765620     416.0202     72.51225      1.373     3.89     3.884951     20.45791     41.92567         5     0.818     0.530 -24.68   0
       188    502.2286    588.4870 300.1821196 +22.7092473     197555.7     72.51225      1.262     2.11     4.750938     20.45791     27541.16       195     1.402     1.351 -16.05   0
       189    326.0037    594.5654 300.1253075 +22.6581459     214.7313     72.51225      1.180     4.02     3.997911     20.45791     38.48948         6     0.954     0.485  78.58   0
       190    685.9634    593.3891 300.2377457 +22.7657329     800.6538     72.51225      1.288     2.46     4.134598     20.45791     114.2456        13     0.980     0.764 -79.21   0
       191    963.7211    592.4512 300.3246375 +22.8486879     267.0993     72.51225      2.091     5.39     3.781052     20.45791     27.45652         6     1.699     0.483 -31.52   0
       192    890.1166    589.8538 300.3025262 +22.8258922     280.2525     72.54917      1.640     4.61     3.892273     20.45791     33.20338         6     1.119     0.539  24.52   0
       193    188.3040    588.5762 300.0844342 +22.6151215     3476.985     72.40134      1.407     2.57     3.645002     20.45791     390.1531        27     1.105     1.070  34.55   0
       194    270.9738    588.3252 300.1102198 +22.6398492     160.4866     72.51225      1.118     4.03     3.800891     20.45791     38.72948         5     0.841     0.553 -87.48   0
       195    754.4148    584.4440 300.2619814 +22.7836780     573.6278     72.53071      1.699     2.40     4.111328     20.45791     65.35154         7     0.770     0.623  78.72   0
       196    534.1099    575.2985 300.1963301 +22.7150193     267.5702     72.69671      1.181     2.02      4.43138     20.45791     62.71851         5     0.711     0.425  17.29   0
       197    392.8528    568.7918 300.1544787 +22.6707974      2831.12     72.51225      1.395     2.25     4.369737     20.45791     387.6114        24     1.125     0.965  87.27   2
       198    237.3412    571.2920 300.1052957 +22.6248733     519.1439     72.58608      1.392     2.63     3.792753     20.45791     66.30369        10     0.899     0.726 -46.87   0
       199    842.2988    568.5530 300.2945385 +22.8054462     233.1433     72.54917      1.117     4.78     3.876231     20.45791     53.58232         8     1.311     0.494  32.65   0
       200    623.5559    564.3934 300.2277271 +22.7387008     764.7272     72.53071      2.097     4.49     4.160636     20.45791     60.46773        17     1.276     0.958  61.64   0
       201    804.3771    565.2543 300.2837888 +22.7931366     475.4533     72.53071      1.169     1.85     3.847821     20.45791      66.7009         5     0.660     0.461  71.71   0
       202    709.9545    557.5311 300.2568717 +22.7626242     361.8034     72.49377      1.068     2.60     4.222363     20.45791     65.46143         7     0.822     0.611 -62.37   0
       203    789.7892    554.8522 300.2826215 +22.7857774     1642.024     72.51225      1.258     2.18      3.92085     20.45791     270.6782        15     0.923     0.837  57.50   0
       204    661.0004    552.5114 300.2432511 +22.7465113      2455.42     72.41984      1.223     2.14     4.176013     20.45791     417.9115        20     0.974     0.912  64.03   0
       205     20.2337    553.0119 300.0437599 +22.5544910     358.1753     72.49377      1.500     4.11     3.855784     20.45791     46.87992         6     1.252     0.385  15.61   0
       206    299.2071    552.1365 300.1307580 +22.6379331     220.7282     72.49377      1.509     4.68     3.879561     20.45791     35.59681         5     0.951     0.654  64.56   0
       207    905.3351    549.9165 300.3202488 +22.8189757     533.2924     72.62298      1.369     2.80     3.843061     20.45791     59.37221         8     0.791     0.691 -36.15   2
       208    904.0985    545.5148 300.3212933 +22.8173404     847.1635     72.67828      1.440     2.81     3.840773     20.45791     100.6212        14     1.024     0.834 -83.25   2
       209    870.6060    549.7590 300.3094706 +22.8085268     382.8145     72.54917      1.168     3.43      3.85809     20.45791     34.18344         5     0.758     0.449  71.65   0
       210    565.9181    549.2419 300.2146999 +22.7170732     461.1287      72.4753      1.351     2.39     4.221724     20.45791     73.79467         9     0.847     0.670  74.86   0
       211    448.3830    548.5309 300.1783415 +22.6816325     665.4064     72.54917      1.217     2.36     4.705453     20.45791     90.21506        12     0.856     0.794   9.93   0
       212    918.2479    546.5948 300.3253549 +22.8218892     1241.754     72.49377      1.250     2.34     3.836414     20.45791     179.4235        14     0.890     0.837 -12.68   0
       213    790.1191    544.9016 300.2859573 +22.7830176      2191.97     72.64142      1.495     3.23     3.926808     20.45791      272.167        22     1.496     0.824  79.05   0
       214    543.2473    543.1184 300.2096303 +22.7085190     574.2855     72.51225      1.338     2.08     4.248505     20.45791     75.45163         8     0.733     0.640 -60.24   0
       215    329.5318    543.0424 300.1431446 +22.6444179     193.0483     72.49377      1.216     2.33     4.092995     20.45791     43.82988         6     0.744     0.495  83.78   0
       216    828.2755    540.0366 300.2994319 +22.7930518     4151.907      72.4753      1.263     2.16     3.852434     20.45791      643.196        27     1.038     0.993 -49.31   0
       217    381.8730    541.9715 300.1597759 +22.6598067     309.7996     72.53071      1.203     1.93     4.351202     20.45791     74.90894         7     0.679     0.635 -24.07   0
       218    543.0836    539.0759 300.2108926 +22.7073091      398.713     72.60453      1.184     2.17     4.244706     20.45791     57.00852         5     0.600     0.576 -76.58   0
       219    488.2116    535.9658 300.1948203 +22.6899664     353.7022     72.49377      1.425     2.27     4.775088     20.45791     66.19994         5     0.685     0.600   3.83   0
       220    920.0745    530.4314 300.3311759 +22.8177914     768.8253     72.51225      1.245     3.02     3.828372     20.45791     120.1354        12     0.958     0.796  42.02   0
       221     60.2777    530.6057 300.0634788 +22.5600804     950.9052     72.41984      1.335     2.78     3.985229     20.45791     106.3335        14     0.998     0.827  47.28   0
       222    859.2766    527.4441 300.3131879 +22.7987209      284.281     72.49377      1.283     2.72     3.855309     20.45791     62.03323         6     0.967     0.604  26.15   0
       223    690.2091    527.6212 300.2604369 +22.7481159     138.8794     72.49377      1.167     3.48     4.192498     20.45791     31.31457         5     0.773     0.453 -16.11   0
       224    721.0527    523.9257 300.2712476 +22.7562970     310.1367     72.53071      1.366     3.55     4.242561     20.45791     52.52517         8     1.004     0.756  71.42   0
       225     52.8554    520.8675 300.0643359 +22.5550601     468.5904     72.54917      1.378     3.97     4.015625     20.45791     52.17099         8     0.909     0.748 -75.07   0
       226    916.3627    519.4480 300.3335865 +22.8135231     241.1144     72.53071      1.267     3.54     3.825829     20.45791     41.25085         7     0.942     0.486  -7.42   0
       227    660.2320    514.6112 300.2553243 +22.7353956     415.5069     72.51225      1.070     2.39     4.153159     20.45791      57.8856         7     0.764     0.595  21.27   0
       228    549.3201    512.4259 300.2214917 +22.7015261     323.6702     72.49377      1.258     3.05     4.205833     20.45791     52.01239         5     0.707     0.485  10.84   0
       229    601.6903    510.5372 300.2384133 +22.7166807     825.8734     72.60453      1.220     2.19       4.1893     20.45791     128.0293        11     0.824     0.760  81.36   0
       230   1009.2312    508.1575 300.3662226 +22.8380917     1108.989     72.56763      1.309     2.48     3.377565     20.45791     143.1516        15     0.943     0.892 -42.83   0
       231    390.3872    509.2065 300.1730684 +22.6529546     97.16938     72.38284      1.107     3.42     4.218665     20.45791     29.69969         5     0.740     0.457  73.24   0
       232    916.3785    502.7958 300.3390009 +22.8087422     676.3412      72.4753      1.211     2.55     3.819309     20.45791     90.04405        12     0.869     0.831 -15.97   0
       233    662.6776    502.6928 300.2599576 +22.7327051      912.098     72.65985      1.258     2.35     4.136741     20.45791     137.8063        13     0.975     0.787 -42.98   0
       234    819.7474    498.9366 300.3101250 +22.7786878      1064.91     72.56763      1.284     2.20     3.854771     20.45791     162.5461        14     0.906     0.845  84.71   0
       235    803.9815    495.2602 300.3064046 +22.7729084     628.2352      72.4753      1.340     2.64     3.852482     20.45791     94.40411        12     0.928     0.837  52.23   0
       236    548.2161    493.3926 300.2273303 +22.6957295     3164.393     72.43832      1.217     2.19      4.19453     20.45791     425.6285        24     1.091     0.889  65.13   0
       237    784.5535    495.2968 300.3003370 +22.7670985      386.426     72.53071      1.002     2.35     3.951147     20.45791     47.02288         5     0.680     0.467 -69.73   0
       238    908.8652    492.2047 300.3400982 +22.8034481     500.6539     72.51225      1.147     2.64     3.821402     20.45791     92.92091         9     0.915     0.620  49.45   0
       239     23.6233    484.5960 300.0670349 +22.5358849     263.5196      72.4753      1.565     3.91     4.159952     20.45791     40.33442         5     1.140     0.384  16.51   0
       240   1019.6435    481.1328 300.3782497 +22.8334411     514.2413     72.38284      1.438     3.31     3.039906     20.45791     62.51395        10     0.960     0.758  50.87  16
       241    388.0193    480.6408 300.1816098 +22.6440444     359.3262     72.53071      1.403     3.29     4.070664     20.45791     47.80634         9     0.930     0.672  56.60   0
       242    959.5154    472.3990 300.3623286 +22.8129249     1343.069     72.40134      1.241     2.35     3.518894     20.45791     175.6022        15     0.942     0.818  35.83   0
       243    917.9758    471.1048 300.3497929 +22.8001125     847.2809     72.40134      1.233     2.24     3.777241     20.45791     155.4081        12     0.870     0.759  76.68   0
       244    831.8036    471.9557 300.3226471 +22.7745465     622.8917     72.53071      1.245     3.13     3.852273     20.45791     74.97193        10     0.899     0.721 -75.95   0
       245    658.9479    467.1555 300.2703384 +22.7213795     1086.275     72.53071      1.222     2.02     4.117923     20.45791     176.2693        12     0.863     0.756  72.78   0
       246    454.5001    467.9191 300.2064299 +22.6603229     431.1779     72.64142      1.246     2.28      4.24999     20.45791     69.35272         6     0.737     0.486  77.72   0
       247    163.0388    465.7696 300.1164717 +22.5723076     464.2278     72.51225      1.159     2.66     3.983843     20.45791      97.7804         9     0.846     0.789  -8.70   0
       248    225.2011    461.3220 300.1372413 +22.5896755     3665.169     72.40134      1.331     2.38     3.877634     20.45791     459.0557        28     1.090     1.065 -68.99   0
       249      2.7027    463.6005 300.0673545 +22.5235854    -60.57243     63.55531      0.952     3.36     4.398011     20.45791     33.59991         5     0.744     0.440  21.03  16
       250    958.2737    459.6262 300.3660898 +22.8088815     4231.313     72.51225      1.253     2.20     3.507078     20.45791     647.0375        28     1.061     1.033  41.65   0
       251    172.6274    456.3354 300.1225160 +22.5724765     7997.306     72.49377      1.460     6.01     3.966773     20.45791     916.4702        40     1.515     1.091  31.85   0
       252    938.3057    450.6532 300.3627758 +22.8003226     1870.181     72.58608      1.350     2.21     3.623726     20.45791     282.2595        20     1.053     0.929  82.33   0
       253    313.1164    450.3142 300.1681565 +22.6128800     4843.144     72.62298      1.277     2.28     3.956799     20.45791     609.7823        28     1.092     0.986  53.92   0
       254    557.3886    446.9644 300.2452652 +22.6851451     18213.88     72.51225      1.216     2.03     4.188144     20.45791     2810.231        48     1.124     1.044  82.25   0
       255    404.8212    448.4358 300.1972968 +22.6398359     297.5745     72.53071      1.387     3.46      4.20812     20.45791     40.68247         5     0.741     0.466 -16.97   0
       256    184.3500    445.4470 300.1296959 +22.5728678     352.0446     72.54917      1.674     4.18     3.948201     20.45791     35.64561         6     1.075     0.463 -56.15   0
       257    574.9978    446.9388 300.2507569 +22.6904151     808.2886     72.49377      1.792     6.42     4.195179     20.45791     78.59428        16     1.595     0.726 -35.06   0
       258    754.3198    437.2685 300.3097607 +22.7413679     229.0092     72.62298      1.003     2.00     3.967705     20.45791     71.75851         6     0.649     0.612 -34.54   0
       259    177.1421    434.4880 300.1310137 +22.5675611     292.9825     72.58608      1.324     4.00      3.96025     20.45791     52.82732         6     1.077     0.690   5.56   0
       260    891.0861    429.4698 300.3549290 +22.7800924     842.8643     72.62298      1.401     2.82     3.752778     20.45791     106.0224        14     1.049     0.813 -87.93   0
       261    600.5957    428.2134 300.2648094 +22.6927077     215.2567     72.36433      1.313     4.29     4.215481     20.45791     40.67853         7     1.226     0.427 -50.37   0
       262    427.8457    428.5930 300.2109052 +22.6410409     338.1387     72.53071      1.277     2.58     4.234535     20.45791     45.02888         5     0.709     0.462  18.02   0
       263    112.0278    427.2207 300.1131346 +22.5459455     1940.076     72.51225      1.386     2.50     4.026832     20.45791     242.5869        22     1.062     1.017 -76.43   0
       264    497.9850    416.4275 300.2366865 +22.6585711     6348.094     72.53071      1.222     2.09     4.244359     20.45791     939.1407        31     1.049     0.996  50.92   0
       265    911.5872    416.6177 300.3654957 +22.7825379     1136.181      72.4753      1.221     2.41     3.637448     20.45791     161.3934        16     1.003     0.851  87.05   0
       266    212.9301    415.8049 300.1482061 +22.5729321     697.9132      72.4753      1.416     2.76     3.905864     20.45791     90.98236        10     0.878     0.752  89.35   0
       267    548.3594    413.7267 300.2532468 +22.6728927     109.3456     72.49377      0.819     4.12     4.186226     20.45791     30.90685         5     1.021     0.474 -85.29   0
       268     70.5387    409.0702 300.1061351 +22.5282925     493.7875     72.54917      1.149     2.20      4.26506     20.45791     84.50754         8     0.750     0.656 -27.62   0
       269    757.5870    408.0825 300.3202563 +22.7339601     299.9857     72.49377      1.319     2.70     3.911717     20.45791     47.01233         6     0.770     0.489  84.20   0
       270    702.0584    405.2465 300.3038736 +22.7165104     1063.536     72.56763      1.270     2.19     4.065225     20.45791      163.064        16     1.094     0.817  78.95   0
       271    611.7427    406.6347 300.2752879 +22.6898493     416.7754     72.53071      1.126     2.78     4.227857     20.45791     77.88167         7     0.870     0.542  57.29   0
       272    404.6678    402.8168 300.2120618 +22.6266916     6016.256     72.51225      1.237     2.02     4.279393     20.45791     949.7787        34     1.098     1.030  85.58   0
       273    796.5455    396.9769 300.3360049 +22.7424383     1451.533     72.53071      1.255     2.15      3.79067     20.45791     201.8918        17     1.034     0.846  87.14   0
       274    893.8811    397.0004 300.3663439 +22.7715965     686.5095     72.38284      1.357     2.70     3.708749     20.45791     94.40868         9     0.920     0.631  57.63   0
       275    389.1490    391.4608 300.2109199 +22.6187788     588.9548     72.56763      1.393     3.09       4.3412     20.45791     60.38041        10     0.956     0.699  38.07   0
       276    471.9202    389.3148 300.2373759 +22.6429726     458.2969     72.65985      1.338     2.21     4.320735     20.45791     64.07373         7     0.692     0.641 -85.08   0
       277    769.3398    384.7159 300.3315060 +22.7307658     480.4975     72.62298      1.106     2.03      3.93182     20.45791     78.63078         6     0.676     0.537 -51.59   0
       278    273.8275    384.4546 300.1773207 +22.5821940     185.5992     72.51225      1.072     3.15     4.157637     20.45791     34.63132         5     0.735     0.463 -18.65   0
       279    292.2102    382.0107 300.1838313 +22.5870040      2446.84     72.40134      1.273     2.29     4.196445     20.45791     343.8056        21     0.995     0.966  54.98   0
       280     10.4617    379.3503 300.0971188 +22.5017439     1080.582     72.56763      1.463     3.55     4.592235     20.45791     123.5883        17     1.138     0.973  15.12   0
       281    639.8297    376.4157 300.2938476 +22.6895834     298.5314     72.51225      1.186     2.70     4.225416     20.45791      70.3325         7     0.876     0.603  51.49   0
       282    261.5288    371.4162 300.1777287 +22.5747636     29504.96     72.51225      1.310     2.27      4.22579     20.45791     3617.687        70     1.282     1.153  52.46   0
       283    796.1555    368.6664 300.3450748 +22.7341851     1414.502     72.49377      1.205     2.24      3.79704     20.45791     244.1554        16     0.928     0.838  73.07   0
       284    751.6414    366.5106 300.3319007 +22.7202327     298.3095     72.51225      1.179     2.94     4.085754     20.45791     44.71743         5     0.706     0.475  17.36   0
       285    711.4484    357.6817 300.3222419 +22.7056560     437.1066     72.54917      1.037     2.15     4.234838     20.45791     78.12653         7     0.784     0.547 -33.36   0
       286    136.0181    357.6875 300.1431643 +22.5331870     457.2193     72.45681      1.240     2.82     4.001702     20.45791     63.09616         5     0.725     0.437 -15.45   0
       287    359.9854    356.3093 300.2132575 +22.5999433      490.224     72.43832      1.408     2.26     4.508506     20.45791     65.44379         7     0.694     0.651  47.77   0
       288    538.8339    353.3744 300.2698747 +22.6527027     183.7839     72.51225      0.809     3.39     4.278267     20.45791     39.93726         5     0.951     0.365  85.36   0
       289    671.9007    351.0112 300.3120855 +22.6918923     1822.003     72.41983      1.198     2.03     4.259566     20.45791      327.118        18     0.961     0.819  86.35   0
       290    480.2035    345.6145 300.2541408 +22.6329041      262.454     72.36433      0.993     1.78     4.429051     20.45791     63.09082         5     0.673     0.442 -23.59   0
       291    886.9908    343.7068 300.3814974 +22.7542132     619.8741     72.43832      1.277     2.97     3.757771     20.45791      98.1283        11     0.990     0.721  83.63   0
       292    333.8174    335.7846 300.2117789 +22.5862056     2088.887     72.49377      1.476     2.79      4.60928     20.45791     263.5134        26     1.286     0.994  49.54   0
       293    546.1576    334.4734 300.2782903 +22.6494677     291.4581     72.49377      1.159     1.68     4.304955     20.45791     54.09618         5     0.642     0.466  23.84   0
       294    772.8493    328.3493 300.3508983 +22.7156172     572.8088     72.54917      1.057     2.09     4.132997     20.45791     104.4878         9     0.804     0.648  66.06   0
       295    765.4216    329.2089 300.3483042 +22.7136397     200.1299     72.51225      1.206     2.70     4.168435     20.45791       41.965         5     0.704     0.472  73.95   0
       296    655.3859    326.2843 300.3149671 +22.6798399     446.5018      72.4753      0.939     1.91     4.317682     20.45791     78.12956         5     0.671     0.453  68.86   0
       297    409.5454    314.9961 300.2420877 +22.6029342     1184.444      72.4753      1.253     2.13     4.728634     20.45791     176.6262        15     0.957     0.785  47.99   0
       298    921.0558    310.9040 300.4027686 +22.7549819     408.3166     72.60453      1.295     2.11     3.891809     20.45791     70.76018         8     0.789     0.678  10.07   0
       299    792.4807    307.9151 300.3636498 +22.7156231     247.5388     72.65985      1.184     4.19     4.201247     20.45791     38.28218         6     0.764     0.657  47.64   0
       300    654.5239    306.8347 300.3210113 +22.6739928     2272.479      72.4753      1.242     2.09     4.359896     20.45791     341.5579        21     1.011     0.922 -78.96   0
       301    915.6825    301.2180 300.4042365 +22.7505882     3166.974      72.4753      1.262     2.20     3.967395     20.45791     419.3207        24     1.036     0.968 -85.70   0
       302    976.9480    295.7727 300.4251135 +22.7673635     425.6179     72.53071      1.108     1.93     4.164758     20.45791     75.37174         7     0.682     0.642  -7.53   0
       303    362.6251    290.7117 300.2353694 +22.5818973     423.2138     72.45681      1.108     2.38     4.992705     20.45791     80.87746         9     0.801     0.718  54.65   0
       304    985.1753    289.0784 300.4298528 +22.7679012     1671.846     72.49377      1.326     2.14     4.302182     20.45791     252.5741        19     1.002     0.920  42.35   0
       305     37.5728    285.1352 300.1361192 +22.4828413     1437.607     72.49377      1.647     3.37     4.673343     20.45791      130.593        23     1.396     0.969 -29.78   0
       306     68.4365    285.2437 300.1456735 +22.4921284     546.4116     72.56763      1.234     3.67     4.499524     20.45791     62.60258         9     1.051     0.620  -3.28   0
       307    931.1124    281.6255 300.4154076 +22.7495740     512.5534     72.45681      1.283     2.14     4.093106     20.45791     73.94406         7     0.703     0.613 -20.90   0
       308    785.8051    281.9546 300.3699945 +22.7061616     205.7218     72.51225      1.470     5.19     4.369828     20.45791     35.68005         7     1.293     0.589 -14.80   0
       309    774.4036    278.1940 300.3676612 +22.7016663     391.5685     72.32731      1.525     4.16     4.391358     20.45791     47.78217        10     1.025     0.830  68.63   0
       310    407.1728    276.0009 300.2540045 +22.5910233     209.9838      72.4753      1.583     4.12     4.976238     20.45791     38.05768         5     1.367     0.355  84.29   0
       311    121.3018    277.1102 300.1647412 +22.5056466     541.6558     72.69671      1.538     2.91     4.381375     20.45791     63.84991        10     0.887     0.786  78.70   0
       312    916.5701    274.2318 300.4132716 +22.7430945     293.5951     72.51225      1.121     3.52     4.121554     20.45791     50.49013         5     0.796     0.449 -71.51   0
       313    797.8516    270.2973 300.3775325 +22.7064179     371.2222     72.58608      1.236     3.06     4.356314     20.45791     65.58522         8     0.964     0.636   5.76   0
       314    726.0318    268.1845 300.3558343 +22.6843030     686.8141     72.49377      1.231     2.45     4.490065     20.45791     122.1696        11     0.951     0.681  86.14   0
       315    316.2657    268.1400 300.2282720 +22.5615201     214.8296     72.54917      1.185     2.83     4.907741     20.45791     48.86565         6     0.752     0.570  -5.91   0
       316    862.3399    261.2310 300.4005795 +22.7231205      262.345     72.54917      1.694     2.46     4.189288     20.45791     42.85567         5     0.736     0.428  70.11   0
       317    816.4933    261.0472 300.3863454 +22.7093407     417.4001     72.53071      1.515     3.73     4.311391     20.45791     49.39869         7     0.847     0.723 -20.87   0
       318    824.1074    257.3452 300.3899204 +22.7105562     2060.508     72.56763      1.213     2.15     4.297041     20.45791     294.5306        16     0.951     0.800  80.22   0
       319    242.6391    254.8227 300.2096943 +22.5356264      2139.65     72.54917      1.369     2.57     4.839931     20.45791     290.4915        22     1.109     0.976  81.57   0
       320    320.4944    250.1131 300.2354367 +22.5576106     952.8605      72.6967      1.412     3.92     4.911707     20.45791       103.63        17     1.200     0.937 -31.05   0
       321     72.3718    250.6138 300.1581328 +22.4833692     327.3508     72.51225      1.032     3.67      4.69358     20.45791     61.55518         5     0.915     0.422 -45.15   0
       322    722.6918    249.0578 300.3610000 +22.6778051        487.8     72.56763      1.094     2.41     4.567544     20.45791     85.55376         8     0.800     0.602  54.38   0
       323    829.7394    245.9852 300.3953624 +22.7089765     299.5337      72.4753      1.081     3.08     4.306509     20.45791      57.3784         7     0.921     0.596  82.94   0
       324    137.4198    242.0027 300.1811420 +22.5004015     882.7681     72.43832      1.527     4.18     4.543501     20.45791     84.45787        15     1.332     0.769  41.13   0
       325    255.2035    241.4839 300.2179294 +22.5355626     262.4426     72.43832      1.135     2.58     4.839931     20.45791     40.74648         5     0.717     0.471  18.07   0
       326    740.0028    238.3792 300.3698596 +22.6799197     623.2371     72.45681      1.388     2.68     4.562923     20.45791     77.89304        11     0.930     0.732 -85.33   0
       327    675.2933    238.6075 300.3496223 +22.6606061     1714.683     72.41984      1.268     2.23      4.73246     20.45791     274.4387        18     1.057     0.826  77.51   0
       328    158.7199    235.4366 300.1898931 +22.5049026     623.3355     72.45681      1.464     2.62     4.498265     20.45791     78.74105        10     0.911     0.718 -21.18   0
       329    946.6426    231.0866 300.4366516 +22.7396895     795.5526     72.49377      1.259     2.70     4.424847     20.45791     118.5661        14     1.029     0.872  48.56   0
       330    679.3290    230.2662 300.3535861 +22.6594174     738.9828     72.54917      1.196     2.35     4.779733     20.45791     96.39708        11     0.863     0.730  50.76   0
       331    449.0132    231.2710 300.2815396 +22.5907124      288.541     72.51225      1.327     3.66     4.787605     20.45791     39.65075         7     0.883     0.689  -1.43   0
       332    599.8285    229.4999 300.3290701 +22.6353855     1148.522     72.41984      1.202     2.01     4.436661     20.45791     192.1057        15     1.003     0.775  50.18   0
       333    795.2590    220.8877 300.3927569 +22.6914370     1398.551     72.58608      1.208     2.05      4.37962     20.45791     237.1013        14     0.933     0.746  71.23   0
       334    525.9757    221.2934 300.3087349 +22.6109041     900.2532     72.43832      1.183     2.17     4.475246     20.45791      144.504        12     0.844     0.791  33.12   0
       335    109.2966    221.1669 300.1791609 +22.4859882     6375.937     72.49377      0.905     3.54     4.762135     20.45791     2021.984        11     0.882     0.410 -67.03   0
       336    807.2791    219.9751 300.3967999 +22.6947735     811.2018     72.49377      1.231     2.19     4.352655     20.45791     144.4575        10     0.828     0.705 -34.83   0
       337    853.7082    219.0113 300.4115874 +22.7083969     278.6046     72.45681      1.446     4.24     4.346201     20.45791      44.7814         7     1.033     0.576  69.72   0
       338    978.2176    217.2337 300.4509958 +22.7451562     281.2339     72.49377      1.247     3.40     4.650963     20.45791     42.38714         5     0.757     0.658 -25.40   0
       339    968.0894    210.8735 300.4498999 +22.7402955     1626.838     72.67828      1.350     2.35      4.60289     20.45791     246.8826        21     1.057     0.995 -22.32   0
       340    924.0342    210.1763 300.4363844 +22.7269086     1099.116     72.53071      1.225     2.22     4.352518     20.45791     172.7179        13     0.934     0.761 -75.98   0
       341    158.2766    203.3297 300.2001712 +22.4955518     751.7086     72.62298      1.554     2.84     4.668263     20.45791     81.36241        13     0.940     0.866 -57.10   0
       342    826.9565    202.7755 300.4085144 +22.6957196     277.6514     72.54917      1.596     3.88     4.344277     20.45791     26.92589         5     0.847     0.508  58.13   0
       343     20.0563    198.4816 300.1587908 +22.4527183     2233.256     72.54917      1.542     2.64     5.017092     20.45791     222.7587        25     1.195     1.062  44.37   0
       344    843.1661    195.2273 300.4160168 +22.6984019     668.3257     72.53071      1.242     2.30     4.335266     20.45791     107.6091        11     0.824     0.785 -22.54   0
       345    177.3934    191.7111 300.2098828 +22.4979466      5548.84     72.41984      1.377     2.35     4.761629     20.45791     702.0379        33     1.196     1.032  58.44   0
       346    976.2137    178.9484 300.4627914 +22.7335444     18268.56     72.54917      1.356     2.34     4.734872     20.45791     2587.344        58     1.295     1.135 -84.37   0
       347    160.9151    182.3842 300.2077856 +22.4903288     715.6592      72.4753      1.598     3.11     4.788799     20.45791      77.7271        12     1.084     0.690 -69.12   0
       348    821.3924    173.0776 300.4164138 +22.6855145     3469.354     72.45681      1.240     2.28     4.337605     20.45791     493.2963        24     1.119     0.926 -83.92   0
       349    925.0818    171.7653 300.4491722 +22.7161751     2762.084      72.4753      1.275     2.13      4.35098     20.45791     469.8495        24     1.058     0.934 -74.42   0
       350    124.2436    169.1307 300.2006857 +22.4755302     342.6649      72.4753      1.266     4.09     4.925234     20.45791     48.07744         6     0.771     0.619  -8.54   0
       351    370.8896    168.3433 300.2776418 +22.5492265     715.7512     72.54917      1.390     2.46     4.907837     20.45791     95.97832         9     0.826     0.703   3.90   0
       352    485.1661    166.2623 300.3138818 +22.5828662     475.9885     72.51225      1.336     3.08     4.824625     20.45791     58.08427         8     0.927     0.619 -59.89   0
       353    295.0747    160.0809 300.2567364 +22.5241347     837.1588     72.62298      2.204     2.65     4.883135     20.45791     66.77499         9     0.776     0.743 -44.10   0
       354     61.0480    157.6336 300.1847757 +22.4532836     571.7546     72.54917      1.457     3.10     5.023692     20.45791     61.28173        13     1.000     0.844  28.18   0
       355    422.3510    155.7459 300.2977414 +22.5610262     1611.426     72.54917      1.224     2.23      4.86692     20.45791     236.5588        17     1.061     0.816  88.62   0
       356    350.2539    156.1306 300.2751826 +22.5395349     502.5169     72.54917      1.237     2.61     4.860039     20.45791     69.48241         6     0.723     0.573  40.48   0
       357    483.9104    154.3568 300.3173525 +22.5790690     233.7274     72.53071      1.187     4.22     4.808516     20.45791     51.23663         7     0.884     0.608  33.06   0
       358    165.9971    151.8196 300.2192788 +22.4830759     313.0836     72.43832      1.220     2.47     4.915814     20.45791     53.49564         5     0.641     0.553 -89.71   0
       359    638.6270    149.1978 300.3672047 +22.6239260     152.9431     72.45681      1.082     2.75     4.871002     20.45791     36.94291         5     0.739     0.433 -69.00   0
       360    710.3519    144.9033 300.3909437 +22.6441689     274.4316     72.54917      1.189     3.19     4.916755     20.45791     67.24399         7     1.046     0.581  53.75   0
       361    986.6622    136.2824 300.4798905 +22.7243979       3656.6     72.60453      1.364     2.29     4.880211     20.45791     445.3611        32     1.235     1.036  76.72   0
       362    196.3494    135.6152 300.2339702 +22.4875203     5909.272     72.53071      1.355     2.38     4.884166     20.45791     726.1151        34     1.177     1.072  77.54   0
       363    607.2056    136.2169 300.3616275 +22.6107849     249.9416      72.4753      1.206     4.02     4.824115     20.45791      33.9509         6     0.803     0.576  52.92   0
       364     47.3862    135.0084 300.1878683 +22.4426923     784.7726     72.40134      1.597     3.19     5.036915     20.45791     86.51813        12     0.985     0.805  74.49   0
       365    825.3137    132.9697 300.4306456 +22.6751547     319.8354     72.51225      1.206     2.04     4.332438     20.45791     60.89746         7     0.683     0.641 -85.36   0
       366    167.6210    129.3756 300.2270623 +22.4771177     296.1851     72.49377      1.247     4.06     4.910961     20.45791     40.12611         7     1.028     0.458  80.00   0
       367    211.2472    126.8332 300.2414501 +22.4894632     416.5106     72.54917      1.569     3.32     4.859248     20.45791     48.17447         6     0.888     0.575 -63.69   0
       368    442.3860    120.8701 300.3152876 +22.5570076     6373.485     72.53071      1.314     2.24     4.636346     20.45791      892.739        32     1.144     0.997  69.93   0
       369    327.9554    120.6891 300.2797396 +22.5226723     612.0148     72.53071      1.287     2.47     4.575116     20.45791     100.9433        11     0.924     0.708 -73.60   0
       370    499.3994    115.3031 300.3348401 +22.5724859     331.1281     72.38284      1.052     1.98     4.572981     20.45791     66.60848         5     0.685     0.439  65.55   0
       371    693.8733    114.2429 300.3957529 +22.6304200     336.2018     72.49377      1.319     3.73      4.93126     20.45791     51.19585         5     0.663     0.603   4.48   3
       372    694.9464    110.4685 300.3973112 +22.6296561     676.3064     72.53071      1.302     2.51     4.933132     20.45791     108.2078        13     0.954     0.811  73.49   2
       373    636.3532    112.0143 300.3785556 +22.6125563     249.9804     72.53071      1.235     4.27     4.874434     20.45791      51.7132         8     0.954     0.796  46.61   0
       374    787.6806    109.2005 300.4266227 +22.6570541      457.457     72.38284      1.149     2.38     4.470857     20.45791     69.83504         6     0.717     0.562 -42.09   0
       375    135.3305    104.5281 300.2250823 +22.4603039     452.2086     72.58608      1.401     4.05     4.947729     20.45791      52.8417        10     1.062     0.724 -36.79   0
       376    570.7343    100.8843 300.3617272 +22.5897067     6196.234     72.62298      1.314     2.25     4.632294     20.45791     923.1225        33     1.143     1.016  84.77   0
       377    493.7632    103.1484 300.3370270 +22.5673047     508.7867     72.53071      1.288     3.12     4.517268     20.45791     81.19226         8     0.930     0.611  32.80   0
       378    345.5989     99.9578 300.2919511 +22.5220029      1498.35     72.51225      1.273     2.39     4.422593     20.45791     216.2001        17     1.032     0.891  89.37   0
       379    611.8743     98.3539 300.3753605 +22.6012993     767.6799     72.51225      1.268     2.60     4.837274     20.45791     114.1013        13     0.957     0.797  61.84   0
       380    627.7404     94.2056 300.3816477 +22.6048577     587.8101      72.4753      1.229     2.15     4.841522     20.45791     84.71207         7     0.713     0.601 -76.14   0
       381    897.7424     91.6560 300.4666276 +22.6849507       550.28     72.58608      1.386     2.91     4.330853     20.45791     81.00322         9     1.052     0.558  77.76   0
       382     94.3979     92.6179 300.2162224 +22.4446146     671.1984     72.41984      1.450     3.01      5.00311     20.45791     76.69605        13     0.981     0.876 -80.21   0
       383    936.9084     90.9360 300.4790763 +22.6964643     339.0434     72.62298      1.328     4.34     4.412872     20.45791     47.39158         7     0.930     0.616  20.54   0
       384    666.2961     89.7321 300.3951091 +22.6151161     507.8926     72.64142      1.339     2.97      4.91935     20.45791       66.058         9     0.942     0.667  77.69   0
       385    614.9260     85.6987 300.3804147 +22.5985751     2766.735     72.65985      1.298     2.26     4.735944     20.45791     431.5285        23     1.086     0.904  84.42   0
       386    256.0407     86.8007 300.2683602 +22.4913888      580.738     72.53071      1.413     3.29     4.538069     20.45791     55.61387         9     0.923     0.674 -11.29   0
       387    630.0853     84.6033 300.3854918 +22.6027994     939.6999     72.43832      1.753     3.94     4.781345     20.45791     105.4689        19     1.570     0.824  57.43   0
       388    701.3838     77.2730 300.4100813 +22.6220390     1586.226     72.51225      1.276     2.13     4.939214     20.45791     200.3708        16     0.944     0.851 -38.27   0
       389    183.9835     73.1994 300.2503644 +22.4658886     225.2657     72.40134      1.754     4.32     4.766813     20.45791     26.19589         5     1.055     0.504 -35.05   0
       390    779.3932     71.9280 300.4361258 +22.6438546     259.9251      72.4753      1.115     3.30     4.689496     20.45791     41.33971         6     0.775     0.673  63.51   0
       391    639.3353     70.4858 300.3929507 +22.6015103     746.2243     72.60453      1.237     2.19     4.729364     20.45791      103.154        11     0.835     0.744 -85.95   0
       392    444.9853     69.7565 300.3326707 +22.5430981     1108.201     72.53071      1.405     2.11     4.372943     20.45791     176.9641        17     1.082     0.881  67.71   0
       393    348.8173     68.2270 300.3032408 +22.5138506     824.9767     72.53071      1.344     2.40     4.265397     20.45791     120.5752        13     0.973     0.855  72.41   0
       394     17.7321     69.8130 300.1997946 +22.4150848     370.2489     72.53071      1.262     3.53     5.105491     20.45791       56.272         9     0.877     0.754  -2.26   0
       395    731.1450     66.4409 300.4228675 +22.6278338     437.8617      72.4753      1.391     3.59     4.939214     20.45791     59.07264        10     1.114     0.708  85.21   0
       396    991.8528     64.5917 300.5047585 +22.7053255     2292.464     72.51225      1.376     2.53      4.60401     20.45791     340.8281        23     1.077     1.011 -76.23   0
       397    688.2064     58.5964 300.4120310 +22.6127237     526.8963     72.32731      1.144     2.56     4.939214     20.45791     89.61098        10     0.871     0.754 -72.45   0
       398    120.2892     58.1122 300.2354563 +22.4424664     3909.749     72.67828      1.516     2.54     4.987464     20.45791     420.7212        36     1.333     1.129  42.62   0
       399    542.9849     54.9992 300.3679639 +22.5682073     385.1822     72.36433      1.479     4.03     4.265409     20.45791     43.25486         7     0.920     0.505  49.88   0
       400    446.0781     55.0356 300.3377835 +22.5391949     321.5649      72.4753      1.581     4.46     4.308439     20.45791     38.89301         7     1.063     0.532  55.90   0
       401    236.2985     50.2175 300.2740815 +22.4749644     1166.964     72.41984      1.384     2.55     4.436689     20.45791     140.2607        18     1.131     0.871  83.84   0
       402    681.2079     50.4529 300.4124907 +22.6082870     806.9913     72.51225      1.199     2.88     4.939214     20.45791     117.3564        12     1.008     0.750  50.63   0
       403    167.8185     50.1827 300.2528010 +22.4544335     287.4653     72.49377      1.154     3.43     4.737986     20.45791     48.26917         8     0.930     0.617  85.75   0
       404    647.1792     49.7568 300.4021150 +22.5978991     460.1182     72.54917      1.413     2.04     4.692049     20.45791     55.98701         6     0.699     0.542 -51.94   0
       405    774.7697     47.3328 300.4426590 +22.6353972     244.3989     72.49377      1.102     3.40     4.834962     20.45791     36.83231         6     0.748     0.627  62.74   0
       406    462.6934     46.8946 300.3455945 +22.5418317     408.8633     72.67828      1.716     4.42     4.249578     20.45791     38.95059         7     0.860     0.645 -73.37   0
       407    719.3472     45.3907 300.4260159 +22.6182488     593.5076     72.51225      1.443     3.56     4.939214     20.45791     74.16385        10     1.106     0.602 -88.03   0
       408    642.6077     45.3967 300.4021044 +22.5952767     550.7484     72.32731      1.167     2.32     4.629016     20.45791     78.68572         7     0.834     0.514 -31.11   0
       409    739.3615     41.6243 300.4334741 +22.6231569     2306.822     72.53071      1.331     2.41     4.935008     20.45791      303.467        19     1.066     0.911  73.94   0
       410    445.1251     40.2151 300.3422916 +22.5346501     446.2084     72.51225      1.114     2.42     4.246394     20.45791     81.85396         9     0.853     0.649 -69.60   0
       411    122.7222     37.1365 300.2430124 +22.4371716     1008.847     72.60453      1.518     2.58     4.980217     20.45791     118.8643        18     1.188     0.955 -87.15   0
       412    687.8113     34.2633 300.4197968 +22.6056085      833.582     72.45681      1.228     2.29     4.939214     20.45791     136.5423        13     1.025     0.763  75.31   0
       413    914.4306     34.7752 300.4902749 +22.6735815     811.1749     72.51225      1.440     3.90      4.32123     20.45791      106.286        11     1.031     0.885 -25.84   0
       414    394.9796     32.3616 300.3292315 +22.5173734     339.6338     72.53071      1.426     4.82      4.20352     20.45791     42.37711         7     1.299     0.506 -89.48   0
       415    307.7402     28.1964 300.3034396 +22.4900429     121.2528      72.4753      1.093     3.81     4.204295     20.45791     39.66971         5     0.864     0.483 -43.07   0
       416    445.8768     26.3768 300.3470116 +22.5308981     403.6295     72.51225      1.422     2.36     4.185259     20.45791     51.75182         7     0.711     0.630 -20.62   0
       417    272.6061     23.4802 300.2940402 +22.4781619     521.1335     72.43832      1.499     3.13     4.261909     20.45791     57.26974         6     0.795     0.572  41.07   0
       418    540.2310     19.2117 300.3787081 +22.5570951      928.225     72.51225      1.453     3.55     4.075613     20.45791     109.2864        16     1.179     0.862  39.96   0
       419    675.5542     17.0932 300.4215440 +22.5970019     232.1371     72.53071      1.127     3.13     4.939214     20.45791     40.39039         6     0.773     0.496  87.37   0
       420    274.8157     17.1749 300.2967713 +22.4770124     383.6415     72.53071      1.312     3.93     4.246356     20.45791     53.10783         6     0.936     0.472 -31.78   0
       421    149.5962     16.1317 300.2581743 +22.4391925     432.3294     72.49377      1.519     4.79     4.757731     20.45791     40.93898         9     1.129     0.651 -35.57   0
       422    334.3757     14.9250 300.3160274 +22.4942090     299.1828     72.53071      1.452     3.41     4.073747     20.45791     34.41595         5     0.777     0.434 -70.45   0
       423    703.3707     14.0035 300.4312126 +22.6044402      663.226      72.4753      1.133     1.91     4.939214     20.45791     119.9109         8     0.714     0.649 -15.23   0
       424     47.0659   1012.7571 299.9026017 +22.6943350     1253.034     72.49377     10.207    15.68     67.20541     20.45791     43.47952        33     3.659     1.867  20.86  27
       425     93.9380   1010.0230 299.9180536 +22.7076294     1900.447     72.49377     12.310    15.92     40.54285     20.45791     59.46805        62     3.210     2.194  13.20  18
       426    114.9441   1005.3898 299.9260887 +22.7126104     1012.179     72.51225      6.924     7.70     31.78181     20.45791      45.3575        14     1.587     1.044 -13.84   0
       427     32.2541   1011.6348 299.8983660 +22.6895645     2519.777     72.53071      6.233    22.66      74.5308     20.45791     76.85469       137     5.573     2.558  50.40  19
