#   1 NUMBER                 Running object number                                     
#   2 X_IMAGE                Object position along x                                    [pixel]
#   3 Y_IMAGE                Object position along y                                    [pixel]
#   4 ALPHA_J2000            Right ascension of barycenter (J2000)                      [deg]
#   5 DELTA_J2000            Declination of barycenter (J2000)                          [deg]
#   6 FLUX_APER              Flux vector within fixed circular aperture(s)              [count]
#   7 FLUXERR_APER           RMS error vector for aperture flux(es)                     [count]
#   8 FLUX_RADIUS            Fraction-of-light radii                                    [pixel]
#   9 FWHM_IMAGE             FWHM assuming a gaussian core                              [pixel]
#  10 BACKGROUND             Background at centroid position                            [count]
#  11 THRESHOLD              Detection threshold above background                       [count]
#  12 FLUX_MAX               Peak flux above background                                 [count]
#  13 ISOAREA_IMAGE          Isophotal area above Analysis threshold                    [pixel**2]
#  14 A_IMAGE                Profile RMS along major axis                               [pixel]
#  15 B_IMAGE                Profile RMS along minor axis                               [pixel]
#  16 THETA_IMAGE            Position angle (CCW/x)                                     [deg]
#  17 FLAGS                  Extraction flags                                          
         1    768.2174      8.3782 300.4121143 +22.6126752     441.8037     72.48602      1.315     3.39     6.276253     20.45572      84.8875        11     1.147     0.825  75.52   0
         2    200.0409      7.7024 300.2354536 +22.4424324      3695.07     72.48602      1.565     3.02     6.407032     20.45572     412.8388        33     1.378     1.143  53.61  16
         3    526.1806      5.4618 300.3376572 +22.5394214     336.7037     72.48602      1.441     3.67     4.740497     20.45572     42.76112         6     0.906     0.629 -80.19  16
         4    622.5520      4.3719 300.3680236 +22.5679454     372.9957     70.23435      1.687     4.73     5.033291     20.45572      45.9104         6     1.134     0.560  40.65  16
         5    761.5880      1.3042 300.4123401 +22.6086569     491.9953     56.19034      0.960     2.21     6.349417     20.45572      113.386         7     0.876     0.431  12.26  24
         6    315.9056      1.0935 300.2736294 +22.4752253     312.0659     55.13187      0.944     2.98     5.505674     20.45572     97.16803         5     0.892     0.291   0.71  24
         7    201.5273   1002.1862 299.9130389 +22.7283325     2828.417     72.50449      5.893    23.29      78.8669     20.45572     63.96588       130     5.139     2.931  21.50  19
         8    276.6390   1018.8737 299.9309631 +22.7556556     3006.856     72.48602      7.244    36.98     31.89031     20.45572     61.90992       260     7.563     5.019  56.39  27
         9    228.9939    990.1735 299.9254860 +22.7331300     4801.984     72.50449      9.257    35.93      61.5533     20.45572     98.56206       384     8.195     4.372 -74.63  19
        10    191.6977    972.0337 299.9197925 +22.7167376     656.4867     72.48602      2.442     8.55     56.61558     20.45572     34.36943        13     1.819     1.123 -70.11   2
        11    194.7639    976.2593 299.9193710 +22.7188692     1214.015     72.52296      3.206    11.26     59.25816     20.45572     43.52937        15     4.068     0.868 -72.80   3
        12    195.6932    981.8914 299.9178277 +22.7207630      1645.64     72.67051      3.703    11.97     63.90666     20.45572     51.99672        20     2.608     1.530 -86.86   3
        13      9.4722    977.9894 299.8612323 +22.6637547     2019.557     72.50449     12.674    22.85    -11.71659     20.45572     59.46199        99     4.811     3.014  46.28  27
        14    953.7376    974.9329 300.1561310 +22.9460599     738.0014     72.55988      2.202     4.85      3.74354     20.45572     45.01861         8     0.854     0.781 -27.21   2
        15    267.3499    978.8008 299.9411118 +22.7413774     9195.603     72.48602     12.474    41.94     28.16129     20.45572     188.9366      1066    13.639     5.757  69.71  19
        16      3.4895    985.9930 299.8567706 +22.6642526     1668.341     67.05484     14.271    18.39    -19.18942     20.45572     42.26431        64     4.115     2.283  58.47  27
        17    173.3832    959.3469 299.9182264 +22.7076044     1566.311     72.48602      3.762    11.70     49.81704     20.45572     53.14244        35     2.424     1.643  -2.17   2
        18    680.5074    958.0116 300.0764669 +22.8593179     6924.047     72.44907      1.876     4.10     3.685758     20.45572     413.8034        49     1.494     1.454   0.42   0
        19      6.1690   1014.0546 299.8484738 +22.6730991     2979.545     72.52296     11.393    43.64    -26.08904     20.45572     65.08757       468     9.082     5.819 -73.75  27
        20    271.7527    951.6488 299.9513133 +22.7349117     476.4931     72.54142      1.583     4.24     16.49312     20.45572     54.64982        10     1.169     0.709  35.12   0
        21    589.0207    948.8463 300.0509536 +22.8292603      1433.05     72.55988      1.740     4.18     3.499847     20.45572     106.7919        23     1.302     1.147  25.95   0
        22    117.4177   1012.0225 299.8836968 +22.7059103     3243.795     72.48602     13.242    66.24      87.6547     20.45572     137.8619      1172    14.457     8.422  38.45  27
        23    482.8809    945.3016 300.0190623 +22.7964175     1050.488     72.63365      1.865     4.27     3.431712     20.45572     81.81726        20     1.310     1.037  14.06   0
        24    413.4167    943.1616 299.9981405 +22.7749713     6530.856     72.52296      1.861     4.07     3.937615     20.45572     492.2757        47     1.509     1.396   7.70   0
        25    177.5883   1011.2856 299.9026371 +22.7237574     416.5063     72.44907      1.219     5.76     90.90002     20.45572     40.97565         8     2.050     0.456 -32.06  16
        26    445.9338    930.5821 300.0123511 +22.7811143     489.9997     72.48602      1.944     6.56     3.741028     20.45572     39.31591         9     1.354     0.891  -4.17   0
        27    157.5912    959.1948 299.9133674 +22.7028220     1528.653      72.3566      5.873    11.14     51.41026     20.45572     49.04263        27     2.127     1.626  57.35   2
        28    384.7655   1002.6575 299.9698711 +22.7834441      419.946     72.52296      1.766     4.92     3.819829     20.45572      39.7192         7     1.036     0.785 -82.06   0
        29    885.8181    925.9294 300.1508917 +22.9116368     147.0593     72.54142      1.510     3.70      3.78166     20.45572      36.1873         5     1.440     0.274 -78.92   0
        30    959.7072    921.9877 300.1752169 +22.9326415      2174.74     72.44907      2.029     5.03     3.961817     20.45572     103.9796        30     1.427     1.359 -14.56   0
        31    148.3094    921.3630 299.9227875 +22.6891896     1011.868     72.48602      8.499     8.75     21.88773     20.45572     44.85054        14     1.777     1.204 -42.58   0
        32    610.1981    919.1067 300.0672222 +22.8270739     415.4111     72.41209      1.852     4.88     3.431885     20.45572     34.96696         7     1.251     0.539  69.52   0
        33    748.3707    910.7278 300.1129919 +22.8660845     778.5393     72.50449      1.969     4.77     3.967102     20.45572      56.1412        13     1.199     0.883 -74.17   0
        34    560.5117    906.2118 300.0559439 +22.8084772     400.2828     72.44907      1.852     6.66     3.463597     20.45572     38.05231        11     1.517     0.820  64.32   0
        35     22.5772    998.6548 299.8585803 +22.6736113     1056.296     72.52296      5.872     8.35    -3.554736     20.45572     44.56276        14     1.570     1.240 -17.01   1
        36    783.5860    905.0035 300.1258285 +22.8749943     1157.757      72.3566      1.824     4.80     3.927498     20.45572     76.90515        19     1.225     1.177  46.99   0
        37    575.7742    995.6852 300.0315909 +22.8387299     2211.804     72.48602      1.859     4.53     3.680909     20.45572     138.1074        32     1.493     1.270  -1.17   0
        38    805.6314    898.7302 300.1347400 +22.8797991     11308.46     72.50449      1.819     4.07     3.922785     20.45572     709.9562        54     1.459     1.416  25.90   0
        39    662.2365    990.8473 300.0600926 +22.8632651      8640.82     72.54142      1.973     4.39     3.687608     20.45572     526.6876        50     1.605     1.436  39.72   3
        40    120.5696    897.4136 299.9219551 +22.6739988     996.4742     72.50449      4.441     4.24     10.93508     20.45572     35.71844         5     1.033     0.495  89.34   3
        41    996.0057    898.9948 300.1940185 +22.9369099     481.5708      72.3566      1.810     5.89     4.215436     20.45572     29.70679         9     1.321     0.739 -46.97   0
        42    851.3221    899.2432 300.1488164 +22.8936370     437.4446     72.48602      1.760     5.82     3.888703     20.45572     36.77192         9     1.202     0.793  57.16   0
        43    112.5580    901.5961 299.9181053 +22.6727941     874.5289     72.52296      3.025     3.94     10.25634     20.45572     40.96371         5     1.128     0.393 -73.35   1
        44    116.9419    890.1492 299.9231900 +22.6708274     1255.943     72.55988      5.570     5.59      9.24537     20.45572     63.78538        21     1.525     1.360 -42.94   0
        45    163.5043    884.3178 299.9395574 +22.6831261       431.95     72.65208      3.356     5.10     13.24272     20.45572     29.66227         5     1.329     0.554  43.54   0
        46    667.6118    988.5787 300.0625052 +22.8642255     9295.089     72.48602      1.942     4.48     3.685767     20.45572     539.3755        49     1.534     1.449  22.12   3
        47    814.0302    880.8359 300.1431777 +22.8771771     1498.774     72.52296      1.722     3.94     3.981235     20.45572     104.3097        20     1.197     1.055   2.56   0
        48    762.6904    991.6581 300.0911270 +22.8936107     748.5172     72.57832      1.843     6.11     3.763498     20.45572     44.65824        16     1.203     1.144  -1.00   0
        49    997.2233    880.3624 300.2004584 +22.9319219      408.677     72.52296      1.779     6.11     4.212545     20.45572     29.51816         7     1.123     0.935  48.74   0
        50    665.7669    877.7400 300.0979840 +22.8318565      526.248     72.54142      1.978     6.41     3.614454     20.45572     40.41779         9     1.348     0.855  -6.02   0
        51    852.2764    874.5015 300.1571606 +22.8868173     869.7499     72.65208      1.887     6.63     3.950933     20.45572     56.08775        15     1.290     0.955  32.03   0
        52    900.6422    865.2455 300.1752511 +22.8986487     648.7941     72.57832      2.071     5.15     4.043091     20.45572     50.42498        10     1.197     1.008  44.93   0
        53    752.0005    864.8012 300.1290594 +22.8539853     663.2428     72.28254      1.472     4.19     4.059581     20.45572     57.40433        12     1.080     0.815  29.98   0
        54    764.3310    863.1862 300.1334273 +22.8572165      1200.81     72.52296      1.275     5.71     4.056001     20.45572     676.1208        13     1.540     0.596  51.53   0
        55    464.5661    860.7612 300.0408566 +22.7666670     4191.591     72.54142      1.732     3.68      3.97012     20.45572     378.6122        38     1.426     1.276  43.87   0
        56    508.3270    848.8725 300.0583436 +22.7763755     371.7432     72.55988      1.325     3.08     3.752899     20.45572     44.96857         7     0.879     0.810 -88.25   0
        57      2.3516    996.5841 299.8529717 +22.6669463     1738.766     61.96969      4.355    12.13    -24.35325     20.45572     60.65566        46     2.904     1.411 -88.15  27
        58    189.9325    846.4299 299.9600918 +22.6801891     753.4528     72.48602      1.738     5.20     6.359179     20.45572     59.31208        16     1.304     1.071 -76.44   0
        59    166.9978    843.5015 299.9539147 +22.6724689     1625.886     72.41209      1.902     4.45     6.245816     20.45572     126.8073        25     1.352     1.255  10.63   0
        60    249.1133    989.4349 299.9319818 +22.7389551     6384.494     72.48602     13.840    52.58     45.52752     20.45572     108.2114       848    12.021     7.284 -66.00  19
        61    106.0415    945.5712 299.9017784 +22.6834464      5365.77     72.52296     26.118   106.51     26.89716     20.45572     1245.791      3912    20.965    15.014 -82.88  18
        62    993.0127    831.2852 300.2151043 +22.9165607     2168.936     72.44907      1.931     4.23     4.200775     20.45572     135.0163        27     1.375     1.205  55.50   0
        63    699.3792    831.2375 300.1235767 +22.8285788      352.454     72.52296      1.605     3.88     3.819072     20.45572     39.64991         5     0.821     0.680 -32.84   0
        64    470.0121    830.9765 300.0522360 +22.7597522     325.7041     72.50449      1.780     5.02     3.888981     20.45572     31.29479         7     1.064     0.670 -21.76   0
        65    776.5292    825.2755 300.1495561 +22.8499847     588.6339     72.57832      1.615     4.13     3.990428     20.45572     57.64962        12     1.007     0.927 -36.53   0
        66    524.4352    823.7479 300.0715272 +22.7739933     275.3631     72.52296      1.373     3.46     3.687022     20.45572      31.4206         5     0.736     0.469 -73.43   0
        67    644.6929    818.9764 300.1105272 +22.8086695     4856.814     72.43058      1.601     3.44     3.694122     20.45572     427.1332        35     1.277     1.245  31.51   0
        68    135.0482    819.0909 299.9519206 +22.6558830     508.8607     72.52296      2.176     3.79     4.671143     20.45572     40.06327         5     1.011     0.408  61.60   2
        69    447.0015    816.1277 300.0499020 +22.7485917     567.9174      72.3936      1.582     4.86     3.975474     20.45572     50.57065         9     1.108     0.736 -18.42   0
        70    194.8548    812.7174 299.9725821 +22.6719962     1395.704     72.55988      1.767     4.12      4.87334     20.45572     129.9818        21     1.268     1.129   8.78   0
        71    665.3931    811.4554 300.1194205 +22.8127137     670.8405     72.50449      1.595     3.06     3.732941     20.45572     79.81657        13     0.981     0.912  20.97   0
        72    581.6562    802.1807 300.0963553 +22.7849544     380.3993     72.48602      1.351     4.09     3.691704     20.45572     40.44452         8     1.040     0.559  33.06   0
        73    820.6636    798.7842 300.1719255 +22.8555988     4337.494     72.48602      1.722     3.59     3.995827     20.45572     337.4118        37     1.376     1.269  14.58   0
        74    551.8250    795.4248 300.0892626 +22.7740735     363.6831     72.46754      1.457     5.14     3.754886     20.45572     34.72392         7     1.016     0.734   4.71   0
        75    229.3545    793.1424 299.9896712 +22.6767293     350.2744     72.54142      1.244     3.03     4.588958     20.45572     49.66966         7     0.819     0.609 -63.24   0
        76    184.1532    789.3169 299.9768621 +22.6620740     1169.066     72.48602      1.830     4.34     4.216317     20.45572     106.4307        22     1.375     1.226  86.69   0
        77    537.8203    791.0417 300.0863272 +22.7686174     625.6422     72.54142      1.551     4.15     3.807939     20.45572     62.69887        12     1.090     0.787 -31.35   0
        78    599.1539    784.3926 300.1075868 +22.7850920     660.5715     72.52296      1.743     3.90     3.850322     20.45572     54.94401         9     0.993     0.678 -46.76   0
        79    333.7260    781.1685 300.0260220 +22.7045949     53778.82     72.52296      1.656     3.36     4.458951     20.45572     4589.068        96     1.471     1.428  24.39   0
        80   1004.6652    779.9253 300.2354379 +22.9052925      874.722     72.55988      1.878     5.85     4.275708     20.45572     64.94647        16     1.125     1.086 -59.03   0
        81    591.6446    780.2753 300.1065867 +22.7816593     1630.348     72.48602      1.651     3.40     3.893565     20.45572     153.3828        23     1.165     1.124  62.16   0
        82    262.3078    779.2571 300.0044312 +22.6826292     493.6248     72.55988      1.585     4.51      4.55506     20.45572     41.25105         8     0.884     0.698  -2.16   0
        83    620.5328    776.3220 300.1168686 +22.7891820     902.6682     72.61521      1.595     3.35     3.910834     20.45572     94.45201        15     1.078     0.973  28.18   0
        84     19.9667    775.7035 299.9302667 +22.6089134     982.6655     72.50449      2.097     4.64     4.300844     20.45572     90.13104        16     1.213     1.075 -75.97   0
        85    631.6119    774.7135 300.1208422 +22.7920404      538.627     72.44907      1.417     3.60     3.924112     20.45572     54.94975        10     0.898     0.801 -83.56   0
        86    737.4258    771.2769 300.1549249 +22.8227604     342.9017     72.52296      1.348     2.73      4.01377     20.45572     42.91124         5     0.708     0.457  69.60   0
        87    774.5311    761.4134 300.1696946 +22.8310443     895.8632     72.52296      1.634     4.11     4.043698     20.45572     77.24386        16     1.183     0.922  46.34   0
        88    397.7030    758.9604 300.0531442 +22.7174047     2237.517     72.48602      1.727     3.48     4.410243     20.45572     182.1629        28     1.283     1.171  53.59   0
        89    383.4429    758.4243 300.0488815 +22.7129754     31576.24     72.55988      1.625     3.09     4.435033     20.45572     3221.473        71     1.385     1.330  33.49   0
        90    273.1229    757.1157 300.0149910 +22.6795201     303.1691     72.61521      1.373     3.41     4.502499     20.45572     36.54727         6     0.754     0.569  41.92   0
        91    906.6562    754.5103 300.2131293 +22.8686383     2744.644     72.54142      1.699     3.56     4.338508     20.45572     228.0972        28     1.279     1.152  73.81   0
        92    394.6649    752.8454 300.0541864 +22.7147388     557.7441     72.50449      1.565     3.18     4.442474     20.45572      82.6263         9     1.055     0.659  33.96   0
        93    664.5198    750.6183 300.1389249 +22.7949828     941.5205     72.50449      1.514     3.14      4.11244     20.45572     98.29199        15     1.044     0.907  26.77   0
        94    500.9897    750.8894 300.0879126 +22.7460513     427.2912     72.44907      1.599     5.15     4.142347     20.45572     44.62226         9     1.015     0.739 -26.68   0
        95    265.9672    750.1174 300.0150403 +22.6753662     796.1351     72.46754      1.704     4.16     4.481336     20.45572     83.23405        13     1.044     0.869  51.90   0
        96    511.4754    745.3809 300.0929672 +22.7476129     898.3775     72.50449      1.522     3.59      4.24051     20.45572     97.31616        15     1.072     0.924  56.32   0
        97     70.6040    745.9396 299.9556715 +22.6155702     528.1456     72.48602      1.639     5.77     4.517189     20.45572     53.09836        10     1.044     0.898 -29.74   0
        98    912.6870    742.3107 300.2189754 +22.8669393     520.9362     72.67051      1.600     5.29     4.394983     20.45572     55.07647        11     1.091     0.918 -53.80   0
        99    413.7185    741.3076 300.0638650 +22.7171397     409.7936     72.65208      1.655     5.44     4.488948     20.45572     39.96846         8     1.230     0.678  82.11   0
       100    457.6078    740.3688 300.0778287 +22.7300273     411.0503     72.50449      1.611     3.91      4.25708     20.45572     47.85736         9     0.993     0.750  46.80   0
       101    369.7029    741.2118 300.0502009 +22.7039161     362.6856      72.3936      1.359     4.26     4.511446     20.45572     42.94057         5     1.145     0.453 -29.77   0
       102    666.2778    739.9589 300.1429370 +22.7924485     368.6974     72.48602      1.358     4.29     4.191178     20.45572     51.94678         8     0.975     0.624 -28.70   0
       103     99.2368    739.2543 299.9667411 +22.6222422     625.3202     72.52296      1.726     5.94     4.519039     20.45572     55.38787        14     1.256     0.962 -59.31   0
       104    890.1104    737.2023 300.2135955 +22.8587099     413.5403     72.41209      1.332     3.85     4.344704     20.45572     49.44937         5     0.806     0.528 -62.76   0
       105    263.3269    734.6259 300.0192538 +22.6701296     571.0151     72.50449      1.510     4.30     4.445919     20.45572     57.87213        13     1.185     0.743   5.99   0
       106    586.9137    724.9041 300.1231107 +22.7643433     502.0964     72.68893      1.558     3.77     4.403533     20.45572     48.20073         7     0.866     0.642  32.07   0
       107    556.5946    723.3450 300.1141763 +22.7548094     668.0526     72.50449      1.593     3.95     4.509071     20.45572     75.29195        15     1.160     0.911  45.30   0
       108    466.0014    722.3763 300.0862885 +22.7273785     180.8265     72.44907      1.412     4.72     4.298594     20.45572     44.27541         8     1.141     0.554  68.01   0
       109    973.0300    719.8300 300.2451029 +22.8785498     4584.489     72.46754      1.722     3.53     4.630849     20.45572     345.3808        37     1.339     1.315  -3.73   0
       110    578.3876    720.7235 300.1218142 +22.7605878     1396.804     72.52296      1.510     3.13     4.458197     20.45572     148.0279        19     1.168     1.014  53.90   0
       111    498.2545    720.3389 300.0969901 +22.7364611     279.2549     72.55988      1.198     3.44     4.327428     20.45572     42.31389         5     0.752     0.456  12.36   0
       112    660.2343    715.8974 300.1488743 +22.7837275     222.1761     72.50449      1.432     3.64     4.313791     20.45572     41.36218         5     0.983     0.389 -31.94   0
       113    961.6255    711.2328 300.2443396 +22.8726642     1832.619     72.50449      1.747     3.79     4.718769     20.45572     145.4417        24     1.264     1.148 -68.59   0
       114    324.4500    704.8752 300.0479318 +22.6799202     894.0464     72.50449      1.581     3.66     4.481487     20.45572     93.34366        15     1.065     0.967 -41.91   0
       115    787.9245    702.5143 300.1930119 +22.8181374     2584.387     72.61521      1.599     3.21     4.264897     20.45572     234.8504        31     1.429     1.130   2.19   0
       116    992.7312    701.4653 300.2572171 +22.8791709     1790.641     72.55988      1.768     3.79       4.8396     20.45572     133.0334        26     1.224     1.200  77.59   0
       117     10.2743    692.4592 299.9543075 +22.5821333     806.2967     72.54142      1.794     4.35     4.662097     20.45572     74.90601        17     1.282     1.070 -47.09   0
       118    870.3892    688.1731 300.2233802 +22.8387161     605.3769     72.50449      1.655     4.91     4.518993     20.45572     46.48294        13     1.127     0.935  24.13   0
       119    173.2888    688.6564 300.0061979 +22.6299387     673.4814     72.54142      1.696     3.58     4.417322     20.45572      77.0499        11     1.111     0.733  26.56   0
       120    906.2930    679.4211 300.2374199 +22.8469532     149145.7     72.43058      1.633     3.23     4.834851     20.45572     12950.87       160     1.507     1.485  35.38   0
       121    668.9304    683.0182 300.1622678 +22.7768901     388.7217     72.52296      1.475     4.36     4.424024     20.45572     40.98794         6     1.161     0.467  34.70   0
       122    758.6606    679.8219 300.1912653 +22.8028527     884.7962     72.46754      1.912     4.77     4.375825     20.45572     75.46793        16     1.312     0.863 -65.79   0
       123    938.9539    672.4311 300.2498773 +22.8547245     321.4037     72.54142      1.403     3.71     5.076759     20.45572     48.11361         6     0.918     0.635  15.59   0
       124    592.4545    668.2955 300.1432313 +22.7497480     1517.259     72.57832      1.430     2.96     4.824251     20.45572     184.5592        21     1.124     1.024  40.78   0
       125    773.7128    665.5563 300.2005917 +22.8032630     9509.662     72.48602      1.499     2.77     4.411355     20.45572     1103.912        41     1.240     1.181  41.38   0
       126    255.4045    667.0547 300.0387466 +22.6483646     356.7521     72.50449      1.568     4.67     4.440682     20.45572     36.23392         8     1.039     0.875 -41.11   0
       127    275.2499    660.5323 300.0470371 +22.6524431     4988.655     72.48602      1.567     2.90     4.453775     20.45572     576.1233        33     1.240     1.190  48.67   0
       128    357.2173    658.5437 300.0731789 +22.6764461     1195.743     72.46754      1.600     3.26     4.468162     20.45572     136.6058        20     1.185     1.061  88.38   0
       129    233.2917    656.2608 300.0353774 +22.6386368     474.6801     72.59677      1.599     4.31      4.42628     20.45572      43.3647         7     0.868     0.610 -50.82   0
       130    565.7729    654.2384 300.1394897 +22.7377162     611.4916     72.52296      1.274     2.84     4.852709     20.45572     85.55278        10     0.934     0.672 -20.25   0
       131    557.1891    646.2941 300.1393978 +22.7328628     3330.121     72.44907      1.404     2.67     4.897742     20.45572     359.5316        26     1.137     1.057  35.70   0
       132    547.4475    640.1047 300.1383754 +22.7281663     1473.569     72.52296      1.394     2.62     4.937364     20.45572     175.7138        16     1.014     0.921 -81.30   0
       133    476.2646    639.2116 300.1165052 +22.7065785     267.7994     72.44907      1.178     3.04     4.719957     20.45572     41.95412         6     0.763     0.532  40.85   0
       134    941.1369    637.9055 300.2617760 +22.8454553     413.4854     72.59677      1.441     3.93     5.036526     20.45572     51.30413         8     0.980     0.677  60.89   0
       135    224.8436    634.7504 300.0397385 +22.6299309     744.2199     72.54142      1.678     6.10     4.421043     20.45572     66.62395        14     1.163     0.899  38.12   0
       136    210.6158    635.9868 300.0349133 +22.6260196     679.7817     72.44907      1.588     4.76     4.449375     20.45572     60.31527        12     1.139     0.791  40.58   0
       137    250.6259    631.1722 300.0489177 +22.6366344     452.9259     72.46754      1.392     4.36     4.438064     20.45572     54.02447        10     1.232     0.711  75.17   0
       138    994.4760    631.5347 300.2804842 +22.8595931     470.7465     72.59677      1.519     4.47     5.140578     20.45572      50.9124         8     1.197     0.603 -11.48   0
       139    472.2332    629.7503 300.1183240 +22.7026538     1806.829     72.54142      1.459     2.49     4.753755     20.45572     223.4979        21     1.092     1.030  37.12   0
       140    282.1871    631.5380 300.0586138 +22.6462017     319.4366     72.46754      1.427     3.49     4.458357     20.45572     34.82439         5     0.775     0.454 -19.08   0
       141    571.1695    630.4489 300.1488988 +22.7325014     363.9043     72.54142      1.332     3.83     5.007214     20.45572     54.59837         6     0.845     0.497   0.89   0
       142    506.3478    628.7374 300.1292724 +22.7125863     202.8404     72.55988      0.967     3.93     4.886475     20.45572     40.64739         6     0.877     0.505  47.26   0
       143    126.1693    624.5427 300.0123808 +22.5974131     19954.24     72.52296      1.697     3.10     4.678691     20.45572     2249.305        67     1.469     1.378  41.67   0
       144     47.2715    626.0763 299.9873663 +22.5741906     782.6388     72.59677      1.933     4.06     4.894774     20.45572     64.52289        15     1.196     1.024 -48.22   0
       145    592.6168    624.1986 300.1576082 +22.7371323     393.2105     72.41209      1.281     5.22     5.025774     20.45572     40.47117        11     1.162     0.677  40.75   0
       146    557.1467    625.0817 300.1462759 +22.7267583     1163.545     72.54142      1.477     3.04     5.048599     20.45572     110.6305        13     1.006     0.819  18.06   0
       147    975.1102    611.3266 300.2810079 +22.8479867      1003.02     72.67051      1.422     4.02     5.091496     20.45572     121.4688        17     1.379     0.844  44.31   0
       148    640.7596    612.4528 300.1764183 +22.7481819     258.5039     72.50449      1.263     3.37     4.940945     20.45572     34.31099         5     0.765     0.430 -23.34   0
       149     72.1309    608.7578 300.0007153 +22.5766782     1637.597     72.46754      2.137     4.87     4.906092     20.45572     115.1409        26     1.629     1.117  88.21   0
       150    842.0073    609.4718 300.2401014 +22.8076015     459.0492     72.46754      1.399     3.57     4.558946     20.45572     51.33377         9     0.888     0.703 -70.98   0
       151    520.4337    605.7115 300.1411373 +22.7101950     542.1174     72.46754      1.483     4.18     5.094207     20.45572     56.47536        10     1.196     0.671  78.71   0
       152    312.9336    604.7202 300.0768879 +22.6477216     256.8472     72.61521      1.372     5.29     4.482384     20.45572      47.4549         9     1.168     0.677 -42.73   0
       153    914.9721    603.9935 300.2646326 +22.8278745     887.9114     72.50449      2.292     5.26     4.895017     20.45572     79.96323        13     1.480     0.685  12.80   2
       154    659.9050    602.5800 300.1855893 +22.7510811     223.1833     72.41209      1.253     4.58     4.901947     20.45572     42.47667         8     1.025     0.581 -43.21   0
       155    477.3461    598.1437 300.1301823 +22.6951105     695.3273     72.55988      1.280     3.10     4.941742     20.45572     110.8156        13     1.036     0.852  31.97   0
       156    625.0590    596.5035 300.1767086 +22.7388970      481.413     72.57832      1.273     3.06     5.053976     20.45572     65.55033         8     0.864     0.730 -53.40   0
       157    672.6113    595.2592 300.1919256 +22.7527843     410.2219     72.46754      1.432     2.57     4.860768     20.45572     66.15391         7     0.824     0.621  15.27   0
       158    643.2990    594.7507 300.1829595 +22.7438576     549.6841     72.55988      1.254     2.96     4.986198     20.45572     73.47038         9     0.848     0.783  58.12   0
       159    521.8610    593.8645 300.1454298 +22.7072205     872.8748     72.54142      1.451     3.33     5.151106     20.45572     115.0016        17     1.284     0.893  29.36   0
       160    955.3754    589.3978 300.2819753 +22.8357752     3315.544     72.44907      1.603     3.11     5.002931     20.45572     340.2672        33     1.274     1.198  53.93   0
       161    487.0672    589.2526 300.1360961 +22.6954703     1640.591     72.52296      1.430     2.77     5.027137     20.45572     180.6322        21     1.092     1.003   7.89   0
       162    851.8940    587.0806 300.2504572 +22.8041271     343.2976     72.65208      1.412     5.55     4.636093     20.45572      33.2807         8     1.191     0.730  15.57   0
       163    837.3866    585.2138 300.2465406 +22.7992466     226.5048     72.43058      1.244     3.37     4.607555     20.45572     33.80469         5     0.760     0.432  68.90   0
       164     48.9311    582.6714 300.0019795 +22.5622364     5327.351     72.55988      1.789     3.50     4.996585     20.45572     540.0721        40     1.401     1.356  58.78   0
       165    462.8120    584.2809 300.1301611 +22.6867744     157.0827     72.48602      1.407     3.83     4.927436     20.45572     40.18528         5     0.866     0.487 -47.76   0
       166    994.7256    579.2281 300.2975539 +22.8446312     363.7526     72.52296      1.479     3.17     5.042143     20.45572      74.2159         9     0.991     0.954  64.15   0
       167    516.1404    580.0324 300.1481415 +22.7015340      297.158     72.54142      1.400     3.46     5.183208     20.45572     40.90041         5     0.811     0.480  26.34   0
       168    350.4196    575.9722 300.0978859 +22.6507053     9153.804     72.50449      1.462     2.66     4.599835     20.45572     1181.532        42     1.256     1.160  36.29   0
       169    472.9250    573.0726 300.1369492 +22.6865862     9093.102     72.55988      1.390     2.69     5.029408     20.45572      1153.31        41     1.185     1.161  20.93   0
       170    238.2633    570.2729 300.0648536 +22.6154496     332.5743     72.54142      1.614     4.40     4.672679     20.45572     38.45325         5     0.805     0.685 -25.25   0
       171    116.4621    569.3868 300.0272779 +22.5786763     189.9123     72.46754      1.672     4.74     4.884433     20.45572     35.81734         5     1.198     0.632 -44.06   0
       172    719.2211    569.5769 300.2147894 +22.7593664     274.0852     72.50449      1.153     2.37     4.685235     20.45572     44.27312         5     0.683     0.478 -14.66   0
       173    884.7209    567.1281 300.2671734 +22.8082213     1929.295     72.61521      1.519     2.94     4.768666     20.45572     203.7773        24     1.220     1.060  88.11   0
       174    969.3038    564.5489 300.2943912 +22.8328014     12573.16     72.57832      1.594     3.06     4.973112     20.45572     1261.585        50     1.327     1.277 -78.24   0
       175    533.4743    562.6390 300.1591871 +22.7017322     11477.52     72.46754      1.385     2.40     5.320792     20.45572     1597.845        42     1.196     1.104  58.16   0
       176    703.0225    558.4173 300.2133665 +22.7513085     488.6745     72.48602      1.431     2.58     4.783989     20.45572     68.44893         9     0.840     0.726 -74.49   0
       177    260.9350    558.0506 300.0758729 +22.6187379     1381.078     72.54142      1.480     2.94     4.711471     20.45572     161.4328        21     1.135     0.994  22.45   0
       178    507.9817    556.0657 300.1533853 +22.6922064      449.205     72.48602      1.540     3.82     5.248782     20.45572     53.16144         7     1.014     0.518  57.87   0
       179    808.0446    550.9661 300.2485167 +22.7806182     634.3182     72.55988      1.256     3.26     4.691507     20.45572     114.0425        13     1.003     0.924 -66.46   0
       180    465.0676    550.7672 300.1417474 +22.6778263     4519.857     72.50449      1.412     2.74     5.091822     20.45572     531.3168        32     1.279     1.063  33.31   0
       181    443.5681    549.2567 300.1355463 +22.6709503     1112.237     72.52296      1.396     2.88     5.010671     20.45572     132.9942        18     1.112     0.948  41.48   0
       182    197.4865    548.7933 300.0591507 +22.5970600     654.7408     72.43058      1.356     3.24     4.821559     20.45572     81.84854        14     0.988     0.930 -19.55   0
       183    885.1072    546.5411 300.2739801 +22.8024195     1592.336     72.55988      1.590     3.14     4.781577     20.45572     156.8311        22     1.195     1.050   3.89   0
       184    581.7832    538.3628 300.1821134 +22.7092319     203328.3     72.50449      1.383     2.50     5.395794     20.45572     25880.18       192     1.435     1.400  13.43   0
       185    405.6337    544.8882 300.1251597 +22.6583283     221.0072     72.46754      1.066     2.52     4.884425     20.45572      47.5816         6     0.726     0.589 -38.56   0
       186    765.6035    543.5540 300.2376952 +22.7657793      806.579     72.48602      1.222     2.58     4.718492     20.45572     112.2077        14     0.915     0.873  -8.48   0
       187    969.3510    540.3718 300.3022581 +22.8258649     215.0764     72.52296      1.522     4.80     4.926944     20.45572     36.21265         6     1.054     0.748   1.92   0
       188    267.8547    538.1870 300.0844752 +22.6151103     3505.716     72.50449      1.505     2.96     4.782111     20.45572     333.2345        31     1.273     1.117  45.15   0
       189    350.2303    537.8647 300.1102023 +22.6397079     135.4166     72.52296      1.328     3.50     4.745905     20.45572     29.01771         5     1.038     0.340  46.09   0
       190    833.7210    534.5258 300.2618602 +22.7835812     482.7234     72.61521      1.160     3.77     4.737082     20.45572      58.6068         9     0.905     0.758  -0.88   0
       191    613.3900    524.9344 300.1963176 +22.7148421     296.7056     72.46754      1.151     3.36     5.333902     20.45572      40.1872         5     0.784     0.417 -67.63   0
       192    472.4003    518.8256 300.1544020 +22.6708502     2846.931     72.44907      1.496     2.48     5.241141     20.45572     336.5934        31     1.591     1.068  89.21   0
       193    317.0005    521.2638 300.1052557 +22.6249825      413.379     72.50449      1.468     2.35     4.809306     20.45572     53.23347         7     0.706     0.656  -9.45   0
       194    703.3029    514.6348 300.2276718 +22.7388123     252.6701     72.50449      1.391     5.06     4.824332     20.45572     35.18239         8     1.081     0.670  36.26   0
       195    577.2121    514.1865 300.1885405 +22.7009176     289.7976     72.43058      1.720     4.30     5.401828     20.45572     29.44319         5     0.780     0.674 -56.68   0
       196    789.6274    507.2896 300.2569592 +22.7625510      401.056     72.48602      1.359     3.46     4.759634     20.45572     57.62562         5     0.732     0.472 -79.31   0
       197    869.4577    505.0366 300.2825782 +22.7858040     1728.809     72.50449      1.465     2.72     4.834596     20.45572     190.4905        22     1.112     1.039 -64.12   0
       198    756.1110    505.0960 300.2472251 +22.7518848     348.2517     72.68893      1.304     2.52     4.761858     20.45572     46.20084         6     0.745     0.546  49.45   0
       199    740.7424    502.5607 300.2432588 +22.7465543     2652.084     72.48602      1.365     2.44     4.764082     20.45572     351.8733        25     1.106     1.024  75.79   0
       200    100.2151    502.8417 300.0438363 +22.5547089     173.8181     72.52296      1.349     4.48     4.818561     20.45572     34.68592         6     0.903     0.632  17.82   0
       201    983.7496    495.6545 300.3212708 +22.8173175     1002.639     72.54142      2.134     4.77     4.926944     20.45572      87.8819        17     1.444     0.899  73.35   2
       202    645.5111    499.4285 300.2146046 +22.7171350      490.589     72.48602      1.372     2.84     5.084599     20.45572     60.04582         8     0.816     0.743  15.83   0
       203    527.9626    498.4937 300.1783005 +22.6816565     654.2596     72.48602      1.365     3.35      5.41354     20.45572     93.00074        14     1.173     0.763  67.61   0
       204    997.9541    496.7465 300.3253477 +22.8218827     1199.887     72.54142      1.507     3.30     4.926944     20.45572     125.2328        20     1.160     1.109  61.94   0
       205    869.7468    495.1056 300.2858930 +22.7830357     2329.264     72.57832      1.616     4.17     4.861731     20.45572     271.6551        26     1.452     1.020  74.10   0
       206    623.0167    493.0739 300.2096611 +22.7085721     672.9041     72.50449      1.766     2.86     5.257136     20.45572     57.13092         9     0.783     0.745   2.32   0
       207    461.4683    492.0047 300.1597076 +22.6598717     321.8965     72.46754      1.171     2.42     5.309951     20.45572     53.62928         8     0.785     0.653   3.76   0
       208    408.8525    492.6229 300.1431319 +22.6442843     255.1063     72.52296      1.148     2.37     5.162073     20.45572     45.79984         5     0.827     0.480   5.93   0
       209    907.9004    490.0976 300.2994167 +22.7930172      4288.86     72.70735      1.457     2.82     4.908288     20.45572      465.028        30     1.244     1.094  77.34   0
       210    568.8616    486.0605 300.1950721 +22.6903363     298.4863     72.54142      1.155     3.90     5.411481     20.45572     51.82278         6     0.744     0.586 -57.77   0
       211    999.5005    480.7023 300.3310395 +22.8177320     842.4818     72.70735      1.552     3.95     4.926944     20.45572     99.81217        15     1.209     0.898  31.75   0
       212    139.7688    480.1162 300.0635069 +22.5600453     1150.421     72.50449      1.631     3.61     4.721898     20.45572     118.7966        16     1.168     0.917  69.16   0
       213     44.7496    478.3263 300.0345604 +22.5310432     1451.355     72.52296      0.727     1.44     4.969868     20.45572     554.5703         6     0.566     0.446  24.57   0
       214    800.7900    474.6071 300.2710501 +22.7564995     283.2987      72.3751      1.192     3.50     4.788546     20.45572     35.69284         5     0.804     0.439  18.56   0
       215    132.2452    470.4089 300.0643197 +22.5550036     505.3086     72.52296      1.938     3.33     4.786089     20.45572     55.73739         8     1.005     0.814  45.54   0
       216    996.0061    469.5642 300.3335655 +22.8134833      404.655     72.52296      1.366     4.60     4.883793     20.45572     43.14837         8     0.975     0.642  42.12   0
       217    740.1364    464.9574 300.2552787 +22.7355659     444.4293     72.50449      1.292     2.80     4.812289     20.45572     75.08361         8     0.947     0.583  17.49   0
       218    348.9115    462.4886 300.1342644 +22.6176695     247.1185     72.67051      1.357     4.07     5.034953     20.45572     40.65392         5     0.912     0.520  47.43   0
       219    681.3224    460.7254 300.2383263 +22.7167385      762.237     72.61521      1.214     2.73     4.977323     20.45572     102.1228        13     0.993     0.769  20.73   0
       220    995.8721    453.3881 300.3387753 +22.8087915     688.4104     72.52296      1.653     4.70     4.817106     20.45572     55.94836        12     1.061     0.930 -27.58   0
       221    742.1062    452.7559 300.2598536 +22.7326488      944.574     72.52296      1.372     3.03     4.828734     20.45572     117.6679        13     1.131     0.693  76.37   0
       222    899.4287    449.0890 300.3100885 +22.7786913     969.9136     72.48602      1.377     2.96     4.923344     20.45572     111.1665        14     0.983     0.889  56.98   0
       223    883.6445    445.5785 300.3063060 +22.7729575     571.1089     72.55988      1.316     2.92     4.921022     20.45572     73.16431        10     0.860     0.789 -74.36   0
       224    864.2044    445.5784 300.3002443 +22.7671385     273.0647     72.46754      1.180     3.89     4.914732     20.45572      39.5519         7     0.944     0.622  50.23   0
       225    627.8619    443.2888 300.2273326 +22.6957184      3127.98     72.59677      1.320     2.50     5.262388     20.45572     419.3517        23     1.079     0.985  61.29   0
       226    988.7971    441.9547 300.3402797 +22.8033864     493.7592     72.50449      1.413     4.70     4.790432     20.45572     52.74812        12     1.203     0.863 -50.61   0
       227    104.3384    435.1560 300.0670893 +22.5365192     289.4796     72.52296      1.389     3.51     4.952855     20.45572     39.79319         7     0.824     0.627 -62.06   0
       228    633.5867    431.2676 300.2330179 +22.6939785     328.1256     72.52296      1.319     3.46      5.26518     20.45572     35.72988         5     0.753     0.461 -73.00   0
       229    467.9465    430.3596 300.1817356 +22.6441058     432.5091     72.46754      1.363     2.81     5.283345     20.45572     58.44865         9     0.894     0.663  50.88   0
       230    997.7886    421.2551 300.3498042 +22.8001241      988.776     72.50449      1.536     3.53     4.684335     20.45572     89.61316        16     1.109     0.963  43.74   0
       231    910.9731    422.2481 300.3224017 +22.7744291     505.6234     72.52296      1.132     2.70     4.933377     20.45572     62.76862         8     0.784     0.673  38.24   0
       232    738.5129    417.3297 300.2702333 +22.7213907     1044.823     72.61521      1.210     2.33     4.885076     20.45572     154.6343        14     0.944     0.805 -14.55   0
       233    534.2534    417.8037 300.2064531 +22.6603604     488.5303     72.48602      1.434     3.02     5.279661     20.45572      62.0674         9     0.863     0.720  74.13   0
       234    242.3955    415.3905 300.1164218 +22.5722257     589.3915      72.3566      1.327     3.02     5.252534     20.45572     78.01814        11     0.956     0.821  68.11   0
       235    304.7924    411.0215 300.1372455 +22.5896697     3690.936     72.48602      1.429     2.82     5.316289     20.45572     436.9904        27     1.190     1.073  62.30   0
       236    252.0429    405.8759 300.1225097 +22.5723850       7700.5     72.48602      1.433     2.83     5.287138     20.45572     849.6072        37     1.225     1.121  41.86   0
       237    756.2792    406.4093 300.2793145 +22.7235706     320.1563     72.46754      1.429     4.51     4.846566     20.45572     34.53105         5     0.811     0.712 -49.15   0
       238   1017.9244    400.8449 300.3627114 +22.8002791     1858.821     72.48602      1.552     3.13     4.673028     20.45572     185.0772        24     1.149     1.124  46.08  16
       239    392.8106    400.1087 300.1681702 +22.6129075     4905.167     72.44907      1.388     2.56      5.25526     20.45572     617.5452        31     1.203     1.031  37.77   0
       240    637.0435    396.9029 300.2452485 +22.6851381     18604.67     72.50449      1.361     2.53     5.226434     20.45572     2545.413        58     1.259     1.173  43.62   0
       241    654.0266    398.0000 300.2501828 +22.6905388      585.318     72.44907      1.444     3.63     5.191102     20.45572     58.17676         9     0.933     0.727  13.19   3
       242    656.0340    396.0000 300.2514573 +22.6905651     544.5012     72.44907      1.430     4.81     5.176184     20.45572     65.38383         8     1.016     0.655  56.80   3
       243    484.1995    398.1700 300.1972423 +22.6397273     355.0345     72.46754      1.609     3.69     5.285872     20.45572     35.55812         5     0.940     0.417  44.25   0
       244    479.9402    396.6909 300.1963965 +22.6380265     394.8964     72.59677      1.653     3.34     5.287017     20.45572      36.5257         5     0.787     0.412  18.22   1
       245    833.9241    387.1180 300.3097786 +22.7412673     457.0646     72.61521      1.697     4.92     4.864916     20.45572     55.74294         8     1.088     0.630  64.68   0
       246    257.6651    384.1392 300.1313122 +22.5678282     379.7287     72.54142      1.436     2.38      5.32883     20.45572      44.4441         5     0.720     0.440 -72.61   0
       247    970.7700    379.6136 300.3548907 +22.7800633     768.0072     72.50449      1.488     3.35     4.863355     20.45572     94.62909        15     1.067     0.952  47.30   0
       248    191.6857    377.0387 300.1131007 +22.5460168     2134.082     72.48602      1.523     2.80     5.223443     20.45572     261.5655        24     1.239     1.066  57.03   0
       249    507.8504    378.9338 300.2108477 +22.6412846      282.324     72.48602      1.131     3.56     5.297724     20.45572     48.27676         5     0.777     0.539 -51.56   0
       250    680.3694    378.1702 300.2648252 +22.6927271      243.242     72.48602      1.284     2.94     4.988857     20.45572     33.28264         5     0.733     0.448  71.85   0
       251    848.2179    369.7628 300.3198673 +22.7405555     285.8842     72.50449      1.660     3.69     4.898139     20.45572     36.58584         5     1.178     0.333  77.51   0
       252    577.6965    366.3309 300.2366856 +22.6585811       6709.5     72.63365      1.305     2.25     5.282305     20.45572     903.9114        33     1.174     1.023  66.50   0
       253    991.4183    366.8811 300.3654644 +22.7825795     1273.944     72.48602      1.534     3.33     4.874969     20.45572     134.7276        19     1.144     0.992  62.57   0
       254    292.5667    365.7404 300.1481372 +22.5730026     823.8949     72.54142      1.426     2.91     5.364428     20.45572     88.10188        12     0.929     0.846 -30.28   0
       255    150.0494    358.8631 300.1060550 +22.5283200     540.9821     72.55988      1.439     3.39     5.102491     20.45572     65.88265        11     0.986     0.935 -40.07   0
       256    837.7310    358.6006 300.3202200 +22.7342072     323.6905     72.46754      1.181     3.41      4.87524     20.45572      47.1499         5     0.778     0.431  20.99   0
       257    691.5433    356.2732 300.2754124 +22.6897785     542.4814     72.54142      1.476     3.67     4.836932     20.45572      69.5149        12     1.129     0.876  66.89   0
       258    781.8795    355.3080 300.3038776 +22.7165436     1157.369     72.61521      1.381     2.60      4.78947     20.45572     161.3364        16     1.072     0.867  58.26   0
       259    484.3160    352.5253 300.2120907 +22.6266484     6169.401     72.59677      1.321     2.37     5.340536     20.45572     797.9317        34     1.184     1.042  66.14   0
       260    973.8612    347.1077 300.3664038 +22.7716390     702.8618     72.57832      1.450     3.69     4.930821     20.45572     88.24277        12     1.127     0.802  68.28   0
       261    876.3190    347.1210 300.3359768 +22.7424549     1533.155     72.63365      1.482     2.69      4.97072     20.45572     157.4935        19     1.045     0.955  64.42   0
       262    468.6003    341.1386 300.2108933 +22.6186698     468.4758     72.44907      1.348     3.04     5.332345     20.45572     63.53802        10     0.978     0.670  29.43   0
       263    551.5225    339.0659 300.2373820 +22.6429080     587.1055     72.59677      1.456     3.86     5.298348     20.45572     66.34523         8     1.158     0.556  47.02   0
       264    532.3997    337.2661 300.2320116 +22.6366642     323.4589     72.46754      1.312     2.35     5.313037     20.45572     41.50581         5     0.674     0.480  77.86   0
       265    849.1409    334.6059 300.3315634 +22.7307225     574.3721     72.46754      1.368     3.03     4.994675     20.45572     88.59232         8     0.890     0.655 -26.72   0
       266    371.8628    331.7059 300.1838483 +22.5869838     2487.372     72.59677      1.349     2.57     5.294198     20.45572     369.1065        23     1.112     0.962  74.08   0
       267     90.4417    329.0590 300.0971987 +22.5018981     1029.734     72.48602      1.617     3.39     5.282003     20.45572     126.3711        19     1.188     1.068   7.37   0
       268    719.8510    326.6950 300.2938302 +22.6897502     340.8891     72.57832      1.379     1.94     4.836272     20.45572     52.02758         5     0.722     0.410  20.68   0
       269    341.2056    321.1640 300.1777303 +22.5747717     29844.62     72.54142      1.393     2.61     5.294125     20.45572     3161.661        70     1.340     1.192  56.88   0
       270    876.0030    318.7297 300.3450905 +22.7341957      1279.73     72.44907      1.396     2.68     5.119217     20.45572     178.5026        16     0.988     0.902 -73.73   0
       271    831.3555    316.7607 300.3318084 +22.7202682      188.229     72.57832      1.199     3.50     5.004894     20.45572     40.95897         6     0.726     0.638  48.17   0
       272     37.4915    308.9095 300.0872824 +22.4802428     5006.612     72.67051      1.662     3.10     5.878933     20.45572      569.887        37     1.396     1.234  42.77   0
       273    791.0173    307.5137 300.3222334 +22.7055368     377.1714     72.44907      1.341     3.17     4.881521     20.45572     86.60661        10     1.065     0.654 -83.96   0
       274    215.3053    307.6021 300.1429729 +22.5331563     423.0761     72.41209      1.303     3.07     5.360192     20.45572     63.76999         9     0.933     0.734  -3.71   0
       275    439.8350    306.4434 300.2131964 +22.6000859     494.2557     72.55988      1.369     3.40     5.295288     20.45572     67.81471        12     1.000     0.887  15.51   0
       276    751.7302    301.0996 300.3120691 +22.6919339     1916.906     72.61521      1.304     2.43     4.876861     20.45572     242.3105        19     1.016     0.911  47.94   0
       277    559.9558    295.7079 300.2540749 +22.6329728     344.4427     72.48602      1.360     2.43     5.343187     20.45572     66.78761         8     0.887     0.580  64.85   0
       278    966.7111    293.7538 300.3814844 +22.7541529     462.7458     72.48602      1.392     4.68     4.954643     20.45572     66.57666        11     1.195     0.725  58.86   0
       279    413.4443    285.5801 300.2117511 +22.5861874     2116.808     72.55988      1.550     2.94     5.257969     20.45572     246.3308        22     1.248     0.925  70.75   0
       280    625.7352    284.6098 300.2781617 +22.6494774     246.1421     72.48602      1.039     2.59     5.178232     20.45572     51.21325         5     0.718     0.445  20.77   0
       281    852.8407    278.4850 300.3509245 +22.7156905     703.8416     72.46754      1.334     3.18     5.252895     20.45572     90.56694        13     0.960     0.932 -79.92   0
       282    844.9897    279.3640 300.3481915 +22.7135940     315.7746     72.50449      1.132     3.19     5.198772     20.45572     46.70237         7     0.750     0.653  -0.69   0
       283    734.9099    276.2502 300.3148883 +22.6797547     403.0633     72.50449      1.245     2.71      4.85553     20.45572     49.51474         6     0.744     0.545 -42.23   0
       284    489.2579    265.0069 300.2420217 +22.6029802     1161.763     72.48602      1.353     2.77     5.372473     20.45572     147.4806        14     1.003     0.843  42.76   0
       285   1001.5796    260.7627 300.4030647 +22.7550930     391.5342     72.52296      1.799     5.63     4.917806     20.45572     42.29191         8     1.114     0.801 -51.86   0
       286    734.2257    256.8776 300.3209591 +22.6739797     2347.377     72.50449      1.390     2.45     4.808662     20.45572     312.4466        21     1.114     0.941  71.81   0
       287    995.5442    251.2623 300.4042634 +22.7505544     3150.739     72.55988      1.498     2.76     4.922983     20.45572     356.0634        28     1.239     1.068  78.77   0
       288    442.4346    240.4139 300.2354233 +22.5818915     561.6951     72.50449      1.206     2.52     5.349511     20.45572     99.53572        10     0.859     0.764  70.84   0
       289    148.0939    234.8922 300.1456612 +22.4921368     563.7772     72.67051      1.512     3.78     5.443375     20.45572     82.93681        14     1.263     0.795  56.60   0
       290    117.2216    234.8386 300.1360827 +22.4828708     1357.264     72.52296      1.614     3.51     5.450967     20.45572     132.2365        20     1.253     1.007 -23.43   0
       291   1011.2430    232.0078 300.4154066 +22.7497104     452.2381     72.52296      1.182     2.01     4.918941     20.45572     78.77061         7     0.688     0.644  63.92   0
       292    855.0342    228.7228 300.3677493 +22.7020346     354.7081     72.48602      1.221     2.44     5.244697     20.45572      52.1231         7     0.715     0.654   6.61   0
       293    201.2504    226.9233 300.1647708 +22.5057745     509.1267     72.50449      1.343     2.82     5.472724     20.45572     76.92865        11     0.900     0.833  -0.71   0
       294    877.6171    220.7060 300.3773911 +22.7064853     458.1406     72.43058      1.606     3.24     5.264296     20.45572     50.97581         8     0.819     0.782  19.68   0
       295    806.1736    218.5029 300.3558306 +22.6844754     663.6013     72.44907      1.360     3.05     4.805936     20.45572     92.10853        12     0.985     0.875 -62.52   0
       296    396.2921    217.8569 300.2283786 +22.5615915     404.4508     72.55988      1.495     3.17      5.35944     20.45572     53.35819         8     0.986     0.535 -34.97   0
       297    942.3251    211.6301 300.4005155 +22.7232326       240.02     72.52296      0.963     3.57     5.038014     20.45572     38.52213         5     0.936     0.435 -14.70   0
       298    904.0640    207.3403 300.3899732 +22.7105527     1973.819     72.54142      1.421     2.44      5.18147     20.45572     281.2672        23     1.151     1.030 -84.89   0
       299    400.3033    199.5079 300.2355770 +22.5575200     1012.663     72.68893      1.558     3.60      5.35944     20.45572     110.0616        19     1.218     1.051  46.50   0
       300    802.4099    199.2148 300.3609124 +22.6778017      624.189     72.41209      1.412     3.19     4.826386     20.45572     73.45899         9     0.859     0.832  44.00   0
       301    322.4863    204.4525 300.2097620 +22.5356358     2062.246     72.54142      1.391     2.56      5.38018     20.45572     291.7703        22     1.125     0.996  64.89   0
       302    217.3619    191.8187 300.1811636 +22.5005178     675.8307     72.50449      1.479     3.03     5.530994     20.45572     104.0073        15     1.075     0.914  68.66   0
       303    335.6402    191.6733 300.2179978 +22.5359037     245.4744     72.48602      1.030     3.44     5.377313     20.45572     41.86576         5     0.764     0.449  74.02   0
       304    755.0918    188.6972 300.3495739 +22.6606179     1709.137     72.68893      1.368     2.46     5.001616     20.45572     255.1562        21     1.070     0.987  73.40   0
       305    820.0209    188.6725 300.3698212 +22.6800389      667.726     72.52296      1.538     2.57     5.003377     20.45572     81.80054         9     0.841     0.699  44.00   0
       306    238.8728    185.3763 300.1899415 +22.5051108     514.4633     72.54142      1.315     3.17      5.52071     20.45572     64.75143         8     0.886     0.740 -36.06   0
       307    528.3582    181.2418 300.2813603 +22.5906118     273.2787     72.61521      1.188     3.84     5.372473     20.45572     44.15399         6     0.924     0.569  22.25   0
       308    759.1138    180.0607 300.3536280 +22.6593376     763.2763     72.61521      1.446     3.11     5.052511     20.45572     85.61341        11     0.966     0.741  40.37   0
       309    679.7527    179.4700 300.3290889 +22.6354186      1276.65     72.48602      1.331     2.40     5.183975     20.45572     184.5435        17     1.020     0.962 -21.82   0
       310    501.1509    175.9954 300.2745905 +22.5809584     338.4727     72.48602      1.368     2.71     5.372473     20.45572     53.75108         7     0.709     0.690 -34.83   0
       311    752.1691    173.1586 300.3537015 +22.6552745      1707.52     72.52296      0.548     2.21     5.137615     20.45572     1235.185         5     0.416     0.358  58.38   0
       312    875.1976    171.0252 300.3927473 +22.6914701     1444.595     72.44907      1.405     2.80     5.384901     20.45572     183.5222        20     1.114     0.984  77.84   0
       313    605.9827    171.3038 300.3087561 +22.6109913     1079.626     72.41209      1.404     3.23     5.345226     20.45572     138.1462        13     1.039     0.845  19.63   0
       314    887.0282    170.2742 300.3966800 +22.6947932     755.8076     72.52296      1.357     3.55     5.376509     20.45572     101.1506        12     1.071     0.745  37.20   0
       315    933.7999    169.4292 300.4115411 +22.7085409     204.2084     72.46754      1.200     2.82     5.358006     20.45572     36.24374         5     0.718     0.459 -19.59   0
       316    446.2917    166.9735 300.2604386 +22.5619406     157.1384     72.44907      1.300     3.81     5.365345     20.45572     35.17064         5     0.818     0.511  34.30   0
       317   1003.9313    160.2903 300.4363825 +22.7268871     1179.385     72.65208      1.529     2.81     5.590752     20.45572     150.5793        20     1.157     1.057  75.13   0
       318     27.5377    157.0975 300.1334210 +22.4336730     584.3358     72.59677      1.683     3.94     6.080813     20.45572     63.42546         9     1.042     0.683 -11.50   0
       319    237.9257    153.2985 300.2000471 +22.4956119     598.3303     72.63365      1.424     3.25     5.615386     20.45572     95.12921        13     1.073     0.850  87.91   0
       320     99.7815    147.9941 300.1588207 +22.4527050     2239.455     72.46754      1.600     3.29     5.551593     20.45572     232.0095        27     1.269     1.155  20.48   0
       321    923.0649    145.3074 300.4160139 +22.6983896     680.4053     72.61521      1.336     3.58     5.413814     20.45572     98.67933        12     1.037     0.860  17.54   0
       322     49.7971    144.8027 300.1443227 +22.4368123     478.0479     72.28254      1.585     3.22      5.82373     20.45572     58.77745         9     0.951     0.727 -45.87   0
       323    257.2007    141.3824 300.2099043 +22.4979616      5642.91     72.41209      1.448     2.68     5.632022     20.45572      670.749        38     1.312     1.136  68.93   0
       324    297.5368    139.7589 300.2229761 +22.5095755     1443.007     72.48602      0.751     1.42      5.49728     20.45572     553.3695         6     0.563     0.446 -25.22   0
       325     41.2752    135.6671 300.1446363 +22.4316353     1336.516     72.57832      1.721     3.44     5.797311     20.45572     155.3262        19     1.199     1.093  31.82   0
       326    240.8634    132.2555 300.2077823 +22.4904461     598.4155     72.55988      1.391     2.47     5.752759     20.45572      78.8174        11     0.900     0.752 -62.67   0
       327    901.3904    123.2236 300.4164135 +22.6855525     3448.466     72.50449      1.428     2.52     5.425195     20.45572     418.5625        29     1.141     1.108  55.07   0
       328   1004.9833    121.9735 300.4491334 +22.7161748     2787.739     72.52296      1.487     2.90     5.505558     20.45572     295.8741        30     1.244     1.126  69.22   0
       329    450.7274    118.3259 300.2775903 +22.5492858     595.3839     72.55988      1.371     2.48     5.308764     20.45572     75.16167        10     0.849     0.732  36.09   0
       330    203.6917    118.8636 300.2005648 +22.4754651     337.1296     72.61521      1.494     3.30     5.844929     20.45572     55.43815         8     1.024     0.708  15.51   0
       331    565.0421    116.4908 300.3137757 +22.5829776     282.0885     72.50449      1.249     3.77     5.263997     20.45572     38.19316         6     0.822     0.498   4.21   0
       332    375.1029    110.3293 300.2566473 +22.5243456      768.564     72.63365      1.850     3.97     5.403178     20.45572     77.61508        11     1.179     0.791 -49.23   2
       333    501.9867    105.6788 300.2976467 +22.5609951     1678.264     72.50449      1.363     2.53     5.233792     20.45572     221.4104        24     1.282     1.024 -26.35   0
       334    140.9898    107.1543 300.1848672 +22.4533196     677.6406     72.52296      1.645     3.61     5.605796     20.45572     70.67665        12     1.067     0.930 -74.67   0
       335    430.2647    105.9938 300.2752188 +22.5396149     515.8807     72.46754      1.468     3.27     5.333918     20.45572     54.46594         7     0.900     0.568  68.72   0
       336     38.5231    105.8622 300.1534421 +22.4222512     385.3276     72.55988      1.381     4.14     5.532803     20.45572     37.90501         6     1.038     0.471 -29.57   0
       337    563.8663    104.6568 300.3172456 +22.5792232     314.9734     72.55988      1.258     2.44      5.23924     20.45572     57.65267         5     0.734     0.429  19.94   0
       338    245.5979    100.9998 300.2193860 +22.4828839     436.9886     72.28254      1.465     2.85     5.923614     20.45572     68.83639         6     0.924     0.464 -10.95   0
       339    790.5508     95.1963 300.3909397 +22.6443332     354.9565     72.50449      1.367     3.94     5.349712     20.45572     45.70856        10     0.992     0.698   1.57   0
       340    638.3434     91.5863 300.3446792 +22.5977539     132.8286     72.48602      1.049     4.09     5.284317     20.45572     36.11383         6     0.854     0.561  41.94   0
       341    782.6005     86.4131 300.3913084 +22.6394281     305.6895     72.31958      1.040     3.31     5.447744     20.45572     46.68626         7     0.836     0.660 -60.31   0
       342    276.1882     85.2344 300.2340095 +22.4875148     5958.588     72.48602      1.469     2.80     5.686648     20.45572     647.4007        38     1.303     1.156  69.94   0
       343    127.1896     84.8653 300.1878017 +22.4427830     755.0497     72.46754      1.777     3.61     5.605243     20.45572      72.7237        13     1.068     0.919  84.74   0
       344    904.9785     82.5010 300.4307330 +22.6749081     307.9801     72.43058      1.417     4.12     5.443026     20.45572     46.63882         5     0.951     0.511  45.01   0
       345    247.9542     79.5811 300.2270608 +22.4774352      354.752     72.54142      1.405     3.02     5.954875     20.45572     51.10178         5     0.738     0.447  20.76   0
       346    291.6761     76.9454 300.2415133 +22.4897708     280.8033     72.54142      1.130     2.71      5.55837     20.45572     46.60934         5     0.852     0.465  85.91   0
       347     37.7787     74.6842 300.1633155 +22.4130737      446.184     72.44907      1.848     6.50     5.422839     20.45572     45.02937         9     1.504     0.790  66.68   0
       348    522.2703     70.6727 300.3153080 +22.5570021     6421.167     72.57832      1.415     2.53     5.069233     20.45572     828.4842        35     1.245     1.076  64.58   0
       349    407.9855     70.6615 300.2797368 +22.5227889     632.2591     72.46754      1.450     3.07     5.119371     20.45572     96.02331        12     1.073     0.776  56.14   0
       350    579.2565     65.2950 300.3347963 +22.5725110     286.5491     72.55988      1.477     3.81     5.113433     20.45572     42.31393         5     0.924     0.450  45.76   0
       351    774.8567     60.5967 300.3972620 +22.6296846     805.7639     72.46754      1.599     3.04     5.714846     20.45572     101.5663        12     1.039     0.827 -13.83   0
       352    867.1976     59.4454 300.4264237 +22.6569741     390.2034     72.48602      1.194     3.46     5.462039     20.45572     59.67834         8     0.904     0.629   9.11   0
       353    215.1234     54.0519 300.2251248 +22.4602676     418.0624     72.50449      1.373     3.83     6.210303     20.45572     47.76492         9     0.914     0.716 -83.68   0
       354    650.6486     50.7950 300.3617331 +22.5897044     6329.873     72.48602      1.424     2.57     5.307723     20.45572     844.5012        36     1.265     1.070  75.23   0
       355    573.8160     53.1387 300.3370416 +22.5673871     532.3581     72.44907      1.398     3.54     5.068039     20.45572     64.12424        11     1.124     0.733  12.41   0
       356    425.5492     49.7993 300.2919638 +22.5220497     1520.369     72.46754      1.488     2.46     4.824175     20.45572     204.0342        19     1.166     0.915  76.13   0
       357    691.8446     48.1438 300.3754274 +22.6012678     848.8672     72.52296      1.277     2.74     5.560529     20.45572     120.2048        14     1.034     0.809  77.45   0
       358    761.5759     45.5740 300.3979910 +22.6213898     404.5826     72.46754      1.353     5.40     5.874722     20.45572     53.99697         9     1.032     0.798  62.42   0
       359    707.8462     44.5154 300.3815894 +22.6050115     547.9885     72.48602      1.241     2.38     5.685019     20.45572     71.22279         8     0.760     0.659 -72.12   0
       360    977.9963     42.6018 300.4664406 +22.6852611     580.9637     72.28254      1.706     4.19     5.446145     20.45572     59.88223         7     0.996     0.529  25.59   0
       361    174.4342     42.2066 300.2163123 +22.4446783     677.0251     72.50449      1.514     3.00     6.210464     20.45572     79.35172        12     0.941     0.873 -16.95   0
       362     21.6649     42.7780 300.1686484 +22.3990822     363.4365     72.48602      1.365     4.02     5.382536     20.45572     50.60685         6     1.037     0.446 -33.36   0
       363   1016.9410     41.7961 300.4788525 +22.6966735      245.306     72.46754      1.381     3.77     5.446841     20.45572     37.89842         6     0.954     0.428  36.23   0
       364    746.2511     39.7050 300.3951167 +22.6151171     586.0322     72.57832      1.324     3.04      5.93852     20.45572     72.64159        10     0.944     0.743  36.55   0
       365    694.9133     35.7322 300.3804058 +22.5986157     2612.735     72.61521      1.369     2.32     5.638031     20.45572     391.7443        26     1.132     1.012  65.17   0
       366    710.0666     34.5909 300.3854974 +22.6028209     834.8569     72.50449      1.704     5.17     5.767185     20.45572     77.09722        14     1.350     0.790  56.45   0
       367    336.1665     36.5738 300.2684364 +22.4914893     415.9882     72.52296      1.421     3.34     5.473434     20.45572     48.90715         5     0.735     0.460 -18.46   0
       368    781.2466     27.4222 300.4100046 +22.6220517     1602.437     72.54142      1.469     2.62     6.075664     20.45572       184.18        21     1.097     1.003  77.31   0
       369    941.2320     25.3753 300.4605544 +22.6693098     367.9335     72.50449      1.159     3.62     5.447221     20.45572     51.78965         5     0.882     0.428  47.72   0
       370    465.2047     23.1604 300.3129391 +22.5262612     398.9927     72.52296      1.585     3.72      4.54279     20.45572     23.85829         5     1.169     0.340 -78.83   0
       371    719.4656     20.3175 300.3930516 +22.6015267     771.7321     72.61521      1.433     2.82     5.962226     20.45572     95.14013        15     0.997     0.928 -84.82   0
       372    524.9545     20.0059 300.3325629 +22.5432368     1217.019     72.50449      1.457     2.67     4.810659     20.45572     148.7713        14     1.042     0.818  56.36   0
       373     97.8593     19.8249 300.1997619 +22.4153131     649.2861     72.50449      1.585     3.02     5.369954     20.45572     73.30697         9     0.885     0.690  10.15   0
       374    428.5459     18.0149 300.3031960 +22.5138092      810.402     72.52296      1.419     3.12     4.475572     20.45572     98.60568        14     1.057     0.847  24.18   0
       375    811.0266     16.7292 300.4227529 +22.6278826     390.2628     72.50449      1.368     2.56     6.074973     20.45572     60.86062         9     0.823     0.777 -60.25   0
       376    181.7241   1020.7639 299.9008388 +22.7277158     367.0627     69.81367      1.743     4.53      98.1899     20.45572     38.87324         5     1.394     0.418  83.11  16
       377    323.8411   1016.4688 299.9464254 +22.7691282     1359.836     72.48602      2.265     6.43     10.61212     20.45572     73.81916        27     1.596     1.365 -27.65  16
       378    762.5869   1017.8148 300.0825838 +22.9010882     206.6811     72.43058      1.213     3.41      3.70862     20.45572     30.28609         5     0.794     0.424  68.11   0
       379    159.7022   1011.8645 299.8968893 +22.7185556     1357.991     72.61521      3.390    12.06     94.92007     20.45572     40.38844        36     2.425     1.669 -38.49  18
       380    200.8666    995.1352 299.9151275 +22.7261126      1403.25     72.55988      5.261    12.35     73.41556     20.45572     51.68423        36     3.027     1.404 -38.97   3
