#   1 NUMBER                 Running object number                                     
#   2 X_IMAGE                Object position along x                                    [pixel]
#   3 Y_IMAGE                Object position along y                                    [pixel]
#   4 ALPHA_J2000            Right ascension of barycenter (J2000)                      [deg]
#   5 DELTA_J2000            Declination of barycenter (J2000)                          [deg]
#   6 FLUX_APER              Flux vector within fixed circular aperture(s)              [count]
#   7 FLUXERR_APER           RMS error vector for aperture flux(es)                     [count]
#   8 FLUX_RADIUS            Fraction-of-light radii                                    [pixel]
#   9 FWHM_IMAGE             FWHM assuming a gaussian core                              [pixel]
#  10 BACKGROUND             Background at centroid position                            [count]
#  11 THRESHOLD              Detection threshold above background                       [count]
#  12 FLUX_MAX               Peak flux above background                                 [count]
#  13 ISOAREA_IMAGE          Isophotal area above Analysis threshold                    [pixel**2]
#  14 A_IMAGE                Profile RMS along major axis                               [pixel]
#  15 B_IMAGE                Profile RMS along minor axis                               [pixel]
#  16 THETA_IMAGE            Position angle (CCW/x)                                     [deg]
#  17 FLAGS                  Extraction flags                                          
         1    836.3704     16.2349 300.4258657 +22.6182368     616.1091     72.67052      1.489     3.75     4.912199     20.49734      75.4129        11     1.123     0.652 -83.28   0
         2    856.7320     12.3304 300.4334770 +22.6232069     2120.412     72.70751      1.385     2.43     4.935367     20.49734      315.667        21     1.071     1.001  75.26   0
         3    562.2247     10.8305 300.3422317 +22.5346212     348.9741     72.65202      1.197     2.13     5.484965     20.49734     85.56231         8     0.818     0.601  84.48   0
         4    239.8762      7.6019 300.2430087 +22.4371463     1018.352     72.55943      1.538     3.09     5.087321     20.49734      110.392        16     1.007     0.980 -10.81   0
         5    805.2087      4.8498 300.4198447 +22.6056369     888.2488     71.62699      1.381     2.47     4.961277     20.49734     143.4686        14     0.975     0.850  68.44  16
         6    512.3024      3.1275 300.3291900 +22.5174589     338.7602     65.81657      1.067     1.78     4.958632     20.49734     64.25319         5     0.704     0.411  69.03  16
         7    227.0981      3.1409 300.2404825 +22.4320365     178.6521     65.85741      0.962     3.94      5.28896     20.49734     46.57686         5     0.809     0.548 -38.85  16
         8    304.7823    999.1220 299.9412105 +22.7411152     7949.744     72.65202      8.510    32.22     39.53079     20.49734     163.6457       700    10.768     4.635  65.94  18
         9    421.8508   1022.7875 299.9699112 +22.7830389     500.3503     61.42093      1.626     6.02     3.077151     20.49734     42.76669        10     1.040     0.978  87.23  24
        10    266.3143   1011.4202 299.9252512 +22.7330917     4217.494     72.57796      7.974    24.59     59.09063     20.49734     90.70567       304     5.731     4.787  57.82  19
        11    286.5938   1009.7000 299.9321144 +22.7386869     4903.475     72.55943      9.011    31.20     58.16558     20.49734     98.48772       446     6.291     6.040 -52.81  19
        12    232.6233   1000.8313 299.9182261 +22.7199420     2072.194     72.65202     10.987    25.22      54.0294     20.49734     59.67643       136     6.595     2.678  62.17  19
        13    247.0336   1023.3520 299.9153759 +22.7307226     749.8553     58.39117      2.522     6.22     66.23107     20.49734     51.74821        12     1.557     0.699   1.73  27
        14    237.3880   1020.4279 299.9133299 +22.7269886     3633.538     70.91013      7.038    23.65     64.51585     20.49734     77.96639       210     5.934     3.374 -22.43  27
        15    170.2112    964.5557 299.9106361 +22.6908076     2365.463     72.65202     20.580    33.97     34.16122     20.49734      68.4023       259     6.690     4.787  -7.55   3
        16    144.7958   1016.5373 299.8858267 +22.6980710     4959.882     72.63351     11.319    42.12     51.93006     20.49734     95.24973       692    10.147     5.920   1.37  27
        17    142.4546    980.3398 299.8968777 +22.6869963     4738.899     72.70751     23.643    79.44     33.42388     20.49734     108.8157      2886    16.949    15.343 -26.69  19
        18    718.1718    978.7271 300.0764733 +22.8593085     6929.512     72.67052      1.881     3.92     2.958478     20.49734     392.7719        50     1.538     1.435 -32.15   0
        19    597.8621    973.2948 300.0407823 +22.8216617     448.0646     72.74448      1.895     4.89     3.119685     20.49734     32.65527         9     0.930     0.727  71.80   0
        20    228.7938    974.0528 299.9257492 +22.7111178     486.8051       72.615      3.879     4.09     39.40332     20.49734     32.62392         5     1.001     0.544 -54.90   0
        21    870.6514    972.4474 300.1260200 +22.9032322     389.7122     72.68902      1.801     5.18     2.491065     20.49734     27.21478         7     1.052     0.721  -5.53   0
        22    143.1161    942.7789 299.9093031 +22.6764317     3572.452     72.59648     15.668    48.80     17.33348     20.49734     80.54057       773    10.030     6.627 -40.06   3
        23    626.5737    969.2256 300.0510440 +22.8291076     1543.447       72.615      1.779     4.20     3.101905     20.49734     102.5075        22     1.248     1.147  27.05   0
        24    520.6404    965.8713 300.0191651 +22.7963645     1030.729     72.63351      1.717     4.48     3.093665     20.49734      78.8253        16     1.189     0.952 -59.60   0
        25    450.8136    964.2418 299.9979709 +22.7749448     6981.177     72.67052      1.952     9.30     3.230728     20.49734     634.0901        40     1.887     1.278 -60.65   0
        26    804.0067    966.1634 300.1072985 +22.8814454     423.0782     72.65202      1.985     4.70      2.82705     20.49734     27.35045         5     0.950     0.659  29.48   0
        27    484.0393    951.1321 300.0125725 +22.7811555     567.1422       72.615      1.714     2.73     3.167126     20.49734     51.97071         8     0.801     0.662 -42.68   0
        28     21.2042    984.5118 299.8578645 +22.6517786      405.593     72.55943      1.634     4.48     2.343413     20.49734     42.91548         6     0.996     0.573 -59.63   0
        29    992.4419    995.3684 300.1565262 +22.9463240     742.6418     72.68902      1.982     6.65     3.223224     20.49734      66.3417        15     1.383     1.218  65.81   0
        30    997.3973    942.7449 300.1751954 +22.9327023      1969.44     72.59648      1.986     4.94     3.669751     20.49734     101.5065        32     1.452     1.413  81.42   0
        31    647.2937    940.4618 300.0668533 +22.8270714     263.1661     72.74448      1.406     4.94      3.06003     20.49734     38.25722         6     0.938     0.738 -63.93   0
        32    786.4532    931.5546 300.1130904 +22.8662501     876.4056     72.68902      2.080     6.29     2.889311     20.49734     60.59507        13     1.422     0.878  41.91   0
        33    820.8790    925.8907 300.1256586 +22.8749470     1017.165     72.79991      1.720     4.99     2.825114     20.49734     70.15591        21     1.377     1.092 -39.06   0
        34    598.2593    927.0480 300.0559526 +22.8085151     367.7411     72.70751      1.690     4.85     3.021299     20.49734     38.86437         6     1.165     0.572 -22.51   0
        35    212.2699    980.5619 299.9184965 +22.7080224     1958.556       72.615      8.231    15.91     43.39423     20.49734     54.55488        54     2.901     2.427  40.23   2
        36     30.7717    922.8132 299.8809068 +22.6369762     672.0151     72.65202      1.745     4.60     3.933567     20.49734     56.58655        13     1.164     0.985  24.02   0
        37    843.2665    919.4331 300.1347352 +22.8798059     11243.63     72.65202      1.821     3.95     2.816843     20.49734     684.0856        54     1.491     1.399 -52.21   0
        38    889.0320    919.2534 300.1490560 +22.8934748     570.4149     72.67052      2.048     5.46      2.78637     20.49734     42.79715        11     1.111     0.992  80.80   0
        39    154.8100    911.4458 299.9231283 +22.6709632     835.8569     72.67052      2.630     5.20      10.4374     20.49734     56.08701        11     1.475     0.639 -57.46   0
        40    192.2032    976.5891 299.9135538 +22.7008590     1555.035     72.46673     11.485    15.61     41.07483     20.49734     44.51916        39     3.256     2.080  51.26   3
        41    548.8082    908.1015 300.0467249 +22.7882459      472.941     72.52236      1.535     2.47     2.868308     20.49734     47.49991         6     0.719     0.558 -52.66   0
        42    197.5806    982.9532 299.9131540 +22.7042973     1449.675     72.68902      9.019    10.52     44.42533     20.49734      43.2317        23     2.143     1.441 -27.78   3
        43    851.9015    901.5962 300.1432287 +22.8772750     1456.126      72.5409      1.914     4.50     2.863863     20.49734     91.12982        25     1.329     1.235  88.03   0
        44    145.2172    901.8801 299.9232596 +22.6653417      477.084     72.65202      1.653     6.59      8.41766     20.49734     42.97589        12     1.442     0.845  48.20   0
        45    704.1617    898.9371 300.0980697 +22.8322131     493.9424     72.65202      1.703     5.14     3.141812     20.49734       44.625        11     1.069     0.910  77.33   2
        46    699.1819    896.2689 300.0973868 +22.8299541     459.8387     72.65202      0.577     2.21     3.146688     20.49734      281.167         4     0.918     0.162  51.72   2
        47    889.6819    895.0041 300.1571473 +22.8867087     882.0436     72.57796      2.394     6.02     2.897547     20.49734     51.65816        17     1.399     1.061 -75.45   0
        48    937.5672    886.7679 300.1747526 +22.8986981     392.5057     72.70751      1.700     3.53     3.116494     20.49734     39.03922         8     0.948     0.603 -20.32   0
        49    789.5109    885.6841 300.1289651 +22.8540024     744.9366     72.78144      1.766     5.70      3.10865     20.49734     47.84935        14     1.274     0.957 -36.43   0
        50     49.4154    883.7070 299.8994152 +22.6313696     178.2151     72.57796      1.414     4.13     4.036029     20.49734     31.56257         5     1.005     0.484 -83.89   0
        51    800.9599    882.1585 300.1336788 +22.8564231     456.6323     72.74448      1.493     5.43     3.109201     20.49734     48.71822         9     0.976     0.853  77.07   0
        52    502.2158    881.6080 300.0408441 +22.7666692     3991.349     72.57796      1.655     3.43     3.104748     20.49734     372.7049        29     1.240     1.185 -85.94   0
        53    280.3083    870.6111 299.9754089 +22.6969295     425.9932     72.59648      2.593     6.76     4.910517     20.49734      37.8851         9     1.380     0.929 -22.80   0
        54    164.2234    870.2144 299.9394631 +22.6619718      412.436     72.65202      1.587     4.40     5.235825     20.49734     40.02957         7     1.071     0.515 -64.19   0
        55    545.2648    869.7374 300.0581008 +22.7761780     457.9972     72.68902      2.190     4.67     2.853359     20.49734     36.25903         6     0.924     0.669 -73.92   0
        56    228.3214    866.8658 299.9604691 +22.6802524     865.9821     72.76296      2.282     3.16     4.930945     20.49734     71.98351        12     1.082     0.739  77.97   2
        57    204.6716    864.2272 299.9539779 +22.6723973     1642.745     72.63351      1.789     3.98     4.574008     20.49734     123.7699        25     1.308     1.219  66.98   0
        58    136.2721    865.2571 299.9323918 +22.6521599     410.1439     72.68902      1.837     4.57     4.339436     20.49734     41.02423         5     0.833     0.711 -65.90   0
        59    735.7059    852.4308 300.1230206 +22.8283260      479.919     72.57796      2.188     7.14     3.354364     20.49734     37.74328        10     1.661     0.859 -47.87   0
        60     80.3757    854.0630 299.9186703 +22.6321705     399.7844     72.63351      1.741     3.37     4.004578     20.49734     35.52386         5     0.754     0.437  70.10   0
        61    237.0424    846.0490 299.9699491 +22.6769022     460.6689     72.68902      1.422     5.72     4.532098     20.49734     54.74884        11     1.312     0.702 -46.66   0
        62    814.2253    845.7424 300.1496562 +22.8499474     640.5865     72.65202      1.501     4.99     3.209195     20.49734     55.88457        13     1.087     0.932  81.97   0
        63    682.2715    839.6655 300.1105311 +22.8086402      4707.49     72.68902      1.619     3.27     3.290815     20.49734     430.6387        35     1.260     1.235  -5.37   0
        64    172.0341    840.1559 299.9516647 +22.6557004     465.9153     72.70751      2.000     5.53     4.440368     20.49734     39.10894         7     1.251     0.688  35.94   0
        65    484.8128    836.7444 300.0500202 +22.7485796     573.2758     72.65202      1.453     3.10     3.365107     20.49734     60.20635        11     0.884     0.833 -39.65   0
        66    232.5240    833.4933 299.9726277 +22.6719465     1404.438     72.79991      1.683     3.03     4.480794     20.49734     138.6621        23     1.349     1.082  35.12   0
        67    703.0665    832.0536 300.1194822 +22.8126912     703.9161     72.68902      1.554     3.96      3.36787     20.49734     59.50503        14     1.036     0.990  -2.73   0
        68    501.8211    831.4894 300.0570210 +22.7521743     201.7482     72.57796      1.120     3.58     3.301276     20.49734     35.75922         5     0.996     0.371  84.08   0
        69    251.8394    830.7224 299.9795318 +22.6769490     449.4974     72.63351      1.770     5.60     4.472901     20.49734      41.0704         8     1.034     0.856 -22.02   0
        70    619.6193    822.7141 300.0965368 +22.7849878     303.4202     72.57796      1.959     5.28     3.307831     20.49734      43.1505         5     1.394     0.565 -52.65   0
        71    858.3711    819.4911 300.1719494 +22.8556448     4121.716       72.615      1.666     3.28     3.213773     20.49734     345.9137        35     1.286     1.224 -79.37   0
        72    589.1893    816.6659 300.0890310 +22.7741264     253.2366       72.615      1.483     3.43     3.268538     20.49734     31.06177         5     0.768     0.443 -14.87   0
        73    266.5643    813.7736 299.9896196 +22.6765085     606.6453     72.67052      1.674     5.83     4.405812     20.49734     45.71562        14     1.112     0.967  24.12   0
        74    575.3299    811.9158 300.0862617 +22.7686069     561.7053     72.76296      1.552     4.47     3.253824     20.49734     57.89185        11     0.988     0.843 -43.53   0
        75    221.6351    809.9438 299.9769010 +22.6619268     1059.402     72.67052      1.800     4.60      4.38682     20.49734     94.43628        22     1.428     1.104 -72.07   0
        76    371.3205    801.9892 300.0260199 +22.7045626     53359.49     72.63351      1.599     3.01     3.993093     20.49734     5594.118        96     1.422     1.414  43.29   0
        77    636.9896    804.9018 300.1077366 +22.7850855     562.9335      72.5409      1.383     4.80     3.368133     20.49734     60.22619         9     1.164     0.669  39.08   0
        78    629.3272    801.1375 300.1065751 +22.7817075      1552.01     72.68902      1.498     2.81      3.37822     20.49734     178.9351        19     1.139     0.997 -36.96   0
        79    299.6415    800.1548 300.0043297 +22.6825294     408.8298       72.726      1.456     3.94     4.303132     20.49734      60.1993         9     1.088     0.722  67.94   0
        80    658.2112    797.2083 300.1168455 +22.7892412      849.717      72.5409      1.487     3.59     3.386563     20.49734     89.66557        14     1.138     0.831 -20.19   0
        81    668.9348    795.5261 300.1207315 +22.7919738     445.5166     72.68902      1.411     4.78     3.389454     20.49734      64.1402        11     1.119     0.827 -55.58   0
        82     57.6993    796.3824 299.9303827 +22.6088313     723.5139     72.55943      1.729     4.73     3.806409     20.49734     77.47189        15     1.367     1.020   7.86   0
        83     24.6189    796.5599 299.9200529 +22.5989508     802.2427     72.67052      1.760     4.68     3.803185     20.49734     64.97926        15     1.266     0.899  47.20   0
        84    989.1622    793.1516 300.2212854 +22.8872789     307.5975     72.67052      1.526     3.97     3.704227     20.49734     31.76451         6     0.760     0.594  51.61   0
        85    774.8584    791.5154 300.1550255 +22.8225797     421.7096     72.76296      1.642     6.08     3.459407     20.49734     38.40902        10     1.468     0.708 -15.27   0
        86    569.3596    789.7407 300.0916137 +22.7604537     224.9795     72.65202      1.081     4.24      3.30876     20.49734     39.83405         6     0.747     0.687   2.39   0
        87    811.9421    782.1924 300.1696102 +22.8310196     837.6447     72.63351      1.718     4.78     3.370596     20.49734     74.65579        13     1.211     0.861  47.72   0
        88    421.0650    779.2287 300.0488907 +22.7129579     31188.23     72.65202      1.533     2.94     3.895363     20.49734     2819.853        75     1.377     1.343 -88.87   0
        89    435.4591    779.8607 300.0531626 +22.7174572     2044.968     72.70751      1.527     2.82     3.841377     20.49734     224.9236        26     1.186     1.130  49.26   0
        90    944.2173    775.1215 300.2131348 +22.8686329     2949.908     72.65202      1.715     3.47     3.470148     20.49734     217.0009        29     1.300     1.187  -4.66   0
        91    432.0171    773.8401 300.0540493 +22.7146976     553.8403     72.67052      1.581     4.23     3.870902     20.49734     56.75251        11     1.101     0.908 -46.90   0
        92    701.9997    771.1661 300.1389482 +22.7948959     935.3952       72.615      1.431     3.11     3.493575     20.49734     97.65326        16     1.054     0.941 -81.86   0
        93    538.2029    771.4332 300.0878692 +22.7458566     558.4688     72.63351      1.609     4.18     3.351558     20.49734     60.61393        11     1.025     0.915  85.85   0
        94    303.6029    771.0521 300.0150229 +22.6753722     869.7252     72.65202      1.793     3.32     4.302664     20.49734     92.55108        16     1.118     0.963 -73.55   0
        95    108.7940    766.3640 299.9560104 +22.6155648     407.2094     72.67052      1.354     3.96     3.926324     20.49734     50.86729         6     1.016     0.441  56.80   0
        96    549.0144    765.7044 300.0930963 +22.7474552     869.5267     72.57796      1.521     4.30     3.320789     20.49734     85.99253        14     1.168     0.837  57.45   0
        97    950.5520    762.9660 300.2190618 +22.8670403     484.1273     72.68902      1.641     4.44     3.534292     20.49734     61.09016        11     1.126     0.768 -29.38   0
        98    451.1714    762.4969 300.0636952 +22.7171892     439.0125     72.59648      1.466     4.20     3.851164     20.49734     46.91301         7     0.914     0.637 -56.98   0
        99    494.8637    760.9154 300.0778026 +22.7298406     482.1331     72.74448      1.390     4.47     3.670224     20.49734     55.52434         9     1.183     0.600  54.85   0
       100    136.9264    760.5171 299.9666499 +22.6223327     623.5554     72.78144      1.676     5.06     3.963013     20.49734     65.22121         8     1.203     0.602 -43.97   0
       101    703.8816    759.9232 300.1431895 +22.7922330     347.0117     72.76296      1.433     3.63     3.504737     20.49734     42.13066         7     0.930     0.597 -72.78   0
       102    928.3999    757.7551 300.2138500 +22.8589058     514.0795     72.63351      1.716     4.89     3.407569     20.49734     40.40722         7     1.146     0.590  35.89   0
       103    301.3434    755.5307 300.0193661 +22.6702429      479.176     72.67052      1.334     2.99      4.32057     20.49734     58.69088        11     0.917     0.796  71.86   0
       104    594.0742    744.1143 300.1141398 +22.7547722     609.8417     72.78144      1.514     3.34     3.382024     20.49734     68.55431        12     0.985     0.851 -54.45   0
       105    616.0775    741.5808 300.1218129 +22.7606428     1326.521     72.65202      1.455     2.94      3.38924     20.49734     138.4304        19     1.135     0.953 -46.29   0
       106    502.8987    743.4901 300.0859673 +22.7272509     381.2009     72.81837      1.364     4.10     3.685865     20.49734     46.72979         7     1.015     0.473 -10.39   0
       107   1010.6377    740.4453 300.2451185 +22.8785751     4438.421     72.70751      1.746     3.69     3.953999     20.49734     350.0066        40     1.441     1.289 -44.14   0
       108    535.8871    741.4012 300.0969116 +22.7365448     462.8466     72.55943      1.330     4.80     3.436836     20.49734     52.13245         8     1.125     0.581  34.18   0
       109    698.2080    736.7281 300.1489630 +22.7838741     291.9277     72.63351      1.535     3.78     3.489455     20.49734     33.32933         5     0.879     0.468 -46.72   0
       110    999.1823    731.9829 300.2442972 +22.8727123     1625.949     72.63351      1.695     4.09     3.889151     20.49734     133.5946        21     1.267     1.060 -29.32   0
       111    362.1187    725.8011 300.0479262 +22.6799493     903.6572      72.5409      1.409     3.02     4.169343     20.49734     98.91039        17     1.155     0.856  56.80   0
       112    825.4620    723.1600 300.1930143 +22.8181227     2713.213     72.65202      1.666     3.22     3.545875     20.49734     219.3097        32     1.557     1.050  -1.31   0
       113     47.7202    713.2044 299.9543211 +22.5819940     869.2829     72.55943      1.747     4.10     4.093272     20.49734     71.75364        16     1.193     1.037  -7.09   0
       114    210.6933    709.5314 300.0061419 +22.6298515     742.8345     72.78144      1.776     2.95     3.914471     20.49734     89.18787        15     1.078     0.903  69.17   0
       115    907.6400    709.1676 300.2231735 +22.8387311     587.9843     72.68902      1.583     4.81     3.677979     20.49734      57.7064        14     1.234     0.941  10.90   0
       116    943.8577    700.1301 300.2374014 +22.8469873     147170.4     72.67052      1.576     3.07     3.769412     20.49734     12559.09       159     1.523     1.476 -71.28   0
       117    705.8627    704.3525 300.1618705 +22.7768749     183.4007     72.67052      1.363     3.47     3.736752     20.49734     31.54927         5     0.781     0.446 -15.52   0
       118    796.0258    700.3263 300.1912646 +22.8027441     828.9935     72.67052      1.657     4.56     3.679648     20.49734     78.56207        13     1.120     0.992  44.17   0
       119    976.7570    693.4888 300.2498174 +22.8549364     450.4183     72.65202      1.539     4.05     3.878467     20.49734     42.86716         8     0.897     0.675  52.18   0
       120    630.0692    688.8964 300.1432932 +22.7497164     1691.726     72.78144      1.438     3.02     3.828398     20.49734     188.0265        21     1.125     1.011  64.79   0
       121    811.3124    686.2373 300.2006066 +22.8032798     9334.623     72.63351      1.472     2.81     3.776437     20.49734     907.3298        42     1.262     1.162 -77.98   0
       122    312.7842    681.2429 300.0470681 +22.6523682     4848.103     72.67052      1.479     2.82     4.178306     20.49734     521.4491        32     1.188     1.162  84.74   0
       123    394.7805    679.5261 300.0731232 +22.6764715     1128.623     72.65202      1.450     2.91     4.024832     20.49734     119.0321        16     1.025     0.920  83.09   0
       124     26.7389    679.6512 299.9587098 +22.5660778     1524.677     72.70751      1.732     4.23     4.310987     20.49734      147.857        24     1.381     1.116 -56.36   0
       125    270.1390    676.8285 300.0352455 +22.6383084     474.8808     72.65202      1.783     4.65     4.178612     20.49734     46.96669        10     1.062     0.870 -14.02   0
       126    603.2565    674.9366 300.1394829 +22.7376709     731.2624     72.70751      1.329     2.54     4.022734     20.49734     106.1116        12     0.979     0.724   1.17   0
       127    594.7417    667.0508 300.1393950 +22.7328546     3181.118     72.70751      1.350     2.55     4.048555     20.49734     409.4564        25     1.087     1.009  58.47   0
       128    585.0942    660.7036 300.1384546 +22.7281403      1528.13     72.83684      1.488     2.69     4.050568     20.49734     162.3808        17     1.003     0.931  38.88   0
       129    978.5508    659.0004 300.2615856 +22.8455665     347.9596     72.65202      1.730     3.79     3.947881     20.49734     47.19102         6     1.086     0.428 -15.06   0
       130    248.1075    656.9377 300.0348610 +22.6259936     566.1748     72.76296      1.442     3.47     4.061902     20.49734     100.9073        12     1.112     0.803 -57.98   0
       131    262.4452    655.2496 300.0398660 +22.6298108     572.5436     72.68902      1.299     3.51      4.09061     20.49734     82.03642        12     0.984     0.891 -40.90   0
       132    319.3813    652.3860 300.0584963 +22.6460693     387.5883     72.59648      1.293     3.64     4.083842     20.49734     60.05982         6     0.910     0.608 -65.30   0
       133    288.2596    652.1716 300.0488906 +22.6366720     405.3852     72.65202      1.379     4.03     4.147622     20.49734      53.0598        11     1.000     0.856  87.61   0
       134    509.6546    650.6772 300.1182343 +22.7026434     1776.232     72.68902      1.475     2.74     3.994066     20.49734      220.249        19     1.058     0.998 -84.44   0
       135    609.0466    650.7975 300.1491297 +22.7324777     406.2914     72.67052      1.331     2.61     4.095816     20.49734     66.06203         7     0.717     0.664 -56.55   0
       136    163.7405    645.3849 300.0123972 +22.5973675     19545.55       72.615      1.617     3.09     3.935382     20.49734     1981.272        64     1.382     1.365  64.16   0
       137    594.7046    646.0897 300.1461949 +22.7268267     956.7375     72.83684      1.402     2.55     4.089891     20.49734     124.4261        14     1.016     0.853 -22.55   0
       138     84.7363    646.9388 299.9873502 +22.5741058     855.3369     72.68902      1.662     3.51     4.086681     20.49734     76.35043        14     1.001     0.959  22.01   0
       139    629.8682    645.0591 300.1574766 +22.7370724     496.6019     72.67052      1.692     4.27      4.05982     20.49734     48.98753         8     0.875     0.651  46.79   0
       140    512.5502    643.1304 300.1215875 +22.7013458     285.0767     72.65202      1.447     3.46     3.996633     20.49734     33.62674         5     0.809     0.428 -68.32   0
       141    347.9915    637.6654 300.0721752 +22.6504279     248.9644     72.63351      1.230     2.45     3.988542     20.49734     46.06362         5     0.772     0.475  58.65   0
       142   1012.6268    632.0818 300.2809591 +22.8480403     989.2713     72.63351      1.591     3.83     3.968769     20.49734     88.14424        17     1.117     1.045 -72.46   0
       143    678.1558    633.2713 300.1763420 +22.7481628     177.2303       72.615      1.228     3.37      4.02088     20.49734     35.24014         5     0.942     0.349 -43.35   0
       144    176.2442    630.1669 300.0212267 +22.5967549     438.2151     72.68902      1.892     4.23     3.884734     20.49734     40.44678         7     1.281     0.398  65.74   0
       145    109.8579    629.5662 300.0007975 +22.5766631     1435.234     72.67052      1.806     4.84     4.001771     20.49734     111.4356        23     1.423     1.032  83.52   0
       146    879.4152    630.2063 300.2400378 +22.8075950     528.8291     72.55943      1.479     4.38     3.994653     20.49734     62.15034         7     1.010     0.540  47.52   0
       147    558.2104    626.4437 300.1412192 +22.7102465     457.3933     72.65202      1.356     2.74     4.074041     20.49734     65.58848         9     0.847     0.711 -12.43   0
       148    952.9575    624.8481 300.2647038 +22.8280882     763.7621     72.67052      1.575     4.01     3.967293     20.49734     68.33696        11     1.021     0.733  69.04   0
       149    350.7794    625.4574 300.0770086 +22.6477615     251.3768     72.65202      1.243     2.08     3.954813     20.49734     47.35928         5     0.674     0.467 -20.81   0
       150    417.7050    624.5790 300.0981079 +22.6675811     107.1228     72.55943      1.257     4.13     3.937942     20.49734     25.42421         7     1.029     0.473  -8.87   0
       151    514.8489    618.8057 300.1302063 +22.6950537     749.3875     72.63351      1.238     2.42     4.000864     20.49734     117.1793        11     0.870     0.754  39.54   0
       152    662.8835    617.0511 300.1768566 +22.7389282      435.462     72.67052      1.313     3.56     4.106856     20.49734     67.34955         9     0.953     0.661  83.76   0
       153    710.4645    615.9731 300.1920242 +22.7528797     437.1233     72.63351      1.390     2.80     4.079383     20.49734      58.9149         8     0.911     0.635 -11.09   0
       154    680.6420    615.3301 300.1829457 +22.7437568      554.151       72.615      1.215     2.52     4.099874     20.49734     64.09755         8     0.847     0.598 -67.28   0
       155    559.1162    614.4539 300.1453966 +22.7070765     986.8528     72.68902      1.518     2.99     4.092827     20.49734     106.8064        16     1.021     0.953  51.71   0
       156    992.9384    610.1089 300.2819591 +22.8358298      3331.57     72.74448      1.534     3.05     3.982008     20.49734      308.321        32     1.260     1.186  30.81   0
       157    524.5297    609.9450 300.1360976 +22.6954130     1744.175     72.67052      1.355     2.48     4.025861     20.49734     233.1437        20     1.046     0.984  85.74   0
       158     86.5087    603.5626 300.0019928 +22.5621999     5293.927       72.615      1.732     3.22      4.05132     20.49734     540.5972        41     1.380     1.313  42.72   0
       159    500.3978    605.2506 300.1301135 +22.6868303     324.2114     72.65202      1.239     3.14     3.952838     20.49734     37.33858         5     0.713     0.473  76.45   0
       160    553.5947    600.1964 300.1483102 +22.7013286      341.912     72.46673      1.442     3.94     4.066812     20.49734     56.94757         6     1.005     0.443 -76.40   0
       161    388.0038    596.7191 300.0979212 +22.6506796     8997.524     72.55943      1.394     2.67     3.879795     20.49734     1130.296        36     1.161     1.126 -82.62   0
       162    149.5625    595.8801 300.0240754 +22.5789161     331.9666       72.615      1.896     3.71     3.801499     20.49734     32.12336         6     1.312     0.301 -72.02   0
       163    510.4433    593.8126 300.1369552 +22.6865592      8898.28     72.63351      1.362     2.40     3.944264     20.49734     1217.948        40     1.175     1.102  85.75   0
       164    756.9249    589.9208 300.2149598 +22.7593219     267.1438     72.76296      1.339     4.00     4.007514     20.49734     33.50796         6     0.969     0.472 -34.50   0
       165    154.4782    589.5789 300.0276495 +22.5785837     316.2203     72.65202      1.326     3.18     3.769058     20.49734     52.97126         5     0.916     0.599 -59.72   0
       166    922.0390    587.8398 300.2670891 +22.8081942     1845.902       72.726      1.545     2.82     3.949015     20.49734     215.0645        24     1.251     1.023 -48.76   0
       167   1006.8528    585.1849 300.2943959 +22.8328359      12675.8     72.65202      1.562     2.98     3.991066     20.49734     1239.812        52     1.369     1.279 -62.65   0
       168    571.0656    583.4015 300.1592041 +22.7017448     11526.15     72.63351      1.339     2.37        4.072     20.49734     1462.996        44     1.194     1.114  71.76   0
       169    740.6749    579.3178 300.2133425 +22.7514074     588.9554     72.76296      1.442     3.56     4.011327     20.49734     64.94482        13     1.115     0.833 -83.43   0
       170    298.2923    578.7596 300.0758598 +22.6186211     1268.677     72.65202      1.395     2.56     3.822742     20.49734     195.7472        19     1.144     0.972  63.04   0
       171    456.3648    578.2358 300.1251896 +22.6658743     316.1132       72.726      1.056     3.40     3.822265     20.49734     37.91801         5     0.764     0.437  71.22   0
       172    545.4550    576.6506 300.1534260 +22.6921294     475.6811     72.68902      1.321     3.09      3.97423     20.49734     51.39441         9     0.947     0.651  -9.52   0
       173      1.1696    575.8713 299.9844866 +22.5286506      564.549     55.53531      0.875     2.25     4.310438     20.49734     192.0646         7     0.837     0.375  89.89  24
       174    502.7036    571.5356 300.1417836 +22.6778445     4373.461     72.76296      1.331     2.32     3.862122     20.49734     602.1487        32     1.130     1.071 -70.36   0
       175    845.5920    571.4834 300.2485755 +22.7805936     691.1798     72.57796      1.292     3.10     3.942032     20.49734     97.26476        13     1.018     0.816 -87.52   0
       176    481.1235    570.0248 300.1355597 +22.6709410     1302.537     72.67052      1.460     2.67     3.805964     20.49734     163.5495        20     1.097     1.031 -17.97   0
       177    235.0661    569.2810 300.0592851 +22.5969373     700.5793     72.76296      1.470     3.01     3.695639     20.49734     85.61047        13     1.024     0.828  47.40   0
       178    922.4446    567.1085 300.2739504 +22.8023597     1554.922     72.63351      1.526     3.10     3.924733     20.49734     169.7819        19     1.131     0.977 -66.43   0
       179    443.1122    565.6625 300.1251510 +22.6582921     354.3251     72.74448      1.350     2.81      3.78049     20.49734     58.41156         6     0.853     0.507 -38.67   0
       180    619.3519    559.1226 300.1821219 +22.7092482     199394.8     72.65202      1.344     2.39     4.168306     20.49734     23274.82       212     1.471     1.426 -55.98   0
       181    803.0635    563.9298 300.2377773 +22.7656821     790.2925     72.68902      1.270     2.66     3.934181     20.49734     127.6204        11     0.892     0.788 -85.96   0
       182    305.3713    559.1099 300.0844431 +22.6151065     3536.352     72.63351      1.432     2.58     3.720996     20.49734      425.304        32     1.177     1.121  23.15   0
       183    871.2348    555.3088 300.2618213 +22.7836294     414.7347     72.63351      1.422     3.03     3.929187     20.49734     61.61985        11     0.929     0.822  35.54   0
       184    650.5692    545.3270 300.1963224 +22.7146432      183.885     72.65202      1.384     3.35     4.095816     20.49734      35.2692         5     1.089     0.299  67.84   0
       185    509.9209    539.7279 300.1543610 +22.6708778     2921.269     72.76296      1.459     2.58     3.796703     20.49734     325.9268        31     1.543     1.028 -83.98   0
       186    354.0570    541.7791 300.1052100 +22.6247341     371.8267     72.65202      1.176     2.82     3.734557     20.49734     57.96885         7     0.730     0.664  -7.94   0
       187    959.1782    539.7259 300.2942974 +22.8054947     367.2665     72.65202      1.457     3.19     3.918906     20.49734     42.84814         6     0.860     0.480 -35.91   0
       188    921.5817    535.5988 300.2839168 +22.7930480     295.6036     72.57796      1.193     5.31      3.89211     20.49734     44.07718         8     1.016     0.783 -74.16   0
       189    827.4313    528.0636 300.2570201 +22.7626800     351.4405     72.67052      1.349     3.78     3.929138     20.49734     55.46112        10     1.007     0.736 -29.70   0
       190    906.9299    525.6455 300.2825823 +22.7857996     1633.504     72.63351      1.416     2.79     3.894507     20.49734     219.0386        21     1.087     0.993 -44.15   0
       191    778.0840    523.2462 300.2432093 +22.7465121     2564.301     72.63351      1.351     2.44     3.939662     20.49734     319.2972        26     1.126     1.048 -55.36   0
       192     37.0675    524.2916 300.0123850 +22.5246323     815.8246     72.78144      1.616     3.37     3.992768     20.49734     82.70695        14     1.014     0.966 -16.05   0
       193   1021.1351    516.4942 300.3211632 +22.8173734     893.9112     68.77339      2.290     3.67     3.755852     20.49734     82.27734        15     1.209     0.852  78.89  26
       194    987.7393    520.3792 300.3094869 +22.8084890     353.0398     72.59648      1.586     3.44     3.821605     20.49734     36.85061         5     0.729     0.469 -12.67   0
       195    683.0729    519.6235 300.2147920 +22.7170029     550.6602     72.68902      1.666     5.32     3.974217     20.49734     58.16153         9     1.266     0.653 -55.79   0
       196    565.0936    519.1669 300.1782094 +22.6815134     650.3732     72.59648      1.370     3.79     3.881733     20.49734      84.1252        12     1.137     0.713  58.44   0
       197    907.1704    515.5957 300.2859213 +22.7829841     2233.287       72.615      1.713     3.91     3.888625     20.49734     213.8042        31     1.673     1.021  74.05   0
       198    660.5821    513.9330 300.2096365 +22.7086289     536.3161     72.63351      1.273     2.38     3.976639     20.49734     76.50244         8     0.757     0.679   6.04   1
       199    945.3724    510.8849 300.2993605 +22.7930723     4142.743     72.65202      1.394     2.50     3.838773     20.49734     493.5222        32     1.171     1.095 -62.55   0
       200    499.0492    512.6039 300.1597872 +22.6598323     314.3812     72.63351      1.250     2.78     3.798152     20.49734     55.98777         6     0.797     0.488   3.00   0
       201    660.3088    510.0850 300.2108011 +22.7074419     539.0836     72.81837      1.746     3.90      3.96505     20.49734      58.7875         8     0.938     0.820  34.99   1
       202    605.8956    506.6902 300.1949622 +22.6901601     407.8887     72.83684      1.409     3.67     3.989582     20.49734     43.29877         9     0.845     0.776  88.45   0
       203    177.2386    501.1375 300.0634452 +22.5600427     972.2367     72.65202      1.385     2.84     3.518054     20.49734     130.0767        16     1.037     0.951 -87.66   0
       204    225.0267    492.4534 300.0811157 +22.5718847     192.0603     72.67052      1.425     4.22     3.454409     20.49734     29.37134         5     0.765     0.663  84.22   0
       205    170.6349    491.4016 300.0645547 +22.5552688     289.9606       72.615      1.032     3.18     3.503356     20.49734     53.95008         5     0.724     0.460 -17.54   0
       206    777.8441    485.3790 300.2554323 +22.7355627     501.1726     72.70751      1.317     3.29     3.945553     20.49734      69.6091         8     0.834     0.698 -44.58   0
       207    386.2922    483.7368 300.1340839 +22.6177420     298.3325     72.76296      1.322     3.47     3.722988     20.49734     47.97842         5     0.908     0.582 -29.28   0
       208    666.6710    482.9892 300.2215814 +22.7015668     422.9977     72.65202      1.371     3.59       3.8788     20.49734     48.44539         9     0.959     0.683  39.57   0
       209    718.7798    481.2397 300.2383777 +22.7166779     760.9014     72.68902      1.242     2.51     3.909332     20.49734     111.5619        11     0.884     0.785 -73.16   0
       210    697.4918    479.2624 300.2323896 +22.7097316     315.5741     72.74448      1.014     2.22     3.887927     20.49734     49.76121         5     0.686     0.492  79.19   0
       211    779.6765    473.4573 300.2598744 +22.7326868     951.6846     72.68902      1.424     2.69     3.937983     20.49734     106.5538        14     0.946     0.881   5.44   0
       212    936.8416    469.7453 300.3100609 +22.7786954     920.4038     72.63351      1.388     2.78     3.793121     20.49734     117.7184        14     1.021     0.878  73.95   0
       213    895.6628    467.0602 300.2980960 +22.7655912     243.4155     72.68902      1.551     4.44      3.85729     20.49734     38.60596         6     0.863     0.650 -55.69   0
       214    921.0115    466.1579 300.3062908 +22.7729236     598.9905     72.65202      1.300     2.46     3.830173     20.49734     84.58046         9     0.777     0.728  24.81   0
       215    665.3945    464.0762 300.2273252 +22.6957524     3263.262     72.55943      1.284     2.24     3.826638     20.49734     429.7454        24     1.020     0.986 -80.84   0
       216    141.9029    455.5964 300.0672529 +22.5363787     195.6357     72.55943      1.281     3.74     3.706064     20.49734      46.3842         6     0.823     0.489  -2.99   0
       217    670.6004    451.9857 300.2328719 +22.6938397     399.3149     72.50382      1.457     4.25     3.793976     20.49734     42.61732         9     0.932     0.778  45.20   0
       218    504.9542    451.1205 300.1815891 +22.6439506     347.1626     72.65202      1.310     2.55     3.863323     20.49734     57.56563         7     0.790     0.663 -67.96   0
       219    437.1099    451.5092 300.1603546 +22.6237259     274.7582     72.81837      1.444     3.95     3.885867     20.49734     44.32798         5     0.876     0.541 -46.29   0
       220    948.5740    442.8391 300.3224552 +22.7744762     472.6939     72.67052      1.286     3.46     3.722066     20.49734     69.06177        10     1.093     0.646  54.83   0
       221    684.6786    440.1603 300.2410954 +22.6946612     166.3836     72.63351      1.243     3.36      3.78565     20.49734     37.96372         5     0.771     0.425 -72.48   0
       222    776.0001    438.0638 300.2702211 +22.7214174     1155.419     72.63351      1.365     2.60     3.896603     20.49734     159.5558        15     0.993     0.847  16.73   0
       223    571.4792    438.7130 300.2063214 +22.6603257     539.1378     72.79991      1.358     2.81     3.721389     20.49734     68.79684         8     0.872     0.601   4.22   0
       224    279.7822    436.0475 300.1164490 +22.5721193      764.996     72.68902      1.561     3.21     3.582735     20.49734     84.03927        11     0.995     0.797  75.09   0
       225    119.4134    434.1793 300.0672190 +22.5234888     216.1109       72.615      1.310     4.64     3.829308     20.49734     31.16798         6     1.040     0.587  30.28   0
       226    342.3208    431.8621 300.1372518 +22.5896692     3756.242     72.74448      1.362     2.39     3.725722     20.49734     500.1392        28     1.240     1.005  69.61   0
       227    289.5391    426.6159 300.1225440 +22.5723381     7542.099       72.615      1.419     2.41      3.61693     20.49734     1053.942        37     1.205     1.121  79.80   0
       228    430.3107    420.9136 300.1681723 +22.6129043     4831.014     72.81837      1.319     2.33     4.025832     20.49734     669.3167        28     1.079     1.005  82.43   0
       229    674.5262    417.5985 300.2452585 +22.6851387        18446      72.5409      1.283     2.27     3.706795     20.49734     2667.022        52     1.217     1.100  72.27   0
       230    692.2413    417.5779 300.2507821 +22.6904402     887.9169     72.68902      1.978     6.81     3.752566     20.49734     73.38884        17     1.551     0.837 -38.73   0
       231    522.3514    419.1161 300.1973932 +22.6399752     275.7262     72.63351      1.829     4.05     3.827053     20.49734     33.76078         6     0.946     0.548  25.87   0
       232    301.5206    415.7921 300.1297826 +22.5728241     218.0912     72.59648      0.985     1.98     3.677512     20.49734     51.80778         5     0.671     0.464  67.56   0
       233    871.3882    407.9994 300.3097054 +22.7413492     464.3114     72.46673      1.330     3.65     3.772899     20.49734     55.98566         9     0.985     0.664  -2.79   0
       234    294.1678    404.5744 300.1311379 +22.5673999     313.8671     72.65202      1.108     3.57     3.737183     20.49734     53.97415         6     0.799     0.494   1.66   0
       235   1008.1304    400.3739 300.3548126 +22.7801027     747.9216     72.65202      1.316     3.02     3.562996     20.49734     98.97427        13     1.063     0.807 -48.63   0
       236    545.2590    399.2480 300.2109720 +22.6411348     342.0771     72.70751      1.299     2.74     3.883277     20.49734     54.02518         6     0.726     0.603 -35.96   0
       237    229.3778    397.6591 300.1132427 +22.5459884     2082.152     72.65202      1.362     2.42     3.788269     20.49734     277.2185        20     1.070     0.962  85.97   0
       238    615.1878    387.0353 300.2367037 +22.6585812     6574.169     72.63351      1.330     2.26     3.816668     20.49734      938.244        36     1.199     1.042  77.57   0
       239    330.0289    386.4993 300.1481546 +22.5729631     815.8986     72.57796      1.491     3.03     3.895553     20.49734     77.37055        11     0.898     0.813  72.87   0
       240    187.3980    379.7679 300.1060033 +22.5282659     520.5756       72.615      1.528     3.55     3.993962     20.49734     62.56131         9     0.932     0.752 -50.29   0
       241    875.3165    379.1246 300.3203029 +22.7342273      383.176     72.74448      1.383     3.54     3.792025     20.49734     46.96204         6     0.923     0.584 -22.08   0
       242     34.8309    377.0093 300.0595045 +22.4817172     1308.263     72.65202      1.608     4.40     4.411877     20.49734     133.0165        21     1.313     1.161  47.48   0
       243    819.4120    376.0867 300.3038666 +22.7166124     1371.433     72.59648      1.625     2.99     3.997947     20.49734     119.2113        20     1.125     1.039 -66.57   0
       244    728.9374    377.1023 300.2753501 +22.6898053     488.4479     72.74448      1.182     2.73     3.876763     20.49734     75.03152         9     0.884     0.679  69.98   0
       245      4.0370    374.8651 300.0506382 +22.4718649     1230.294      69.2992      1.891     4.93     4.518317     20.49734      105.405        23     1.509     1.084 -69.05  16
       246    521.8079    373.3206 300.2120892 +22.6266614     6197.145     72.59648      1.289     2.25     4.204368     20.49734     827.5039        33     1.122     1.034  88.97   0
       247    913.8010    367.6325 300.3360289 +22.7424482     1513.268       72.615      1.509     2.51     3.799279     20.49734     210.1687        21     1.136     0.963  83.50   0
       248   1011.2324    368.1528 300.3662392 +22.7717685     534.4655     72.68902      1.330     2.74     3.657163     20.49734     74.88938        11     0.965     0.710  10.27   0
       249    506.1987    361.8132 300.2109666 +22.6186791      453.757     72.48528      1.562     2.71     4.318921     20.49734     66.37814         9     0.903     0.701  75.69   0
       250     12.4702    362.5404 300.0572565 +22.4708591     351.7674     72.68902      1.512     3.29      4.47163     20.49734     51.05141         6     1.040     0.472 -10.02   0
       251    589.0921    360.2563 300.2372715 +22.6430707     453.3152     72.70751      1.537     3.40     4.040996     20.49734     54.35057         8     0.911     0.700 -88.83   0
       252     33.4644    358.5910 300.0650574 +22.4760235     1054.884     72.63351      1.521     2.94     4.433514     20.49734     144.3539        15     1.023     0.964 -57.50   0
       253    886.5338    355.2261 300.3315561 +22.7307177     596.1068     72.63351      1.188     2.85     3.807853     20.49734      79.3196        10     0.921     0.748 -49.02   0
       254    409.3626    352.4349 300.1838829 +22.5869646     2436.387       72.726      1.326     2.37     4.363772     20.49734     308.7883        21     1.020     0.995 -83.66   0
       255    127.8471    349.8507 300.0972094 +22.5018228     1068.083     72.68902      1.414     2.80     4.329443     20.49734     125.3054        14     1.049     0.887 -58.44   0
       256    757.0800    346.9398 300.2939062 +22.6895684     400.0907     72.70751      1.504     5.08     3.977237     20.49734     35.76844         8     1.200     0.609  22.52   0
       257    378.6866    341.9265 300.1777519 +22.5747530     29234.38     72.79991      1.359     2.35     4.265245     20.49734     4161.133        72     1.306     1.191  70.27   0
       258    913.3840    339.4388 300.3450495 +22.7342194     1383.236     72.67052      1.313     2.30     3.866923     20.49734     200.0735        20     1.118     1.021  49.56   0
       259    869.2643    337.2117 300.3320199 +22.7203688     378.2353     72.59648      1.437     4.11     3.814672     20.49734     38.41038         9     0.910     0.733   2.17   0
       260     74.9827    329.7274 300.0873179 +22.4801949     5003.846     72.65202      1.535     2.87      4.51352     20.49734     540.5547        39     1.386     1.185  49.19   0
       261    952.1810    329.6000 300.3603379 +22.7430067     286.0044     72.55943      1.730     4.43     3.916981     20.49734      28.9844         5     1.187     0.471  -7.10   0
       262    828.9092    328.4696 300.3222804 +22.7057721     526.2786     72.79991      1.491     3.31     3.958846     20.49734     65.47075         7     0.888     0.634  19.32   0
       263    252.9356    328.2375 300.1430948 +22.5331271     430.2312     72.63351      1.439     3.52     4.250355     20.49734     56.10981         7     0.889     0.663 -13.74   0
       264    477.0644    327.2115 300.2131302 +22.6000115     480.8259     72.59648      1.311     3.44     4.431889     20.49734     60.53079         8     0.845     0.645  37.54   0
       265    789.2373    321.6790 300.3121225 +22.6919402     1851.139       72.615      1.359     2.39     4.018031     20.49734     285.6525        18     1.079     0.862 -64.70   0
       266    597.5532    316.4280 300.2541287 +22.6330161     390.5566     72.68902      1.428     3.81     4.136734     20.49734     52.02364         9     0.979     0.760  48.76   0
       267   1004.1518    314.4791 300.3814507 +22.7542174       627.61     72.65202      1.314     3.41     3.986508     20.49734     90.99188        11     1.051     0.728  88.24   0
       268    450.9084    306.3748 300.2117536 +22.5861895     2225.729     72.59648      1.548     3.10      4.51318     20.49734     255.3955        22     1.226     0.940  51.26   0
       269    663.4581    305.2377 300.2782796 +22.6495440     301.2599     72.65202      1.210     3.38     3.967291     20.49734     51.18485         5     0.768     0.430  66.66   0
       270    889.9789    299.1263 300.3508355 +22.7156239     652.6407     72.65202      1.359     3.02     3.925191     20.49734     78.35575        13     1.051     0.784  67.65   0
       271     22.4304    297.4598 300.0814666 +22.4551756     971.6744     72.68902      2.509     9.12     4.935264     20.49734     68.72519        23     2.149     1.193 -27.76   0
       272    789.1315    296.6760 300.3202028 +22.6847230       415.39     72.74448      1.346     3.69      3.92265     20.49734     61.78784         6     1.000     0.586  57.71   0
       273    772.2191    297.0981 300.3147967 +22.6797796     412.7943     72.57796      1.213     2.54     3.912672     20.49734     64.22127         8     0.768     0.682 -40.30   0
       274    526.7000    285.4814 300.2421161 +22.6028990     1164.053     72.78144      1.332     2.59     4.467644     20.49734     171.3003        16     1.175     0.864  76.83   0
       275    334.1977    285.8125 300.1821244 +22.5453071      350.325     72.48528      1.764     3.35     4.428862     20.49734      44.2463         7     0.970     0.563 -70.29   0
       276    909.7482    278.7409 300.3636125 +22.7156823     309.1753     72.70751      1.197     3.08     4.107328     20.49734     54.13464         7     1.020     0.445  61.34   0
       277    771.6855    277.5600 300.3209699 +22.6740047     2231.786     72.63351      1.326     2.28     3.974967     20.49734     323.0336        26     1.113     1.067 -69.93   0
       278      4.7552    262.8941 300.0871916 +22.4399571     72572.74     71.43904      1.659     3.04      5.10762     20.49734     7547.888       106     1.585     1.425  55.47  24
       279    480.0107    261.6339 300.2353240 +22.5820603     596.7093     72.63351      1.225     2.33     4.441359     20.49734     94.00475        10     0.816     0.739  -0.92   0
       280    185.6796    255.4469 300.1458080 +22.4920699     648.7763     72.67052      1.312     2.86     4.585415     20.49734     89.22079        11     0.986     0.733  67.49   0
       281    154.7034    255.4387 300.1361853 +22.4827808     1262.826     72.63351      1.599     3.53      4.63092     20.49734     145.7402        21     1.189     1.117 -66.46   0
       282    238.9326    247.8755 300.1648145 +22.5058604     394.2816       72.726      1.198     2.48     4.556922     20.49734     66.03691         9     0.771     0.738 -88.36   0
       283    914.7166    241.5199 300.3772370 +22.7064687     255.9263     72.79991      1.296     2.80     4.302035     20.49734     57.14893         5     0.861     0.500   0.01   0
       284    843.2502    238.8304 300.3558339 +22.6843007     646.4643     72.68902      1.290     2.64     4.260211     20.49734     98.91931        10     0.865     0.757  57.99   0
       285    433.6075    238.1063 300.2285193 +22.5613989     421.3813      72.5409      1.342     4.14     4.439558     20.49734     69.77465         6     1.004     0.488  88.80   0
       286    979.3026    232.4375 300.4003202 +22.7231893     301.6347     72.65202      1.296     3.45     4.368351     20.49734     36.44315         5     0.722     0.477  14.44   0
       287    941.5797    228.0185 300.3899916 +22.7106278     2211.265     72.65202      1.450     2.62     4.373749     20.49734     247.6826        24     1.195     1.019 -89.07   0
       288    359.9478    225.3747 300.2097378 +22.5356700      2154.75     72.67052      1.360     2.42     4.475455     20.49734     277.4755        22     1.117     0.955  79.21   0
       289    437.7961    220.4669 300.2355439 +22.5575875     1024.741     72.63351      1.380     2.74     4.393679     20.49734     122.5855        16     1.011     0.967 -79.14   0
       290    189.9384    220.6128 300.1584303 +22.4833473      420.334       72.615      1.997     5.07     4.612462     20.49734     43.71453         7     1.155     0.735 -31.80   0
       291    839.9483    219.9210 300.3609388 +22.6778762      566.181     72.65202      1.366     1.98      4.37816     20.49734     89.14285         7     0.775     0.532  43.32   0
       292    254.6870    212.4675 300.1811964 +22.5004171     739.7178     72.76296      1.368     3.13     4.653797     20.49734     110.2702        15     1.119     0.834  61.50   0
       293    792.4877    209.4797 300.3495365 +22.6606654     1792.011     72.79991      1.242     2.23     4.376439     20.49734     240.9971        21     1.162     0.885  74.36   0
       294    857.2652    209.0030 300.3698771 +22.6799216     598.5732     72.67052      1.356     2.52     4.379948     20.49734     80.03355         9     0.890     0.631 -67.11   0
       295    276.0526    205.7582 300.1900142 +22.5048943      652.665     72.65202      1.416     3.77     4.722657     20.49734      71.1876        11     1.049     0.736 -72.65   0
       296    796.5286    201.2613 300.3534612 +22.6595128     797.2535     72.68902      1.255     2.36     4.375371     20.49734     101.0924        11     0.886     0.740  32.57   0
       297    566.0515    202.0887 300.2814159 +22.5907307     244.9558     72.67052      1.004     2.36      4.36723     20.49734     50.92544         5     0.613     0.577 -83.86   0
       298    716.9854    200.1230 300.3290503 +22.6353688     1235.815     72.67052      1.293     2.34     4.395974     20.49734     175.9748        17     1.027     0.865  60.34   0
       299    538.7518    196.5656 300.2747101 +22.5809664     384.4393     72.68902      1.300     2.70     4.362752     20.49734     54.90196         5     0.743     0.438 -22.72   0
       300    643.3430    192.0167 300.3087453 +22.6109860     889.7424       72.615      1.250     2.49     4.355604     20.49734     123.9718        12     0.919     0.765  53.55   0
       301    912.6049    191.7497 300.3927228 +22.6915263     1531.681     72.63351      1.418     2.42     4.380833     20.49734      197.099        15     0.959     0.885 -86.30   0
       302    924.7651    190.7024 300.3968533 +22.6948649     881.1932     72.65202      1.401     3.54     4.380833     20.49734     116.4577        15     1.128     0.879  -0.72   0
       303     15.0656    179.7829 300.1173486 +22.4191997     390.5036     72.63351      1.714     5.58     5.121512     20.49734     34.88277         7     1.235     0.710  -5.28   0
       304     64.9208    177.8987 300.1334427 +22.4336071     361.4791     72.78144      1.411     3.52     5.097251     20.49734     57.32732        11     0.969     0.817 -50.15   0
       305    275.2439    174.1937 300.1999993 +22.4955884      821.343     72.67052      1.336     3.05     4.870653     20.49734     92.57624        13     1.086     0.757 -63.81   0
       306    157.4613    173.3888 300.1636535 +22.4600550       210.46     72.59648      1.349     4.23     4.534306     20.49734     34.15135         5     1.052     0.485   2.78   0
       307    137.2065    168.9632 300.1587953 +22.4527129     2240.069     72.65202      1.487     2.75     4.718773     20.49734     261.0308        23     1.153     1.031 -60.05   0
       308    960.6497    166.0785 300.4160276 +22.6985237     689.5842     72.65202      1.279     2.99     4.389128     20.49734     97.26117        12     1.017     0.724 -15.18   0
       309     86.9939    165.9883 300.1441610 +22.4368060     488.4726     72.52236      1.395     3.46     5.117763     20.49734     60.08377         9     0.873     0.785   8.59   0
       310    294.6134    162.2080 300.2099078 +22.4979513     5624.453      72.5409      1.382     2.41     5.006284     20.49734     696.6851        35     1.198     1.097  77.02   0
       311    276.3406    163.5558 300.2037899 +22.4928624     302.0086     72.67052      1.305     3.53     4.923168     20.49734     43.52924         5     0.764     0.471 -15.30   0
       312     78.9176    156.5200 300.1447224 +22.4316671     1271.241     72.78144      1.496     2.66      5.13382     20.49734     160.3009        19     1.132     0.968 -45.39   0
       313    277.9920    152.9402 300.2077455 +22.4903089     612.8558       72.615      1.331     2.88     4.893331     20.49734      77.6701        11     0.946     0.756 -10.25   0
       314    938.7604    143.8729 300.4164037 +22.6855867     3480.273     72.63351      1.418     2.40     4.395571     20.49734     446.6007        30     1.237     1.075 -70.12   0
       315    487.9955    139.0824 300.2775557 +22.5492473     540.0659     72.57796      1.305     2.26     4.264534     20.49734      88.6392         9     0.758     0.721 -22.56   0
       316    412.3341    130.6344 300.2567552 +22.5241550     743.2456     72.65202      1.952     3.59     4.368376     20.49734     79.07729        13     1.045     0.971  24.77   2
       317    178.1585    128.0615 300.1847820 +22.4532453     752.4742     72.63351      1.643     3.44     4.530634     20.49734     83.31747        12     0.962     0.878  26.27   0
       318    468.0478    127.0974 300.2752348 +22.5398287     486.7733     72.68902      1.375     2.80     4.276961     20.49734     67.69673        10     0.919     0.712  62.52   0
       319    539.5959    126.1802 300.2977973 +22.5609956     1743.518       72.615      1.307     2.48     4.266809     20.49734     201.4131        19     1.109     0.841 -84.86   0
       320    601.3041    125.2861 300.3172958 +22.5792193     491.7671     72.83684      1.350     3.29     4.361728     20.49734     62.08778         8     0.883     0.719  22.93   0
       321    282.9248    121.8595 300.2193564 +22.4828613     419.1305     72.70751      1.294     3.89      4.65478     20.49734      60.9915         8     0.934     0.807  32.18   0
       322    756.0907    120.2352 300.3671384 +22.6241132     294.6989       72.615      1.298     3.59      4.59849     20.49734     39.66734         5     0.893     0.639  23.64   0
       323    828.1956    115.8456 300.3910281 +22.6444354     330.6507     72.63351      1.174     2.58     4.469872     20.49734     69.78779         9     0.938     0.691  44.13   0
       324    973.9589    110.2713 300.4382740 +22.6864557     341.1141     72.63351      1.330     3.28     4.556468     20.49734     45.71433         6     0.880     0.485 -38.52   0
       325    313.5375    106.0308 300.2340060 +22.4874880     5976.401     72.67052      1.440     2.53     4.469442     20.49734     747.8127        36     1.242     1.103  58.49   0
       326    819.9364    106.9105 300.3913513 +22.6393941      274.136     72.74448      1.213     2.64     4.491498     20.49734     44.23483         5     0.609     0.597 -65.35   0
       327    164.6835    105.5151 300.1879043 +22.4427330     681.3416     72.78144      1.536     2.85      4.40836     20.49734     81.18044        13     0.999     0.821  58.04   0
       328    942.7897    103.5505 300.4307343 +22.6751957     298.7879     72.67052      1.307     3.23     4.441477     20.49734     55.87548         6     0.945     0.491   5.61   0
       329      8.2935    102.5672 300.1402808 +22.3950078     735.1057     72.59648      1.570     3.77     5.108231     20.49734      90.0753        12     1.145     0.862 -42.39   0
       330    285.2947    100.2814 300.2270888 +22.4773742     436.3062     72.81837      1.515     2.86       4.4518     20.49734     63.90775         5     0.737     0.445   6.51   0
       331    329.0990     97.3470 300.2416600 +22.4896562     399.6999     72.74448      1.364     2.85     4.380616     20.49734     49.59589         9     0.855     0.696 -73.74   0
       332     75.0103     96.6813 300.1629089 +22.4133186     452.4675       72.615      1.430     3.80     5.173033     20.49734     43.70981         8     0.896     0.744 -77.33   0
       333    559.6562     91.4301 300.3153075 +22.5570173     6384.461     72.67052      1.357     2.33     4.391743     20.49734     851.6927        35     1.189     1.057  82.77   0
       334    445.3834     91.2719 300.2797980 +22.5227468     726.4803     72.65202      1.453     3.17     4.282262     20.49734     80.68427        13     1.037     0.869 -38.69   0
       335    579.7991     86.0017 300.3233373 +22.5614893     234.3239     72.42961      1.253     4.22     4.510792     20.49734     40.96462         5     0.884     0.573  -0.18   0
       336    811.9278     81.5247 300.3970858 +22.6296974     1036.197     72.70751      1.935     7.19     4.589368     20.49734     81.85152        16     1.707     0.851 -77.35   0
       337    312.9545     85.5584 300.2404615 +22.4814330     196.8692     72.70751      1.346     3.93     4.379346     20.49734     34.35988         5     0.900     0.491   5.65   0
       338    753.7439     82.4914 300.3786441 +22.6125593     261.8838     72.70751      1.296     3.24     4.769584     20.49734     50.03465         5     0.834     0.558  54.06   0
       339    904.5018     79.7546 300.4265123 +22.6568941     577.6644     72.67052      1.447     4.03     4.530156     20.49734     62.73745        10     1.094     0.717  73.39   0
       340    123.3587     77.7187 300.1840749 +22.4223663     256.7826       72.615      1.681     4.53     4.988987     20.49734     35.42307         5     0.971     0.599  40.34   0
       341    252.2806     75.1786 300.2249630 +22.4602722     473.0313       72.615      1.298     2.96     4.823532     20.49734     54.31195         8     0.787     0.697 -55.93   0
       342    611.0247     74.0375 300.3369369 +22.5674008     406.2778     72.67052      1.363     1.93      4.73348     20.49734     74.28735         7     0.798     0.506  47.96   0
       343    688.0238     71.5265 300.3617276 +22.5897328     6186.227     72.68902      1.358     2.28     4.818621     20.49734     983.6954        32     1.180     1.026 -89.98   0
       344    462.8794     70.4011 300.2920071 +22.5219906     1414.666      72.5409      1.386     2.50     4.294771     20.49734     199.1465        21     1.250     0.890  61.66   0
       345    729.3673     68.9198 300.3754499 +22.6013602     914.8304     72.65202      1.529     2.46     4.882935     20.49734     121.1992        14     0.931     0.865 -45.97   0
       346    799.4081     66.7684 300.3979682 +22.6217070      427.581     72.65202      1.623     4.56     4.672025     20.49734     47.82466         9     1.071     0.787 -77.56   0
       347    745.2061     65.0049 300.3816529 +22.6049759     575.7591     72.50382      1.314     2.81     4.878138     20.49734     87.24547         9     0.953     0.599 -38.23   0
       348   1015.0977     62.9643 300.4664401 +22.6851561     436.7567     72.65202      1.255     2.34     5.235548     20.49734     76.59422         8     0.802     0.674  64.27   0
       349    211.6128     62.9226 300.2162949 +22.4445663     673.1489     72.67052      1.547     4.81     5.112975     20.49734      67.1238        12     1.125     0.827  41.97   0
       350    783.7441     60.6301 300.3950774 +22.6152535     515.0476     72.67052      1.350     2.45      4.75478     20.49734     73.26116         9     0.796     0.727  70.84   0
       351    732.1991     56.4081 300.3803877 +22.5986107      2916.35     72.46673      1.398     2.35     4.948956     20.49734     394.5568        25     1.182     0.973  71.50   0
       352    373.0309     57.3959 300.2682727 +22.4913411     457.7604     72.63351      1.464     2.50     4.357452     20.49734     60.11897         8     0.805     0.669 -80.24   0
       353    747.2084     55.3468 300.3854074 +22.6027984     861.4638     72.65202      1.776     4.11     4.914972     20.49734     98.62961        17     1.404     0.854  67.98   0
       354     25.5652     50.7057 300.1624544 +22.3852985     810.4208     72.63351      1.625     4.28     5.000946     20.49734     88.05717        13     1.165     0.871  -7.92   0
       355    818.6087     48.0427 300.4100212 +22.6220688     1577.898     72.67052      1.371     2.58     4.753458     20.49734     189.4188        20     1.110     0.931 -77.95   0
       356    756.8489     40.9932 300.3930631 +22.6015569     750.9218     72.65202      1.462     3.73     4.941922     20.49734     90.02238        16     1.204     0.975 -30.22   0
       357    562.3240     40.5379 300.3326345 +22.5431897     994.0893     72.70751      1.310     2.48     5.077015     20.49734     141.9465        14     0.949     0.822  33.60   0
       358    135.3861     40.1535 300.1999873 +22.4151847     595.3478     72.67052      1.616     3.19      5.24532     20.49734      63.7864        10     0.981     0.808  40.01   0
       359    466.1492     38.4605 300.3033773 +22.5137918     765.7386     72.70751      1.294     2.76      4.32656     20.49734      121.494        13     1.046     0.748  71.67   0
       360    848.7784     37.7598 300.4227563 +22.6281406     348.1518     72.68902      1.346     2.92     4.801374     20.49734     52.44574         5     0.889     0.352 -43.21   0
       361    237.4644     28.5637 300.2354660 +22.4424445     3794.105     72.65202      1.513     2.62     5.091382     20.49734     469.5676        32     1.307     1.076  75.35   0
       362    805.6056     28.8621 300.4121861 +22.6126613     583.1715     72.63351      1.349     4.47     4.846138     20.49734     72.18578         8     1.227     0.463 -82.11   0
       363    660.1735     25.7255 300.3678999 +22.5682281      289.782     72.65202      1.253     4.47     5.316124     20.49734     48.06351         7     0.992     0.571  17.24   0
       364    563.4835     25.7260 300.3377961 +22.5392795     250.7159     72.74448      1.159     2.92     5.281872     20.49734      48.4272         7     0.906     0.493 -83.68   0
       365    798.6620     21.0065 300.4125686 +22.6083241     833.9718     72.63351      1.340     3.63     4.890857     20.49734     100.1577        13     1.265     0.661  66.99   0
       366    764.2087     20.7268 300.4019246 +22.5979321       329.94     72.63351      1.372     3.68     5.008045     20.49734     39.57679         5     0.874     0.446 -46.70   0
       367    353.4193     20.6480 300.2740834 +22.4749089     1195.451     72.68902      1.409     2.65     4.371841     20.49734     156.5494        16     1.009     0.931 -12.05   0
       368    613.2348   1016.1055 300.0316362 +22.8385526     2284.159     72.65202      1.858     4.12     3.192986     20.49734     156.8963        32     1.474     1.287  82.70  16
       369    760.1716     16.1506 300.4021500 +22.5954079     435.1784     72.67052      1.235     2.30     5.043928     20.49734     76.25024         8     0.807     0.637 -87.41   0
       370    699.7088   1011.6229 300.0600185 +22.8632080     8333.547     72.57796      1.921     4.32     2.958854     20.49734     462.3067        45     1.473     1.439  18.52   3
       371    705.4388   1009.4163 300.0625211 +22.8642937     9278.431     72.67052      1.914     4.33     2.945549     20.49734     562.7035        50     1.513     1.464  47.19   3
       372    800.1470   1012.3431 300.0910682 +22.8935390     699.7252     72.70751      1.983     7.98     2.841687     20.49734     40.53672        18     1.401     1.271 -78.57   0
       373    174.8252   1007.9677 299.8979445 +22.7046329     1437.909     72.65202      8.736    12.68     58.36216     20.49734     45.24145        26     3.212     1.392 -20.43  19
       374    564.2201   1000.5278 300.0214497 +22.8193792     431.0497     72.68902      1.850     4.24     3.208483     20.49734     36.04243         7     0.934     0.756  50.08   0
