#   1 NUMBER                 Running object number                                     
#   2 X_IMAGE                Object position along x                                    [pixel]
#   3 Y_IMAGE                Object position along y                                    [pixel]
#   4 ALPHA_J2000            Right ascension of barycenter (J2000)                      [deg]
#   5 DELTA_J2000            Declination of barycenter (J2000)                          [deg]
#   6 FLUX_APER              Flux vector within fixed circular aperture(s)              [count]
#   7 FLUXERR_APER           RMS error vector for aperture flux(es)                     [count]
#   8 FLUX_RADIUS            Fraction-of-light radii                                    [pixel]
#   9 FWHM_IMAGE             FWHM assuming a gaussian core                              [pixel]
#  10 BACKGROUND             Background at centroid position                            [count]
#  11 THRESHOLD              Detection threshold above background                       [count]
#  12 FLUX_MAX               Peak flux above background                                 [count]
#  13 ISOAREA_IMAGE          Isophotal area above Analysis threshold                    [pixel**2]
#  14 A_IMAGE                Profile RMS along major axis                               [pixel]
#  15 B_IMAGE                Profile RMS along minor axis                               [pixel]
#  16 THETA_IMAGE            Position angle (CCW/x)                                     [deg]
#  17 FLAGS                  Extraction flags                                          
         1    692.3912     16.5959 300.3929327 +22.6016110     870.7201     71.85467      1.930     4.62     6.317133     20.31902     87.90046        16     1.273     1.122  59.49   0
         2    401.8041     13.3858 300.3034380 +22.5137354     868.4703     71.87305      1.742     4.35     5.750774     20.31902     84.50012        17     1.256     1.083  73.85   0
         3    173.1685      3.6563 300.2354368 +22.4424893     3907.925     67.33662      1.748     3.05     6.345949     20.31902     381.0142        40     1.438     1.292  11.95  24
         4    741.1634      4.8386 300.4119483 +22.6128166     636.6052     71.07824      1.358     3.21     6.341951     20.31902     88.95071        10     1.000     0.679 -37.34  16
         5    595.8624      1.3138 300.3677967 +22.5683358     213.4419     56.02746      1.195     3.19     6.577357     20.31902     36.82632         5     0.760     0.426 -16.94  24
         6    498.8086      1.4328 300.3375201 +22.5393295     203.1955      56.6139      1.173     4.18     5.725983     20.31902     38.62797         7     1.016     0.490   4.90  24
         7    174.6746    996.6249 299.9135776 +22.7280247     2988.957      72.0383      6.694    27.40     79.99168     20.31902     69.69127       212     5.177     4.237  76.35  18
         8     87.5247   1010.0204 299.8821227 +22.7057122     4818.563     72.01996     15.687    85.04     80.11457     20.31902      164.919      1936    15.980    13.368  41.46  27
         9     78.2571    946.4205 299.8999275 +22.6846948     5553.011     72.01996     30.809    11.16     25.96087     20.31902     1199.462      4848    22.441    17.876 -58.93  19
        10    239.8742    973.8527 299.9412642 +22.7410562     7786.071      72.0383      9.134    32.80     44.34222     20.31902      174.438       814    11.476     5.086  65.01  18
        11    548.4835    991.3862 300.0316293 +22.8386480      2298.52     71.98326      1.999     4.75     4.711761     20.31902      133.455        37     1.685     1.376  52.63   0
        12      5.4388    998.1703 299.8604638 +22.6776769     1400.919     72.01996     13.099    13.72    -7.866028     20.31902     38.38639        22     3.495     1.498  67.08  19
        13      9.0682    994.6535 299.8627356 +22.6777582     1078.536      72.0383      6.232    11.50    -3.798582     20.31902      42.5717        12     3.495     1.053  26.08  19
        14    635.0814    987.0238 300.0600292 +22.8633591     8626.782     71.98326      2.106     4.94     4.757726     20.31902     457.3185        49     1.697     1.439  24.78   3
        15    640.5431    984.6627 300.0624994 +22.8643186      9612.49     72.07497      2.073     5.06     4.743672     20.31902     489.5645        53     1.718     1.496  22.65   3
        16    735.3480    988.0318 300.0909538 +22.8937040     566.6518      72.0383      2.127     5.48     4.824329     20.31902     37.38696         7     1.074     0.789  15.78   0
        17      2.2605    986.4241 299.8632967 +22.6733555     999.3279     61.08155      9.732     9.76    -8.628472     20.31902     38.05691        16     2.241     1.186  86.52  27
        18    168.9052    974.5565 299.9189615 +22.7199648     1699.599      72.0383     10.595    14.29      61.0191     20.31902     50.59232        48     4.132     1.376  59.83   3
        19    499.0013    975.9855 300.0212266 +22.8193906     377.0086     71.87305      1.736     5.61     4.257729     20.31902      34.4544         7     1.237     0.717  85.71   0
        20    168.0807    977.8816 299.9176237 +22.7206709      1826.63     72.18487      7.118    14.64     63.69487     20.31902     46.88314        44     3.359     1.775  57.61   3
        21    927.8458    970.7486 300.1566150 +22.9464244     789.8068      72.0383      2.093     8.46     4.063029     20.31902     52.31252        19     1.455     1.376  39.80   0
        22      1.5688    970.1636 299.8683704 +22.6684864     691.9913     57.42487      3.533     3.40    -5.861475     20.31902     34.09243         5     0.737     0.460 -71.33  24
        23    487.5701   1000.3115 300.0097536 +22.8229438     555.9175     72.00161      2.097     6.54      3.98971     20.31902     36.45366         9     1.264     0.949  17.40   0
        24    148.4931    957.4600 299.9181744 +22.7089369     1627.786      72.0933      8.119    13.02     45.52574     20.31902     57.07542        36     2.403     2.037 -45.03   3
        25    145.2439    954.0126 299.9182852 +22.7069732     1745.225     72.00161     10.935    14.54     42.77145     20.31902     51.62063        42     2.784     2.113   0.19   3
        26    653.3077    953.8823 300.0764895 +22.8593083     6834.895     72.16656      2.025     4.42     4.425134     20.31902     380.8761        56     1.639     1.554  39.56   0
        27    533.2570    948.6637 300.0407827 +22.8218202     401.8345     72.07497      1.591     3.74     4.529573     20.31902     38.28712         5     0.897     0.448 -46.53   0
        28    357.0948    998.2092 299.9698163 +22.7832080     365.1034     71.92818      1.573     5.97     5.457522     20.31902     41.41243         8     1.294     0.775  43.24   0
        29    561.9747    944.6489 300.0510342 +22.8292778     1543.032      72.0383      1.825     3.78     4.458376     20.31902     109.0828        24     1.218     1.184  54.61   0
        30    386.2317    939.0392 299.9981311 +22.7749702     6556.744     72.05663      1.984     4.36     4.731991     20.31902     445.4857        50     1.531     1.502  84.50   0
        31    455.7366    941.0172 300.0191270 +22.7963815     977.7975     72.00161      1.935     5.25     4.504994     20.31902     61.75303        22     1.353     1.199   5.79   0
        32      4.0901   1008.3834 299.8567226 +22.6801998     1683.398      68.7924     10.253    18.17    -10.31753     20.31902     49.07571        53     3.599     2.548  71.38  27
        33    418.6515    925.6917 300.0125644 +22.7808625     570.6149     72.07497      1.960     7.01      4.65616     20.31902     58.32416        13     1.401     0.982  30.42   0
        34    932.6210    918.0552 300.1752441 +22.9327170     2158.584      72.0383      2.141     5.39     4.108337     20.31902     110.5278        35     1.678     1.374  31.38   0
        35    582.6166    915.4130 300.0669731 +22.8270733     411.5956      71.9649      1.785     3.92     4.255148     20.31902     28.57366         5     1.052     0.419 -15.58   0
        36    615.3967    913.2930 300.0778762 +22.8362909      303.011     71.92818      1.688     3.87      4.10807     20.31902     28.18604         5     1.015     0.423  74.53   0
        37      1.7644   1022.0649 299.8515493 +22.6834235     898.1799     51.73655      6.720     8.71    -14.85422     20.31902     38.41043        19     2.598     0.815 -78.43  27
        38    721.3822    906.8569 300.1130022 +22.8662086     734.3494     71.98326      2.012     6.55      4.23633     20.31902     50.02433        16     1.571     0.981  27.15   0
        39    756.4128    900.9911 300.1258313 +22.8750216      1021.04     71.90981      1.769     5.16     4.307282     20.31902     67.42902        20     1.327     1.057  17.22   0
        40    534.4396    901.7302 300.0564143 +22.8087026     230.1991     71.98326      1.504     4.25     4.510148     20.31902     37.23419         6     1.054     0.488  84.56   0
        41    216.1363    901.1520 299.9575228 +22.7130807     719.4194      72.0383      5.121     4.89     9.988088     20.31902     27.33201         5     1.302     0.521  28.89   1
        42    210.5976    898.3852 299.9566996 +22.7106255     827.7263     71.85467      4.401     4.33     10.23297     20.31902     41.47769         5     1.104     0.483  51.60   3
        43    778.4575    894.6349 300.1347720 +22.8798017     11501.02      72.0383      1.927     4.31     4.378115     20.31902     703.4515        55     1.536     1.490 -21.37   0
        44      4.8178   1022.9563 299.8522083 +22.6845957     1031.743     58.87889      8.408    10.75    -11.35034     20.31902     47.62997        20     2.205     1.462 -38.96  27
        45    967.9912    894.6046 300.1939081 +22.9365740     433.7632     71.87305      1.966     4.87     4.246086     20.31902     33.10422         7     1.268     0.530 -61.13   0
        46    232.6989   1000.1669 299.9304729 +22.7464509     1323.092     72.00161      2.730     9.08     72.29086     20.31902     58.69887        30     2.014     1.670  21.34   0
        47    824.0927    894.7748 300.1489582 +22.8935155      568.165      71.9649      1.990     7.35     4.429751     20.31902     35.47092        13     1.352     1.120 -22.92   0
        48     90.0761    885.8589 299.9232943 +22.6708739     1213.343     72.07497      8.002     8.51     9.817862     20.31902     51.22567        24     2.104     1.264  80.87   1
        49    483.8331    882.9698 300.0467527 +22.7881453     523.0381      72.0383      2.080     5.61       4.4958     20.31902     45.40926         9     1.241     0.713  13.25   0
        50    829.9956    882.1021 300.1549202 +22.8916437     387.9205     71.92818      1.543     5.44     4.420421     20.31902     54.20915         7     1.041     0.802 -59.92   0
        51    787.1277    876.8408 300.1432618 +22.8772886     1323.658     72.00161      1.775     4.47      4.39027     20.31902     92.55188        22     1.295     1.165  41.50   0
        52    201.7053    985.9312 299.9254629 +22.7330687     3757.572     72.16656      7.708    26.22       68.939     20.31902     80.32584       260     5.662     4.665  39.83   3
        53    969.8786    876.5853 300.2003567 +22.9319615     505.8224      72.0383      1.782     6.32      4.37699     20.31902     41.09322        11     1.472     0.761  27.55   0
        54    638.3085    873.9745 300.0978012 +22.8318689     463.4043      71.9649      2.343     6.61     4.322204     20.31902     30.50714         9     1.346     0.911 -44.54   0
        55    825.2400    870.5049 300.1572079 +22.8868874     958.6628     72.01996      2.380     6.78     4.419069     20.31902     59.63174        19     1.430     1.279  55.79   0
        56    873.8148    862.2388 300.1750473 +22.8990647     484.2459      72.0383      1.752     5.00     4.436031     20.31902     38.79686         8     0.998     0.710  26.87   0
        57    724.5598    860.5250 300.1290583 +22.8538545     764.2374     72.00161      1.864     5.80     4.280475     20.31902     62.78845        13     1.133     1.062  -2.12   0
        58    736.1985    857.5056 300.1336686 +22.8564748     650.1593     71.92818      1.657     3.76     4.334652     20.31902      64.1731        12     1.112     0.916  29.99   0
        59    437.4971    856.5923 300.0409000 +22.7666815     4256.045     71.90981      1.815     4.10     4.523317     20.31902     323.8593        41     1.427     1.383  23.11   0
        60    216.3250    845.7985 299.9755779 +22.6972572     345.4909     71.90981      1.351     3.85     5.955131     20.31902      34.3688         6     1.021     0.417  76.71   0
        61    481.0943    844.5807 300.0583809 +22.7763043     365.9724     71.94654      1.465     5.43     4.565885     20.31902     45.80621         9     1.036     0.802 -76.88   0
        62    163.0354    842.5259 299.9600674 +22.6803334     830.5126     71.98326      2.121     4.59     7.808321     20.31902     70.23003        10     1.155     0.811 -34.63   0
        63    139.9905    839.3710 299.9539267 +22.6725152     1730.163     72.01996      1.952     3.93     7.191088     20.31902     150.6337        28     1.393     1.284  24.23   0
        64    220.9018    984.4946 299.9319011 +22.7384163     4887.762     72.20317      7.702    23.78     66.03218     20.31902      95.1695       354     5.735     4.793 -76.73   3
        65    767.1784    835.5975 300.1504505 +22.8594644     338.5676      71.9649      1.668     4.85     4.607392     20.31902     39.74657         6     1.096     0.607  55.04   0
        66   1011.6088    828.8792 300.2288926 +22.9307490     2121.099      71.9649      1.963     4.68     4.750282     20.31902     116.6841        37     1.521     1.448  -4.36   0
        67    965.9683    827.4049 300.2151266 +22.9166574     2308.312     72.00161      2.010     4.87     4.590848     20.31902     127.0411        35     1.458     1.440   1.22   0
        68    671.4378    827.0830 300.1233715 +22.8283313     528.2311     71.98326      2.143     5.40     4.543838     20.31902     35.97426         9     1.127     0.730  -9.62   0
        69    749.2674    821.0529 300.1495942 +22.8499201     506.8902      72.0383      1.687     4.91     4.802035     20.31902     51.48946        13     1.253     0.826  48.62   0
        70    172.3186    821.3318 299.9698437 +22.6770379     438.0773     72.12994      1.590     3.94     6.516453     20.31902      54.8574         7     0.837     0.655 -26.94   0
        71    496.8806    819.1883 300.0715519 +22.7737469     218.8618     72.00161      1.392     2.89     4.679937     20.31902     30.71035         5     0.890     0.738  -6.12   0
        72    617.5046    814.8929 300.1105260 +22.8086679     4876.737     72.20317      1.704     3.72     4.968115     20.31902     384.1353        37     1.339     1.309  32.70   0
        73    420.0055    811.8735 300.0499912 +22.7486009     564.7736      71.9649      1.510     3.66     4.682946     20.31902     62.28203        12     1.039     0.812  18.54   0
        74    167.6334    808.4452 299.9725753 +22.6719354     1372.715     72.07497      1.848     4.20     5.965989     20.31902     113.7979        21     1.259     1.199  67.87   0
        75    638.1215    807.4237 300.1193787 +22.8127014     724.4734     72.00161      1.576     3.83     4.928827     20.31902     77.26702        13     1.125     0.861 -49.05   0
        76    187.5280    805.4454 299.9797377 +22.6770421     516.9115     72.01996      1.888     5.28     5.749849     20.31902      38.6571         8     1.305     0.604  39.09   2
        77   1010.4545    795.1684 300.2394911 +22.9207141     1110.199      72.0383      1.933     5.71     4.896889     20.31902     71.95646        20     1.351     1.114  11.35   0
        78    793.5751    794.7165 300.1719714 +22.8556284     4219.605     71.98326      1.797     3.88     4.840342     20.31902     293.2974        36     1.407     1.276  20.37   0
        79    202.4177    788.2244 299.9899660 +22.6765669     329.8998     72.01996      1.304     4.63     5.603369     20.31902     37.65274         8     1.103     0.552  69.76   0
        80    510.4611    787.2668 300.0861575 +22.7686527     678.7056     72.05664      1.693     4.55     4.911435     20.31902     69.62778        13     1.166     0.977 -15.16   0
        81    156.7079    784.8613 299.9768426 +22.6618920     936.0653     72.11162      1.703     4.97     5.601698     20.31902     92.79018        21     1.383     1.122  12.01   0
        82    306.5670    777.0316 300.0260061 +22.7045880     53671.05      72.0383      1.793     3.74     5.148051     20.31902     4198.946       105     1.570     1.520 -11.78   0
        83    572.4771    780.5350 300.1076640 +22.7853068     495.7422     72.11162      1.604     4.83     5.130172     20.31902     39.51954         8     0.942     0.702  56.66   0
        84    564.4974    776.3616 300.1065344 +22.7817169     1515.879     72.00161      1.618     3.70     5.138437     20.31902      126.037        22     1.186     1.159  88.69   0
        85    977.3904    775.5302 300.2355542 +22.9051689     825.9519     72.00161      1.772     5.06     4.879367     20.31902     65.44547        17     1.354     0.986  64.14   0
        86    235.7157    775.5600 300.0044398 +22.6829192     431.2667     71.98326      1.513     4.86     5.532142     20.31902     40.50023        12     1.195     0.866  50.48   0
        87    593.3962    772.4459 300.1168107 +22.7892530     897.3645     72.00161      1.686     3.98     5.276789     20.31902      78.5518        18     1.218     0.963   6.19   0
        88    604.5142    770.4538 300.1209224 +22.7920127     640.8772     72.07497      1.646     4.54     5.332711     20.31902      56.7027        16     1.296     0.909  42.16   0
        89    708.2360    769.6497 300.1535105 +22.8228607     2309.175      72.0383      0.594    -0.14     5.150359     20.31902     1955.592        11     1.169     0.389 -52.03   0
        90    747.4257    757.4177 300.1697039 +22.8310875     908.4214      72.0383      1.782     4.83     5.190383     20.31902     67.06165        16     1.314     0.914  37.66   0
        91    356.2979    754.3209 300.0488641 +22.7129802     31587.36     72.14825      1.749     3.41     5.135417     20.31902     2939.939        79     1.496     1.429  11.66   0
        92    370.5946    754.8272 300.0531497 +22.7174118     2031.351     72.00161      1.738     3.61     5.125729     20.31902     174.6119        26     1.315     1.141 -14.85   2
        93    367.6409    748.9005 300.0541562 +22.7148250      678.803     72.00161      2.084     3.83     5.189537     20.31902      64.0927        13     1.171     0.884  52.01   3
        94    879.4405    750.4808 300.2131314 +22.8686369     2881.017     71.98326      1.785     3.77     5.077784     20.31902     219.9065        32     1.317     1.255  29.77   0
        95    238.8122    746.1096 300.0149735 +22.6753963     799.4783      71.9649      1.776     4.83     5.505257     20.31902      75.6663        17     1.240     1.016  68.52   0
        96    637.0060    746.3249 300.1388891 +22.7948188     974.7837     71.94654      1.674     4.18     5.430996     20.31902     78.41519        19     1.354     0.964  16.23   0
        97    474.0658    746.4313 300.0880936 +22.7460187     301.5729     72.01996      1.514     5.49     5.284181     20.31902     51.12152        10     1.456     0.708 -14.08   0
        98    484.5784    741.1926 300.0930699 +22.7476654     828.4341     72.00161      1.575     3.40       5.3478     20.31902       76.889        16     1.082     0.935 -55.09   0
        99     43.7217    741.8761 299.9556830 +22.6156681     543.0029     72.12994      1.907     6.21     5.581413     20.31902     45.98948        10     1.419     0.765 -22.60   0
       100    885.6229    738.4093 300.2189832 +22.8670192     584.6968     72.01996      1.636     4.57       5.1016     20.31902     49.32418        13     1.109     0.908  23.24   0
       101    386.6697    737.5210 300.0637774 +22.7172628     242.5208     72.12994      1.587     5.65     5.296941     20.31902     33.39757         7     1.048     0.859 -20.94   0
       102    430.8337    736.0119 300.0780174 +22.7300685     391.0266     72.00161      1.468     5.05     5.312599     20.31902     41.00527         8     0.956     0.907  46.21   0
       103    342.5067    736.0483 300.0505094 +22.7036003     381.5169      72.0383      1.897     5.32     5.326261     20.31902      39.8416         6     1.193     0.669  55.18   0
       104     73.0725    735.5732 299.9668547 +22.6226645     518.3115     72.01996      1.735     3.36     5.566944     20.31902     53.93785         9     0.883     0.763  19.58   0
       105    865.1765    733.8344 300.2140913 +22.8595811     938.1642      72.0383      1.259     1.98     5.119624     20.31902     336.8198        12     1.474     0.699  33.34   0
       106    236.8359    730.5828 300.0194039 +22.6703477     612.0374     72.01996      1.721     4.85     5.504773     20.31902     47.32343        11     1.168     0.752 -71.48   0
       107    559.9136    721.3188 300.1229937 +22.7645358      444.933     72.16656      1.492     3.82     5.474354     20.31902     42.74251         7     0.835     0.625  24.83   0
       108    529.8816    719.3892 300.1142652 +22.7549818     560.7944     71.98326      1.646     5.59     5.447231     20.31902     52.98676        10     1.024     0.860 -27.09   0
       109    945.8928    715.8060 300.2451340 +22.8785705     4580.554     71.92818      1.829     3.91     5.200612     20.31902     301.3924        39     1.414     1.374  81.05   0
       110    551.3924    716.7137 300.1218354 +22.7606597     1270.121     71.92818      1.519     3.25     5.468396     20.31902     144.9118        17     1.092     0.957  28.46   0
       111    471.2052    716.5530 300.0969115 +22.7365820     353.6383     72.00161      1.368     2.17     5.403796     20.31902     46.27081         5     0.674     0.483 -14.54   0
       112    934.3167    707.2882 300.2442895 +22.8726559     1711.705     72.12994      1.778     3.81     5.274396     20.31902      138.356        23     1.257     1.143 -12.15   0
       113    297.4215    700.6567 300.0479776 +22.6799241     954.3763      72.0383      1.837     4.12     5.326261     20.31902     78.93249        16     1.232     0.944   9.86   0
       114    760.8433    698.3290 300.1930887 +22.8181295     2553.558     71.98326      1.728     3.59     5.249325     20.31902     242.0179        32     1.474     1.202   2.77   0
       115    965.5042    697.3264 300.2572591 +22.8791303     1672.169     72.14825      1.762     3.41     5.209375     20.31902     157.3952        28     1.454     1.212 -19.37   0
       116    843.1810    684.1658 300.2233691 +22.8387195     649.1713      72.0383      1.528     4.91     5.294585     20.31902     60.14892        12     1.173     0.788  60.14   0
       117    146.4263    684.8205 300.0061511 +22.6301031     668.2188     72.00161      1.894     3.93     5.605683     20.31902     54.08225        11     1.079     0.823 -23.34   0
       118    879.1423    675.4025 300.2374344 +22.8469696       149104     71.98326      1.698     3.41     5.451853     20.31902      12145.6       163     1.562     1.526  -3.66   0
       119    641.7635    679.3022 300.1621493 +22.7769914     538.7401     72.01996      1.696     3.59     5.498363     20.31902     44.29351         8     0.948     0.685 -28.21   0
       120    731.4880    675.6996 300.1912881 +22.8028343     790.7939     72.18487      1.543     3.37     5.375906     20.31902     76.87458        14     1.063     0.903   8.04   0
       121    912.4748    668.7936 300.2499812 +22.8550506     462.8286     71.94654      1.922     4.63     5.494379     20.31902     42.39202         8     0.967     0.924 -40.57   0
       122    565.4241    664.0806 300.1433069 +22.7497469     1692.391     71.98326      1.537     3.16     5.554309     20.31902     165.5756        24     1.224     1.093   3.64   0
       123    746.6502    661.4584 300.2006420 +22.8032836      9451.13     72.07497      1.612     3.24     5.335005     20.31902     940.6541        43     1.295     1.262  31.99   0
       124    248.0399    656.3088 300.0470194 +22.6523889     4902.241     72.01996      1.684     3.25     5.444977     20.31902     515.6857        41     1.409     1.303  37.75   0
       125    330.1260    654.5364 300.0731380 +22.6764885     1182.993     72.05663      1.657     3.50     5.347187     20.31902     125.5373        18     1.224     0.984  39.81   0
       126    205.9224    652.2725 300.0352283 +22.6386025     611.5209     72.11162      1.978     4.23     5.522287     20.31902     49.52531         9     0.979     0.741  51.61   0
       127    538.5132    650.0742 300.1394733 +22.7376604     721.2451     72.16656      1.499     3.51     5.546753     20.31902     70.81129        15     1.045     0.972  25.62   0
       128    530.1193    642.1725 300.1394252 +22.7328756     3332.963      72.0383      1.543     3.00     5.544528     20.31902      320.234        31     1.295     1.155  45.51   0
       129    520.3669    636.0282 300.1383832 +22.7281886     1435.565      72.0383      1.497     3.04     5.541842     20.31902     141.0305        20     1.086     1.041  -4.63   0
       130    448.9891    635.0472 300.1164719 +22.7065179     374.0751      72.0383      1.763     5.00     5.454298     20.31902     34.42132         8     1.060     0.667  13.60   0
       131    914.2953    634.1146 300.2618151 +22.8456266     432.1911     72.20317      1.519     5.02     5.600032     20.31902     42.02507         9     1.134     0.692   7.65   0
       132    431.1150    633.0742 300.1115471 +22.7005947     356.5791     72.12994      1.465     3.75     5.416677     20.31902     33.15028         5     1.035     0.391  32.66   0
       133    183.8209    631.8786 300.0349777 +22.6261222     644.9565     72.01996      1.533     3.34     5.526217     20.31902     78.40995        12     1.016     0.856  42.45   0
       134    198.0421    630.5009 300.0398486 +22.6299907     638.4879     72.00161      1.699     3.57      5.51533     20.31902     72.53108        12     0.990     0.914 -15.75   0
       135    967.2315    627.7927 300.2803881 +22.8596568     395.4321     72.01996      1.461     3.63      5.61671     20.31902     39.97377         5     0.946     0.402   3.76   0
       136    445.1302    625.6925 300.1183087 +22.7026749      1844.17     72.14825      1.579     3.02     5.449073     20.31902     182.4236        21     1.159     1.030  25.44   0
       137    254.3893    627.1733 300.0584582 +22.6459288     423.2131     72.01996      1.867     4.91     5.451817     20.31902     36.59135         8     1.024     0.668  28.12   0
       138    223.9229    627.3377 300.0489266 +22.6368422     503.9886     72.07497      1.508     3.84     5.497361     20.31902     54.13384         7     0.960     0.655   8.54   0
       139    544.8200    626.1423 300.1492115 +22.7326758      349.791     72.01996      1.217     4.23      5.55849     20.31902     53.55766        10     0.944     0.889 -77.31   0
       140   1020.8708    623.2131 300.2986184 +22.8743964     768.5694     68.92671      1.668     4.27     5.584615     20.31902     58.64707        15     1.298     0.780  48.61  16
       141     99.0425    620.4117 300.0123382 +22.5974099     19832.16     72.01996      1.842     3.66     5.623047     20.31902     1939.842        66     1.551     1.458  13.71   0
       142     19.8516    621.8666 299.9872484 +22.5740779     636.9365      72.0383      1.667     4.96     5.572009     20.31902     77.87821        14     1.344     0.929  54.58   0
       143    530.3306    620.9427 300.1463867 +22.7268409      1068.57      72.0383      1.597     4.00     5.553831     20.31902     100.7853        18     1.203     1.043 -21.68   0
       144    565.3953    620.1964 300.1575527 +22.7371322     411.7135     71.83628      1.262     3.92     5.600343     20.31902     49.86339         8     0.942     0.733 -51.60   0
       145    948.2855    607.5394 300.2810539 +22.8481620     995.9856     72.12994      1.539     3.62     5.761651     20.31902     110.5147        20     1.215     1.063  22.31   0
       146     45.3939    604.7844 300.0007350 +22.5768368     1596.898     71.94654      2.366     4.63     5.553804     20.31902     104.4751        26     1.420     1.290  89.85   2
       147    814.7597    605.3350 300.2401120 +22.8075511     549.7543     71.98326      1.717     4.36     5.278957     20.31902     49.45622         7     0.835     0.648  54.12   0
       148    111.6399    605.1702 300.0212048 +22.5968133     395.4987     72.01996      1.470     4.25     5.578529     20.31902     57.88859         9     0.946     0.862 -30.83   0
       149    492.9869    601.8252 300.1409639 +22.7101603     430.8339     72.01996      1.659     4.30     5.577907     20.31902     49.80523         8     1.098     0.832  22.09   0
       150    888.1205    599.8450 300.2647794 +22.8279381     1025.378     72.00161      2.378     4.43       5.4865     20.31902     65.55129        18     1.229     1.048  56.77   2
       151    285.6288    600.7786 300.0767507 +22.6477159     366.7922     72.01996      1.605     6.02     5.428024     20.31902     43.12625         7     1.535     0.752   7.51   0
       152    450.2194    593.9486 300.1302031 +22.6950830     765.3569     72.00161      1.527     2.96     5.514081     20.31902     105.2719        14     1.033     0.901  12.46   0
       153    597.9799    592.6439 300.1766537 +22.7389783     551.2937     72.05663      1.520     3.06     5.776121     20.31902     64.70502         8     0.832     0.713 -30.45   0
       154    645.6011    590.8990 300.1920606 +22.7527418     495.0443     71.90981      1.674     3.87     5.684086     20.31902     45.46132        10     0.979     0.834  87.47   0
       155    616.0739    590.8641 300.1828700 +22.7438872     549.3652     72.05663      1.338     4.18     5.782681     20.31902      58.8657        11     1.133     0.713  35.82   0
       156    494.4863    589.4718 300.1454428 +22.7070611     1000.166     72.12994      1.692     5.38     5.636782     20.31902     111.7696        17     1.496     0.972  86.83   0
       157    928.3099    585.4718 300.2819874 +22.8358373     3382.711     72.18487      1.706     3.41     5.630621     20.31902     298.0321        35     1.446     1.252 -41.91   0
       158    460.0081    585.0484 300.1361417 +22.6954598     1718.766      72.0383      1.483     3.29     5.571435     20.31902     165.3485        25     1.209     1.099  52.00   0
       159    825.2682    583.1506 300.2505946 +22.8043207     310.4691     72.01996      1.521     3.56     5.279769     20.31902     41.55982         6     0.905     0.598 -22.39   0
       160     21.8657    578.4697 300.0019669 +22.5622296     4982.896     72.05663      1.855     3.57     5.362092     20.31902      503.825        44     1.490     1.412  34.58   0
       161    489.6990    575.9656 300.1483378 +22.7017471      400.226     72.00161      1.462     4.77      5.68626     20.31902     41.53121         7     0.910     0.851 -24.19   0
       162    323.3692    571.8110 300.0979022 +22.6507105     9313.008     72.01996      1.588     3.02     5.440422     20.31902     1055.518        49     1.378     1.254  39.94   0
       163    445.7862    568.9236 300.1369492 +22.6865668     9171.798      72.0383      1.507     3.06     5.578932     20.31902     957.0961        39     1.264     1.169  40.01   0
       164    210.7683    566.7815 300.0644998 +22.6155148     275.2479     72.00161      1.841     4.92     5.414227     20.31902     27.91075         6     1.104     0.622 -16.01   0
       165    857.4989    563.2053 300.2671255 +22.8082368     2035.048     71.90981      1.683     3.46     5.278063     20.31902     183.9919        24     1.332     1.018  38.97   0
       166    692.1770    565.0836 300.2149616 +22.7592733     381.5751     71.98326      1.660     5.00     5.577473     20.31902     36.91998         6     0.928     0.763  30.80   0
       167    942.1647    560.5380 300.2944083 +22.8328153     12551.46      72.0383      1.642     3.21     5.558251     20.31902     1163.445        50     1.367     1.314 -71.08   0
       168    506.4156    558.5510 300.1591993 +22.7017529     11750.01     72.05664      1.512     2.73     5.808401     20.31902     1385.934        47     1.283     1.222 -12.78   0
       169    675.7231    554.4958 300.2132707 +22.7513028      456.552     72.14825      1.283     3.23     5.678123     20.31902       61.368        10     0.961     0.736  33.14   0
       170    233.7965    553.9688 300.0758238 +22.6187394     1396.113     71.98326      1.602     3.34     5.393837     20.31902     148.5096        23     1.260     1.099  -0.50   0
       171    391.6259    553.3805 300.1251330 +22.6658734      366.859     72.00161      1.458     4.13      5.50964     20.31902     51.35722         6     1.001     0.486  32.22   0
       172    480.5979    551.8455 300.1533355 +22.6920916     236.9431     72.01996      1.208     3.29     5.756695     20.31902     46.67883         6     0.881     0.628   6.21   0
       173    780.9285    546.9918 300.2485080 +22.7806504     787.5344     72.00161      1.505     3.49     5.291074     20.31902     85.32584        14     0.987     0.959 -16.58   0
       174    438.0580    546.6708 300.1417683 +22.6778594     4403.423      72.0383      1.514     2.85     5.616013     20.31902     468.7468        35     1.308     1.175  15.52   0
       175    416.3603    545.1779 300.1354971 +22.6709292      1307.52     72.05663      1.587     3.47     5.542404     20.31902     137.0854        19     1.166     1.043  -4.45   0
       176    857.9037    542.3565 300.2740218 +22.8023640     1634.641      72.0383      1.667     3.46     5.247384     20.31902     141.4379        25     1.412     1.160 -52.18   0
       177    738.3131    539.5640 300.2376315 +22.7657549     784.5339     72.00161      1.460     3.59     5.397035     20.31902     81.68973        15     1.063     0.943   0.33   0
       178    554.6871    534.3051 300.1821088 +22.7092480       206607     72.20317      1.495     2.77      5.97529     20.31902     23510.32       195     1.508     1.439  -4.28   0
       179    378.4150    540.4214 300.1252280 +22.6581927     273.4272     72.00161      1.362     3.17     5.543846     20.31902     44.77857         5     0.947     0.467 -42.90   0
       180    942.9448    536.6298 300.3024152 +22.8261739     134.9981     72.01996      1.132     2.79     5.490406     20.31902     40.37348         5     0.853     0.478   5.50   0
       181    240.7072    534.0702 300.0844343 +22.6150977     3530.218     72.14825      1.641     3.35     5.399098     20.31902     306.6332        37     1.314     1.301  80.79   0
       182    170.6391    544.5302 300.0592425 +22.5970969     688.3622     71.98326      1.628     3.39     5.370976     20.31902     74.69447        14     1.094     0.889  14.18   0
       183    806.7969    530.7896 300.2618364 +22.7837380     573.5948     71.83628      1.593     5.13     5.259831     20.31902     45.15701        12     1.128     0.850  -7.35   0
       184    586.3678    521.1656 300.1962454 +22.7149621      238.066     72.05663      1.301     4.64     5.967542     20.31902     32.25345         7     1.000     0.611  -0.20   0
       185    445.2755    514.9011 300.1543304 +22.6708959     2870.193     72.14825      1.598     2.79     5.711246     20.31902     323.6303        35     1.634     1.064  88.17   0
       186    289.3461    516.9459 300.1051276 +22.6247586     414.6733     72.05664      1.376     4.34     5.444494     20.31902     42.09803        10     0.897     0.849 -85.78   0
       187    602.2403    511.8186 300.2042258 +22.7170303     394.9125      72.0383      1.491     4.53     5.985643     20.31902      33.1981         7     1.027     0.567 -18.88   0
       188    856.4131    511.4646 300.2835870 +22.7930358     373.3807     71.98326      1.388     3.69      5.26582     20.31902     41.99718         6     0.972     0.402  19.44   0
       189    762.0979    503.6715 300.2567011 +22.7625593     393.4822     72.16656      1.336     2.72     5.468017     20.31902     40.48793         7     0.718     0.658  -3.23   0
       190    842.3173    500.8964 300.2826209 +22.7857776     1769.082     72.18487      1.577     3.24     5.272329     20.31902     152.9127        21     1.136     1.080  61.90   0
       191    713.5168    498.4572 300.2432466 +22.7465142     2632.194     72.11162      1.442     2.81     5.718636     20.31902      298.454        24     1.144     1.043  74.81   0
       192    957.8740    496.1543 300.3202157 +22.8190021     443.1786     72.01996      1.840     4.02     5.557878     20.31902      42.5788         6     0.961     0.480  35.83   3
       193    956.4214    491.9460 300.3211286 +22.8173571       809.86     72.01996      1.952     4.27     5.544465     20.31902     67.24033        15     1.164     0.995 -15.07   2
       194    618.6911    495.1635 300.2147591 +22.7171710     295.8532     72.00161      1.258     2.99     5.974955     20.31902     54.50095         7     0.753     0.628 -81.69   0
       195    500.8852    494.4257 300.1782961 +22.6816733     804.7036     71.98326      1.460     3.06     5.765278     20.31902     91.92779        11     0.943     0.795  47.08   0
       196    970.8756    492.5943 300.3254293 +22.8218693     1278.522     71.94654      1.717     3.22     5.634288     20.31902     129.6395        21     1.165     1.108 -15.26   0
       197    842.7141    491.0877 300.2859290 +22.7830761     2227.847     72.14825      1.682     3.46     5.277834     20.31902      246.845        29     1.565     1.067  70.46   0
       198    595.9555    488.9155 300.2097026 +22.7085663     707.2796     71.98326      1.916     3.87     5.926011     20.31902     68.45866        13     1.129     0.881 -84.42   2
       199    382.0043    488.9921 300.1430416 +22.6444964      272.145     71.87305      1.389     3.60     5.798983     20.31902     45.01965         5     0.696     0.537   0.01   0
       200    880.8323    486.1042 300.2994383 +22.7930533     4254.604     72.00161      1.523     3.00     5.305058     20.31902     452.9649        34     1.240     1.220  58.45   0
       201    434.1837    487.8362 300.1596626 +22.6597979     300.0686     72.01996      1.407     3.99     5.763665     20.31902     63.08356         8     0.930     0.816  49.28   0
       202    972.4875    476.8536 300.3310423 +22.8178245     671.0237     72.05663      1.459     3.48     5.625835     20.31902     81.47856        12     1.096     0.774  19.75   0
       203    112.9323    476.1875 300.0634824 +22.5601777     1019.978     72.01996      1.591     3.33     5.336809     20.31902     100.4177        15     1.113     0.897 -28.47   0
       204    969.0022    466.0098 300.3334746 +22.8136625     326.0227     71.83628      1.658     3.55     5.578978     20.31902     43.67205         5     0.946     0.392  23.31   0
       205    106.1976    466.1424 300.0646486 +22.5552750     359.1614     71.98326      1.476     4.37     5.331357     20.31902     45.21544         9     1.074     0.654 -17.30   0
       206    712.7765    460.8373 300.2552278 +22.7354785     321.4707      72.0383      1.056     2.90     5.738361     20.31902     63.44586         6     0.750     0.589  -1.89   0
       207    654.2086    456.5149 300.2383739 +22.7166992     789.7731      71.9649      1.415     3.56      5.95507     20.31902     90.25334        16     1.134     0.958  50.03   0
       208    601.9404    458.3615 300.2214854 +22.7015778     402.2898      72.0383      1.294     2.43     5.956767     20.31902     46.19788         7     0.713     0.644  -0.49   0
       209    968.8078    449.2216 300.3388633 +22.8087755     540.9965     72.00161      1.474     2.66     5.533229     20.31902     59.16196         8     0.763     0.682  34.27   0
       210    715.1575    448.6916 300.2599124 +22.7326998     845.1663     72.01996      1.473     3.50     5.687491     20.31902     90.99407        15     1.061     0.946 -60.90   0
       211    872.2552    445.0042 300.3101036 +22.7786670     1054.753     71.98326      1.456     2.97     5.296137     20.31902     106.1386        17     1.051     0.962  17.40   0
       212    856.2938    441.3651 300.3063053 +22.7728431     692.8909     71.98326      1.485     3.07     5.283386     20.31902     70.20557        12     0.950     0.821  14.40   0
       213    600.7706    439.2740 300.2273160 +22.6957416      3172.65      72.0383      1.446     2.64     5.968029     20.31902     373.1673        25     1.106     1.056  -5.48   0
       214     76.7882    430.2715 300.0671461 +22.5361608     473.8755      72.0383      1.566     4.33     5.523079     20.31902     46.64213         9     1.124     0.721  -7.64   0
       215    961.3758    438.7992 300.3399266 +22.8035537     512.9324      71.9649      1.757     3.51     5.485854     20.31902     60.81558         9     1.070     0.661  30.72   0
       216    440.5065    426.2002 300.1816365 +22.6439841       454.35     71.89143      1.357     4.06     5.837719     20.31902      54.9401         8     0.891     0.823 -84.55   0
       217   1012.1613    418.5255 300.3623585 +22.8129178     1436.077     71.98326      1.762     3.95     5.490206     20.31902     110.1753        24     1.381     1.177 -25.99   0
       218    883.9236    418.6118 300.3223097 +22.7745690     509.0292      72.0383      1.295     3.04     5.323176     20.31902     58.70022         9     0.843     0.743  62.85   0
       219    970.4136    417.2764 300.3497327 +22.8000671     1070.752      72.0383      1.705     3.31     5.447823     20.31902     110.8339        17     1.119     1.031  56.41   0
       220    620.2818    415.4301 300.2411344 +22.6947308     250.8308     72.01996      1.183     3.50     5.968164     20.31902     34.52499         5     0.778     0.454  18.23   0
       221    711.5745    413.1416 300.2703330 +22.7214068     1174.578     72.01996      1.423     3.75     5.580389     20.31902     130.0505        16     1.112     0.965 -10.79   0
       222    507.0617    413.9611 300.2063362 +22.6604025     379.4232     72.01996      1.236     2.94     5.881494     20.31902      50.3994         7     0.850     0.541 -42.28   0
       223    215.3285    411.4906 300.1163255 +22.5722920     707.2558     72.18487      1.543     3.07     5.399415     20.31902     68.70322        14     1.034     0.851 -10.36   0
       224    277.7070    406.8914 300.1372257 +22.5896632     3807.148     72.18487      1.574     3.16     5.807957     20.31902     408.1201        32     1.285     1.148  40.23   0
       225   1010.8977    405.8193 300.3660876 +22.8088843      4451.04     71.94654      1.653     3.33     5.481984     20.31902     378.0295        35     1.316     1.228 -31.70   0
       226    224.9117    401.7158 300.1224786 +22.5723565     7736.362     72.14825      1.595     3.03     5.455018     20.31902     800.4425        44     1.380     1.232  33.70   0
       227    990.9296    396.8551 300.3627635 +22.8003311     1861.061      72.0383      1.603     3.35     5.476407     20.31902     171.8149        24     1.227     1.095 -53.54   0
       228    365.7345    395.9129 300.1681851 +22.6128832     4789.077     72.11162      1.504     2.97     5.874242     20.31902     559.1091        34     1.245     1.150  62.76   0
       229    609.9213    392.8048 300.2452477 +22.6851250      18684.2     71.92818      1.447     2.75     5.972826     20.31902     2244.779        58     1.335     1.232  24.95   0
       230    627.2864    392.9323 300.2506180 +22.6903612     767.5142     72.12994      2.155     5.43     5.890234     20.31902     62.66308        15     1.472     0.706 -25.36   0
       231    806.7302    383.2425 300.3097075 +22.7412938     427.4503     71.98326      1.543     3.94     5.268064     20.31902     52.64733         8     1.023     0.628  -5.04   0
       232    229.5941    379.9020 300.1310131 +22.5674945     439.4669     71.90981      1.767     4.41       5.6024     20.31902     46.60923         7     1.197     0.494 -14.11   0
       233    943.4638    375.8013 300.3547809 +22.7800723     727.9831     72.01996      1.516     3.39      5.47856     20.31902     76.46909        14     1.027     0.941  -0.46   0
       234    164.5312    372.7358 300.1130994 +22.5459392     2050.647     72.07497      1.653     3.15     5.653329     20.31902     213.2407        28     1.267     1.202   5.15   0
       235    480.1239    374.5363 300.2107387 +22.6410049     344.3455      72.0933      1.569     3.36     5.824002     20.31902     42.80688         5     0.759     0.613  72.51   0
       236    964.3505    362.6834 300.3655559 +22.7825479     1239.387     72.01996      1.570     3.42     5.496702     20.31902     134.9956        20     1.246     0.970  88.16   0
       237    550.6150    362.2128 300.2366949 +22.6585731     6595.343     71.94654      1.449     2.61     5.842992     20.31902     740.5467        37     1.240     1.124  57.17   0
       238    265.5450    361.4845 300.1481740 +22.5729764     506.7368      72.0933      1.425     3.85     5.814325     20.31902        77.52         9     1.166     0.664 -20.20   0
       239    123.0392    354.9056 300.1059802 +22.5283841     495.5975      72.0383      1.427     3.69     5.869734     20.31902     66.56019        11     1.172     0.720   6.73   0
       240    810.5273    354.3515 300.3202660 +22.7341215     274.4322     72.01996      1.235     3.44     5.256954     20.31902     41.69645         5     1.000     0.341  20.80   0
       241    664.3335    352.8264 300.2751775 +22.6899231     518.1448     72.00161      1.348     3.14     5.311195     20.31902     66.00004         9     0.946     0.668  45.13   0
       242    754.7308    351.3202 300.3038487 +22.7165499     1181.523     72.12994      1.610     3.00     5.216035     20.31902     122.7522        17     1.162     0.872  74.89   0
       243    457.2879    348.4429 300.2120925 +22.6266669     6080.531     72.01996      1.415     2.53     5.859437     20.31902     717.6558        35     1.199     1.119  35.71   0
       244    849.3466    342.9377 300.3360778 +22.7424561     1307.045     72.07497      1.428     2.89     5.273085     20.31902     155.3617        19     1.084     0.966 -36.63   0
       245    441.8799    337.2592 300.2109224 +22.6188383     490.7831     72.05664      1.292     3.35     5.869279     20.31902     51.31966         8     0.897     0.673  58.15   0
       246    524.5787    335.4075 300.2372802 +22.6430720     364.1751     72.00161      1.300     2.94     5.831903     20.31902     53.33883        11     0.899     0.816  33.17   0
       247    802.7234    334.2911 300.3243402 +22.7260165     299.0103     72.16656      1.532     5.96     5.252371     20.31902      34.2239         8     1.131     0.884 -60.45   0
       248    821.9929    330.7324 300.3315049 +22.7307597     659.0045     71.98326      1.387     2.84     5.259747     20.31902     81.47592        11     0.913     0.768  64.42   0
       249    946.7135    343.3836 300.3663133 +22.7717187     592.9493     71.98326      1.482     4.40     5.506541     20.31902      73.8766        16     1.183     1.032 -22.91   0
       250    344.8861    327.5663 300.1838693 +22.5870013     2524.517     71.98326      1.516     2.65     5.856772     20.31902      317.313        31     1.306     1.187  71.74   0
       251     63.3976    325.0296 300.0971276 +22.5019302     954.5155      71.9649      1.619     3.01     6.041832     20.31902     126.6675        16     1.038     0.949   6.26   0
       252    314.1644    317.0050 300.1777331 +22.5747640     30244.02      72.0383      1.515     2.90      5.92189     20.31902     2976.536        71     1.396     1.282  43.06   0
       253    848.8353    314.9101 300.3450108 +22.7342412     1403.692     72.00161      1.492     3.28     5.266518     20.31902     141.8617        19     1.128     0.963  65.42   0
       254     10.4408    304.7453 300.0872452 +22.4802336     4823.822     71.98326      1.771     3.51     6.123916     20.31902     507.3865        44     1.515     1.325  39.05   0
       255    763.9899    303.5908 300.3222198 +22.7055948     571.1483     71.90981      1.518     3.14     5.222986     20.31902     76.21215        10     0.920     0.869  35.89   0
       256    412.8519    302.6424 300.2131127 +22.6001964     547.5672     72.01996      1.710     4.14     5.883908     20.31902     60.43309         9     1.125     0.633 -33.78   0
       257    188.6461    303.6402 300.1430141 +22.5333203     343.9413      72.0933      1.516     3.57     5.952572     20.31902      53.3762         5     0.948     0.479   2.17   0
       258    724.7184    296.9993 300.3121125 +22.6919456     2049.554     71.90981      1.528     2.73     5.202133     20.31902     202.1213        25     1.273     1.014  66.87   0
       259    531.5147    291.8557 300.2535681 +22.6326299     788.0415     72.11162      0.777     3.19     5.888244     20.31902     424.5427         7     0.878     0.338  -6.87   0
       260    939.7446    289.6672 300.3815642 +22.7541791     594.4793     72.07497      1.490     4.26     5.506541     20.31902     64.81531        12     1.225     0.852 -84.06   0
       261    386.4767    281.4730 300.2117671 +22.5862135     2085.614      72.0933      1.663     3.44     5.860454     20.31902     219.8231        23     1.335     0.971  59.67   0
       262    598.9152    280.0681 300.2783912 +22.6494201     337.1733     72.11162      1.352     4.92     5.898247     20.31902     46.20234         7     1.474     0.465 -41.62   0
       263    818.2459    275.4921 300.3482549 +22.7137492     251.2034      72.0383      1.344     4.78      5.37472     20.31902     36.23524         6     0.949     0.683  65.98   0
       264    825.8000    274.6944 300.3508699 +22.7157801     668.7134     71.89143      1.348     2.45     5.367521     20.31902     91.93296        10     0.874     0.707 -34.14   0
       265    724.9597    272.2494 300.3202153 +22.6849000     227.0079      72.0383      1.232     4.27     5.395654     20.31902     35.42651         5     1.028     0.505 -33.11   0
       266    707.9194    271.9852 300.3149883 +22.6797240     389.3173     72.00161      1.643     3.40      5.39339     20.31902     55.27822         6     0.948     0.675 -84.71   0
       267    462.1858    260.8889 300.2420170 +22.6029696     1222.303      71.9649      1.454     2.88     5.830998     20.31902     140.6011        18     1.076     0.967   6.09   0
       268    176.8028    262.5348 300.1526614 +22.5179644     169.4655      72.0383      1.390     4.99     5.924984     20.31902     29.88849         6     1.176     0.599 -27.31   0
       269    269.4830    261.3494 300.1818792 +22.5453888     333.7801      72.0383      1.447     4.25     6.011126     20.31902     35.66172         5     1.080     0.476  -1.30   0
       270    845.3688    254.2661 300.3635996 +22.7157586     258.5763     72.01996      1.216     3.77     5.486537     20.31902     41.83434         6     0.716     0.655   7.55   0
       271    707.1177    252.7689 300.3209705 +22.6739576     2355.016     72.01996      1.509     2.66     5.606866     20.31902     281.4206        24     1.239     1.023  60.31   0
       272    968.4379    247.2496 300.4042768 +22.7505570     3134.196      72.0383      1.619     3.17     5.683222     20.31902     320.6078        31     1.289     1.210 -80.53   0
       273    415.2635    236.4388 300.2353342 +22.5818913      574.605     72.00161      1.421     3.88     5.814119     20.31902     85.76183        13     1.112     0.892  49.22   0
       274     90.3973    230.5839 300.1361511 +22.4828978     1516.713     71.89143      1.926     4.03     5.992939     20.31902     121.7298        25     1.407     1.214 -19.47   0
       275    121.2066    230.9850 300.1456011 +22.4922443     609.3279     71.92818      1.466     5.03     5.910165     20.31902     54.28246        10     0.961     0.845  -7.09   0
       276    164.0403    227.9234 300.1599151 +22.5041980      5208.61     71.98326      1.562     5.58     5.785543     20.31902     770.2128        21     1.925     0.456 -56.33   0
       277    984.1854    228.1796 300.4153763 +22.7497792     412.9334     72.00161      1.237     3.03     5.840073     20.31902     52.12347         6     0.744     0.562  41.68   0
       278    827.6309    224.3120 300.3677802 +22.7018340     368.0506     72.00161      1.511     4.71     5.758065     20.31902     48.09916         7     1.008     0.624  41.27   0
       279    174.2273    222.8159 300.1647396 +22.5057826      615.972      72.0383      1.825     3.68     5.809741     20.31902       55.332        11     1.109     0.723 -34.82   0
       280    969.2452    220.2197 300.4132942 +22.7430199     267.5337     72.05664      1.317     4.35     5.789762     20.31902     45.76395         6     0.930     0.638  30.70   0
       281     30.3483    219.3881 300.1211126 +22.4616885     476.4801     72.01996      2.006     5.29     6.118307     20.31902     32.94865         8     1.012     0.781  74.12   0
       282    168.2990    216.2008 300.1650405 +22.5021062     3123.678     71.87305      0.790     1.69      5.79389     20.31902     1078.397         9     0.783     0.467  83.65   0
       283    850.2126    216.5227 300.3773502 +22.7063491     370.4151      72.0383      1.499     4.47     5.681217     20.31902     46.76118         7     1.142     0.498  -2.40   0
       284    778.8585    214.2854 300.3558196 +22.6843567     616.6163     72.12994      1.288     3.18     5.907629     20.31902     80.66603         8     0.785     0.753  59.88   0
       285    369.1125    213.9851 300.2282462 +22.5616175     480.1794      71.9649      1.572     2.76     5.819364     20.31902     58.86297         6     0.946     0.479 -10.22   0
       286    876.8649    203.4242 300.3899123 +22.7105536     1917.768     72.00161      1.468     2.74     5.684046     20.31902     248.2185        24     1.149     1.064 -89.50   0
       287    295.4769    200.3713 300.2097405 +22.5356527     2183.898     72.00161      1.618     2.95     5.961249     20.31902     212.0135        26     1.285     1.073  55.62   0
       288    373.4021    195.4749 300.2355830 +22.5575819     1126.797     71.92818      1.647     3.21     5.795164     20.31902     115.5252        17     1.050     1.010  73.17   0
       289    814.9916    194.6933 300.3734416 +22.6895312     324.9149     71.92818      1.699     4.46     5.865841     20.31902     31.02501         5     1.025     0.553 -76.22   0
       290    775.4221    195.1321 300.3609581 +22.6778186     413.7328     72.01996      1.308     3.50     5.918502     20.31902     61.55627        10     0.986     0.769  41.25   0
       291    882.6444    192.4113 300.3952863 +22.7091135     443.5124     72.01996      1.454     4.06     5.736546     20.31902     43.71689         9     0.985     0.672  27.84   0
       292    420.3589    192.8075 300.2510676 +22.5708756     326.8451      72.0383      1.774     2.86     5.777195     20.31902     35.19701         5     0.739     0.439 -71.08   0
       293    190.0960    187.5077 300.1811230 +22.5003923     758.1359     72.20317      1.608     4.48     5.881114     20.31902     66.80424        15     1.217     1.018 -65.73   0
       294    308.2491    187.4515 300.2179040 +22.5357649     292.9955     72.05664      1.347     3.51     5.921981     20.31902     38.23991         5     0.752     0.473  15.32   0
       295    728.0734    184.9212 300.3495042 +22.6607137     1700.663     72.12994      1.464     2.49     5.932186     20.31902      210.461        22     1.082     0.999 -83.88   0
       296    793.2029    184.6315 300.3699080 +22.6801176     575.3517     72.00161      1.479     3.03      5.91617     20.31902     75.92078         9     0.969     0.654  38.78   0
       297    211.4185    181.0592 300.1898465 +22.5049265     626.0941     71.98326      1.504     3.54     5.952884     20.31902     68.57625        10     0.957     0.712  -7.95   0
       298    999.5678    177.5631 300.4365902 +22.7398117     760.9214      72.0383      1.450     3.05     5.912648     20.31902     83.71327        15     1.017     0.899  28.99   0
       299    732.1340    175.5546 300.3538069 +22.6592343     863.8699     72.01996      1.927     5.24     5.934192     20.31902     83.48795        17     1.538     0.841 -82.35   0
       300    501.9854    177.1516 300.2815645 +22.5908127     384.6679     72.05663      1.609     3.88     5.799381     20.31902     41.78248         6     1.206     0.359   0.10   0
       301    652.5192    175.4700 300.3290147 +22.6353859     1141.843     72.12994      1.346     2.33     5.868287     20.31902     167.1719        18     1.070     0.942  81.17   0
       302    473.8974    172.0860 300.2744581 +22.5809476     448.8235     72.18487      1.630     3.91     5.770064     20.31902      36.2302         6     0.763     0.575 -36.22   0
       303    847.9714    167.1388 300.3926626 +22.6914694       1425.2     72.01996      1.485     3.12     5.874538     20.31902     144.8876        21     1.232     1.019  20.89   0
       304    578.9495    167.3052 300.3087341 +22.6110192     952.3654      72.0933      1.450     2.40     5.816774     20.31902     118.8281        13     1.051     0.803 -48.85   0
       305    859.9634    166.1500 300.3967242 +22.6947721     958.5436      72.0383      1.594     3.98     5.865812     20.31902     96.33132        17     1.187     1.059  79.84   0
       306    906.3469    165.2122 300.4115002 +22.7083765     387.8051      72.0383      1.593     4.10     5.865408     20.31902     30.95752         6     0.735     0.652  -8.67   0
       307   1021.0269    157.0324 300.4499452 +22.7403192     1669.153     68.44584      1.641     3.47        5.909     20.31902     168.8431        25     1.262     1.158 -35.90  24
       308    976.8140    156.4502 300.4363324 +22.7269301     1053.944     72.05663      1.523     3.06     5.897869     20.31902     132.6258        21     1.202     1.051 -28.88   0
       309    211.1215    149.3607 300.2000294 +22.4957291     540.5002     72.00161      1.238     3.25     5.958412     20.31902     85.01582         9     1.028     0.600  -7.19   0
       310     72.7212    143.8221 300.1587818 +22.4526796     2224.186     72.00161      1.729     3.51     6.271885     20.31902     205.2551        32     1.429     1.261 -87.69   0
       311    895.9038    141.4108 300.4159574 +22.6984032     720.9993     71.92818      1.487     3.16     5.894538     20.31902     79.80672        11     1.053     0.739   5.57   0
       312     22.1419    140.9521 300.1439882 +22.4367013       529.39     72.07497      1.770     3.88      6.69173     20.31902     52.12623        10     1.245     0.799   8.96   0
       313    230.1355    137.2791 300.2098608 +22.4979521     5697.208     72.12994      1.585     2.93     5.988328     20.31902     569.4104        44     1.394     1.262  43.15   0
       314    212.2520    138.1239 300.2040233 +22.4928388     349.6272     72.01996      1.379     4.08     5.957286     20.31902     44.58179         8     1.132     0.605  85.70   0
       315     14.3073    131.5318 300.1446061 +22.4316481     1307.456     72.14825      1.933     4.01     6.742143     20.31902     119.4559        21     1.287     1.221 -35.12   0
       316    213.3707    128.2550 300.2075700 +22.4903378     673.8524     72.01996      1.581     4.54     5.956388     20.31902     72.73436        12     1.214     0.876  18.03   0
       317    874.2585    119.0359 300.4164566 +22.6854899     3531.634     72.01996      1.554     3.07     5.912034     20.31902     375.7113        30     1.300     1.121 -80.88   0
       318    978.0419    117.9383 300.4491995 +22.7162119     2924.853     72.00161      1.633     3.24     5.900537     20.31902     260.2565        33     1.346     1.269 -64.71   0
       319    423.6698    114.3284 300.2775379 +22.5493053     606.7855      72.0933      1.320     2.97     5.752465     20.31902     72.47995        11     0.947     0.763  36.74   0
       320    348.1982    105.7836 300.2568102 +22.5242536     830.9625     71.90981      2.305     5.06     5.754314     20.31902     58.55257        15     1.424     0.945 -32.75   2
       321    114.0575    102.9662 300.1848760 +22.4533249     587.2595      72.0383      1.737     4.63     6.157928     20.31902     58.47417        11     1.095     0.749 -13.10   0
       322    475.1353    101.3689 300.2977654 +22.5609850     1659.099     72.01996      1.473     2.83     5.751628     20.31902     211.8088        22     1.140     1.082 -70.03   0
       323    403.0916    101.9605 300.2751387 +22.5395889     525.2242     72.01996      1.640     3.96     5.751193     20.31902     48.58562         8     0.912     0.700  80.09   0
       324    536.9151    101.1015 300.3170964 +22.5793994     392.0927     72.18487      1.286     3.61     5.796043     20.31902     48.84999         7     0.922     0.574  12.69   0
       325    218.6334     96.8204 300.2193948 +22.4828803     421.0435     72.01996      1.402     2.32     5.960555     20.31902     53.92627         6     0.693     0.608 -37.81   0
       326    691.4213     95.9589 300.3669141 +22.6241549     294.5303     72.05664      1.629     4.19     5.828239     20.31902     27.18884         5     0.786     0.637  -6.48   0
       327    763.4572     90.6778 300.3910863 +22.6441864     411.4331     72.05664      1.527     4.44     5.963128     20.31902     47.14598         8     1.253     0.448  79.24   0
       328    909.2899     85.2952 300.4383225 +22.6862559     348.8434     72.20317      1.897     3.99      6.01269     20.31902     43.32571         5     0.919     0.495  45.11   0
       329    249.1408     81.0390 300.2340006 +22.4874804     5989.942     72.01996      1.636     3.22     5.825149     20.31902     579.6173        39     1.406     1.255  71.18   0
       330    755.6190     82.2465 300.3913744 +22.6394156     409.5434     72.05664      1.237     2.30     6.002772     20.31902     45.17307         5     0.686     0.467 -74.44   0
       331    100.5319     80.8533 300.1878358 +22.4429198     702.9322      72.0383      1.669     4.71     6.324601     20.31902     72.13866        11     1.145     0.753  -8.47   0
       332    878.1911     79.3532 300.4305447 +22.6752452     253.6853      72.0383      1.349     3.45     6.043118     20.31902     31.38516         5     0.769     0.447  15.65   0
       333     10.8033     71.4528 300.1629862 +22.4133400     404.4496     72.01996      1.843     5.22     6.599234     20.31902     40.31964         7     1.136     0.677  33.24   0
       334    495.2543     66.5338 300.3153206 +22.5569894     6283.625     72.07497      1.568     2.93     5.751824     20.31902     660.4977        40     1.380     1.178  73.59   0
       335    380.9781     66.4571 300.2797589 +22.5227613     622.8261      72.0383      1.401     3.44     5.750774     20.31902     72.97715        10     1.010     0.686 -65.82   0
       336    551.9416     61.5903 300.3345820 +22.5725327     223.0038     71.98326      1.185     4.04     5.791959     20.31902      43.4251         6     0.968     0.482   6.56   0
       337    187.9633     58.0001 300.2224329 +22.4625386     1565.268     72.00161      0.423    -6.87     5.965359     20.31902     1312.727         5     0.386     0.358   0.01   0
       338    747.9189     56.5159 300.3973114 +22.6297083     721.3128     72.14825      1.465     3.60     6.112895     20.31902     96.85634        16     1.185     0.967 -32.46   0
       339    840.3441     55.2932 300.4265341 +22.6570013      242.609     72.07497      1.082     2.46     6.153106     20.31902     54.73129         6     0.701     0.596 -45.08   0
       340    187.6743     50.5638 300.2247524 +22.4603149     635.2715      71.9649      1.824     4.55     5.981404     20.31902     49.97578        11     1.274     0.654  12.03   2
       341    546.5062     49.2600 300.3368839 +22.5673596     493.6578     72.11162      1.681     3.97     5.747633     20.31902     45.37183         8     0.900     0.684 -38.63   0
       342    623.6095     46.6534 300.3617545 +22.5896812     6396.618     72.01996      1.565     2.87     6.265245     20.31902     777.2416        38     1.357     1.142  73.54   0
       343    398.4949     45.6483 300.2919552 +22.5220219     1489.503     72.05664      1.597     3.05     5.750774     20.31902     178.8449        19     1.157     0.989  72.22   0
       344    161.2684     46.0952 300.2179866 +22.4511228     1986.522     72.16656      0.745     2.13     6.213094     20.31902     820.8898        10     0.853     0.385 -24.09   0
       345    664.6087     44.1944 300.3753301 +22.6012403     830.3562     71.87305      1.464     3.03     6.167622     20.31902     100.5517        14     0.979     0.924  62.71   0
       346    680.7429     40.4212 300.3815821 +22.6049816     616.4057      72.0383      1.448     2.71     6.172513     20.31902     72.40628        10     0.915     0.685  81.60   0
       347    950.5544     38.0558 300.4665080 +22.6849965     530.9193     72.05663      1.480     3.12     6.475443     20.31902     61.95047         8     0.853     0.748  77.54   0
       348    147.4564     37.9821 300.2163193 +22.4446548     625.9828     72.00161      1.602     4.08      6.31298     20.31902     77.32355        11     1.251     0.834  44.27   0
       349    989.7642     37.6255 300.4788859 +22.6965958     199.4239      72.0383      1.097     2.81     6.475443     20.31902     37.98092         5     0.724     0.450  18.22   0
       350    719.2643     35.7980 300.3950897 +22.6151751     549.2025     72.01996      1.601     2.57     6.203296     20.31902     80.87132         9     0.913     0.726 -38.17   0
       351    667.8533     31.6904 300.3803929 +22.5986135     2690.614     72.05664      1.463     2.57     6.244814     20.31902     363.6947        27     1.201     1.082  74.27   0
       352    309.2057     32.8727 300.2682990 +22.4916191     500.7675      71.9649      1.924     2.73     5.659632     20.31902     54.13535         5     0.888     0.559 -57.37   0
       353     59.2229     33.0022 300.1904959 +22.4167974         1974      71.9649      0.640     1.53     6.449895     20.31902      987.608         8     0.675     0.401  53.87   0
       354    682.5737     30.6366 300.3853231 +22.6027140     902.1578      72.0383      1.801     4.46     6.231629     20.31902     68.34023        17     1.444     0.809  52.53   0
       355    754.3253     23.3474 300.4100561 +22.6220799     1551.247     72.01996      1.514     2.65     6.262663     20.31902     171.2455        20     1.179     0.956  59.08   0
       356    157.3403   1016.8798 299.9015983 +22.7286314     651.1413     72.07497      3.160     9.86     97.33582     20.31902     39.78661        15     2.557     1.061  46.12  16
       357    497.8703     15.8375 300.3325613 +22.5431918     1167.807     71.98326      1.544     2.88     5.732971     20.31902     129.7653        14     1.010     0.844  -7.15   0
       358     71.1483     15.4881 300.1998774 +22.4153368     539.6946     72.05663      1.692     4.04     6.454427     20.31902     49.96043         6     0.755     0.618 -34.75   0
       359    133.9138   1006.7188 299.8976192 +22.7186876     1632.045     72.16656      3.430     9.96     88.16434     20.31902     51.29182        39     2.276     1.703 -36.80   2
       360    783.9621     12.9336 300.4226725 +22.6279472     550.0121     72.00161      1.736     3.13     6.306712     20.31902     58.88988         9     0.925     0.688   8.57   0
       361    296.8339   1012.2477 299.9464963 +22.7691579     1659.152     72.05664      3.567     5.74      7.01562     20.31902     85.69202        30     1.734     1.408  17.21   0
       362    148.6267   1004.8940 299.9027876 +22.7225796     610.4314     71.94654      2.156     6.45     86.84953     20.31902     42.63047         6     1.418     0.823  36.29   2
       363    200.6747   1003.1168 299.9195522 +22.7376882     1525.446     72.11162      3.755    11.40     84.92165     20.31902     62.29927        28     2.747     1.623 -65.62   3
