#   1 NUMBER                 Running object number                                     
#   2 X_IMAGE                Object position along x                                    [pixel]
#   3 Y_IMAGE                Object position along y                                    [pixel]
#   4 ALPHA_J2000            Right ascension of barycenter (J2000)                      [deg]
#   5 DELTA_J2000            Declination of barycenter (J2000)                          [deg]
#   6 FLUX_APER              Flux vector within fixed circular aperture(s)              [count]
#   7 FLUXERR_APER           RMS error vector for aperture flux(es)                     [count]
#   8 FLUX_RADIUS            Fraction-of-light radii                                    [pixel]
#   9 FWHM_IMAGE             FWHM assuming a gaussian core                              [pixel]
#  10 BACKGROUND             Background at centroid position                            [count]
#  11 THRESHOLD              Detection threshold above background                       [count]
#  12 FLUX_MAX               Peak flux above background                                 [count]
#  13 ISOAREA_IMAGE          Isophotal area above Analysis threshold                    [pixel**2]
#  14 A_IMAGE                Profile RMS along major axis                               [pixel]
#  15 B_IMAGE                Profile RMS along minor axis                               [pixel]
#  16 THETA_IMAGE            Position angle (CCW/x)                                     [deg]
#  17 FLAGS                  Extraction flags                                          
         1    687.2879     16.0999 300.3928997 +22.6016217     826.5389      72.4548      1.534     2.81     6.252968       20.395     83.73324        12     0.956     0.790  65.31   0
         2    492.7270     15.2253 300.3325589 +22.5431483     1137.516     72.32609      1.485     2.88     6.610714       20.395     135.2172        18     1.124     0.903  77.21   0
         3     65.8567     14.9435 300.1998190 +22.4152488     594.4333     72.36288      1.883     3.70     6.663959       20.395     58.93125        11     1.011     0.876 -18.43   0
         4    396.8011     13.3177 300.3033057 +22.5138861     843.5498     72.17871      1.716     4.04     6.145606       20.395     69.97137        16     1.155     1.036 -89.00   0
         5    735.8071      4.0358 300.4119344 +22.6126665     585.2154     68.93389      1.376     5.54     6.274573       20.395     72.21651        11     1.231     0.722  33.55  16
         6    168.0933      3.2562 300.2353960 +22.4425133     3591.169     66.01431      1.628     3.09     6.724897       20.395     357.7735        32     1.409     1.150  11.76  24
         7    292.8300   1011.9853 299.9467442 +22.7694660     1260.249     72.28927      2.845     5.05     5.988299       20.395     91.35235        20     1.483     1.067  74.48   2
         8     82.7654   1011.5547 299.8815570 +22.7062993     5237.401     72.32609     16.401    94.45      80.4631       20.395      148.337      2338    19.058    16.693  77.72  27
         9     72.9167    952.6226 299.8976634 +22.6864505     5107.762     72.25243     25.840    27.32     31.34932       20.395     1331.287      3078    19.768    12.548 -25.56  27
        10    635.7189    984.1940 300.0625494 +22.8643394     9083.788     72.21558      2.070     5.10     4.499897       20.395     507.4647        50     1.641     1.493  74.37   3
        11    730.5963    987.2790 300.0911162 +22.8936690      779.533     72.19715      2.241     7.57     4.051043       20.395     49.80932        14     1.641     0.977   7.36   0
        12    165.4809    978.3199 299.9180837 +22.7215983     1740.964     72.41805      4.643    12.57     64.48723       20.395     52.27547        44     2.664     1.977   6.38   3
        13     73.1712    916.5344 299.9094779 +22.6761813     3909.553     72.30769     26.789    61.12     13.84256       20.395     92.49324      1160    13.849     7.484 -23.97  27
        14      5.8592    981.6953 299.8673676 +22.6746548     687.4136     72.36288      4.113     4.26    0.4476641       20.395     34.79293         5     1.041     0.497  36.57  16
        15    215.2018    984.2272 299.9316251 +22.7382129     4397.573     72.23401      7.760    27.59     67.68914       20.395     91.71432       325     6.267     4.307 -63.34   3
        16    162.3337    973.2648 299.9187492 +22.7192045     1693.995     72.34449     12.615    15.29     60.18689       20.395     51.18792        42     3.847     1.689  62.96   3
        17    924.2099    970.2870 300.1570254 +22.9468175     689.0139     72.23401      2.373     5.55     4.136314       20.395     42.65328        10     1.269     0.685 -74.47   2
        18    921.2194    970.8863 300.1558974 +22.9460935     590.6155     72.21558      1.914     4.48     4.127334       20.395     49.81599         6     1.401     0.407 -59.46   3
        19    196.0631    985.5803 299.9252326 +22.7328576     3699.776     72.27086      7.445    23.62     70.43334       20.395      86.0181       219     4.734     4.572 -24.12   3
        20    543.5352    991.1348 300.0315726 +22.8386892     2435.639     72.34449      2.079     5.01     4.824246       20.395     160.2527        35     1.566     1.479  35.45   0
        21    144.4038    950.3241 299.9206350 +22.7072464     1061.001     72.19715     14.600    18.56     39.75429       20.395     38.74753        20     4.688     2.041  -9.40   3
        22    142.7371    955.8368 299.9183239 +22.7083268     1969.856     72.28928      9.274    14.06     45.10128       20.395     56.06464        39     2.684     2.049 -15.85   3
        23    648.2775    953.3582 300.0764929 +22.8592545     6845.143     72.27086      2.035     4.87     4.449873       20.395     403.1694        51     1.608     1.526  29.67   0
        24    234.5953    972.9268 299.9413328 +22.7407921     7332.189     72.23401      8.093    31.84     48.28563       20.395     172.3998       668     9.974     5.076  60.69  18
        25    160.5316    946.8528 299.9267787 +22.7110910     982.9468     72.30769      6.002     7.75     37.08079       20.395     35.94263        13     1.690     0.995 -86.68   0
        26    556.7560    944.0536 300.0510046 +22.8291437     1540.978     72.30769      1.919     5.17       4.6283       20.395     103.8989        27     1.388     1.301 -34.54   0
        27    239.3793    947.5813 299.9510641 +22.7349594     269.4401     72.28928      1.739     6.70     25.38533       20.395     35.72224         9     1.486     0.847 -17.56   0
        28    450.3424    940.3505 300.0190690 +22.7961696     1021.074     72.34449      1.878     6.25     4.356036       20.395      68.6848        22     1.439     1.250 -85.05   0
        29    381.1635    938.4936 299.9981372 +22.7748879     6425.181     72.25243      1.990     4.50     4.360905       20.395     487.4684        47     1.558     1.472  32.97   0
        30    186.1274    990.3469 299.9205922 +22.7312426     249.0307     72.28927      1.535     5.10      74.5843       20.395     37.82233         5     1.026     0.717 -62.03   1
        31    413.7997    926.3281 300.0122525 +22.7811868     541.0646     72.16026      1.836     4.87     4.331309       20.395     41.84751         6     1.375     0.489 -38.34   0
        32      1.1771    990.6896 299.8629873 +22.6758269     501.1695     55.33025      2.982     3.70    -3.711188       20.395     32.86795         5     1.214     0.324  80.08  25
        33    927.6494    917.5909 300.1752383 +22.9327136     2365.235     72.30769      2.148     5.21     4.533688       20.395     120.8598        34     1.554     1.413 -11.69   0
        34    577.5911    915.1851 300.0668835 +22.8271058      403.035     72.19715      1.948     5.07      4.57787       20.395      36.3923         5     1.122     0.647  18.37   0
        35    426.3186    913.4915 300.0203242 +22.7812585     231.9106     72.41805      1.293     4.06     4.345459       20.395     30.61684         6     1.086     0.435 -55.27   0
        36    716.6937    906.5856 300.1130278 +22.8663367     662.9714     72.21558      1.805     5.81     4.465889       20.395     59.90338        14     1.554     0.768   8.49   0
        37    528.5839    901.9173 300.0559325 +22.8086042     423.2421     72.25243      1.723     4.44     4.525429       20.395      40.5811         7     1.074     0.936  41.57   0
        38    751.1532    900.5753 300.1257248 +22.8749392     992.6614     72.30769      1.876     5.92     4.483843       20.395     58.02512        19     1.275     1.107 -41.15   0
        39    174.2681   1004.5513 299.9122838 +22.7317560     1369.839     72.28928      3.016    12.06     88.70541       20.395     55.08109        30     2.754     1.471  -6.08   3
        40    964.4231    893.8818 300.1944233 +22.9369203     421.0511     72.25243      1.872     6.60     4.833445       20.395       47.105         8     1.385     0.883  45.08   0
        41    819.4691    894.5808 300.1489760 +22.8936910     532.6099     72.28928      1.827     3.04      4.50243       20.395     52.08932         9     1.049     0.878  62.06   0
        42    168.3159    996.6354 299.9130078 +22.7277001     3211.521     72.27086      6.413    25.33     81.50128       20.395     71.20846       184     4.757     4.240 -63.32  18
        43    773.4385    894.2253 300.1347379 +22.8797948     11673.83     72.30769      1.941     4.45     4.502753       20.395     710.9557        58     1.566     1.505   3.15   0
        44    143.8053   1006.6018 299.9021445 +22.7232011     477.6085      72.1049      1.892     5.21      90.5507       20.395     33.30237         7     1.201     0.639  41.12   0
        45     84.1501    885.3217 299.9230392 +22.6705274     919.5878     72.28927      7.711     8.27     10.03392       20.395     67.89481        17     1.717     1.294 -21.05   0
        46    195.5010   1004.0720 299.9190428 +22.7379908     1297.322     72.43642      3.539    10.12     87.64281       20.395     50.45901        20     2.484     1.150  15.39   2
        47    781.9689    876.4443 300.1431796 +22.8772453     1335.659     72.34449      1.875     4.49     4.528912       20.395     107.8557        23     1.346     1.145  -0.02   0
        48    478.7581    882.6664 300.0466749 +22.7881394     511.1796     72.27086      1.718     5.19     4.450984       20.395     33.10577         9     1.312     0.579  12.06   0
        49    965.3196    875.3623 300.2007252 +22.9318689     371.9023     72.25243      1.843     6.98     4.919857       20.395     42.22965         7     1.386     0.985  79.91   0
        50    820.2842    870.2399 300.1571451 +22.8869450     974.3325     72.25243      2.638     5.81     4.535124       20.395     49.25788        16     1.470     0.990  -2.30   2
        51    868.6339    861.1794 300.1751712 +22.8988296     549.7756     72.30769      2.112     4.58     4.532278       20.395     50.77357        12     1.226     1.088 -89.73   0
        52    719.9850    860.1678 300.1291471 +22.8539960     778.2359     72.27086      2.269     6.50     4.528914       20.395     50.46551        17     1.508     1.140   6.85   0
        53    731.1363    857.2742 300.1335641 +22.8565072     628.9766     72.32609      1.884     6.19     4.555654       20.395     48.48374        12     1.345     1.026  89.49   0
        54    432.4067    856.2230 300.0408402 +22.7666521     4348.079     72.25243      1.893     3.99     4.378708       20.395     309.5985        41     1.473     1.370  41.11   0
        55    210.9563    845.5422 299.9754009 +22.6971676     323.4753     72.28927      1.536     4.42     6.224956       20.395      43.5682         5     1.167     0.477  -7.77   0
        56    476.0734    844.6174 300.0582094 +22.7764153     399.5789     72.28927      1.742     4.23     4.476205       20.395     36.29355         6     1.249     0.409 -12.84   0
        57    629.9456    986.5256 300.0599920 +22.8632775     8742.213     72.30769      2.104     5.26     4.569504       20.395     512.0714        51     1.660     1.551  19.36   3
        58     75.5570    843.8715 299.9338432 +22.6560639     268.6105     72.25243      1.606     4.27     6.097922       20.395     27.70592         5     0.934     0.555 -43.98   0
        59    157.9240    841.7751 299.9601327 +22.6801769     755.5247     72.30769      1.789     5.05     7.959805       20.395     59.37169        16     1.259     1.158  25.28   0
        60    134.7544    838.7534 299.9539106 +22.6723587     1543.679     72.32609      1.923     4.86      7.20437       20.395      134.881        30     1.509     1.343  81.57   0
        61      1.1850   1001.9664 299.8593218 +22.6790611     522.3386     55.33025      4.243     4.22     -4.23951       20.395     31.53196         5     1.394     0.365 -84.30  25
        62   1006.6971    828.3796 300.2289144 +22.9307644     2039.194     72.21558      2.069     5.46     5.231764       20.395     126.1822        35     1.582     1.423 -83.14   0
        63    960.9251    826.8459 300.2151281 +22.9166144     2054.821     72.28927      1.892     4.77     5.143488       20.395     123.3113        29     1.421     1.283  44.51   0
        64    744.7053    820.3492 300.1497987 +22.8499702     534.0177     72.36288      1.670     4.02     4.801429       20.395     55.41161        10     1.119     0.863  34.05   0
        65    612.4523    814.5004 300.1104802 +22.8086550     4734.316     72.38128      1.720     3.82      4.84118       20.395     401.0029        34     1.317     1.255   8.36   0
        66    102.9982    814.5374 299.9519087 +22.6558861     360.5023     72.27086      1.684     2.95     5.996837       20.395     39.45453         5     0.755     0.579  89.76   0
        67    414.9814    811.3603 300.0499990 +22.7485530      695.848     72.30769      2.105     5.83     4.477442       20.395     45.01904        16     1.344     1.031  30.08   0
        68    162.6359    807.9628 299.9725885 +22.6718930     1225.797     72.36288      1.969     4.88     6.147122       20.395     94.10558        26     1.481     1.316  16.78   0
        69    634.0000    807.1457 300.1195852 +22.8130019      476.945     72.19715      1.413     2.33      4.93003       20.395     60.51691         5     0.772     0.481 -72.59   3
        70    631.7711    807.4292 300.1187985 +22.8124152     459.3586     72.25243      1.143     3.32     4.926269       20.395     57.73135         6     1.043     0.430  54.22   2
        71   1005.6543    794.4426 300.2396212 +22.9207006     1140.799     72.28928      2.058     6.16      5.28585       20.395     72.64487        25     1.522     1.284 -57.06   0
        72    788.5732    794.3273 300.1719352 +22.8556413     4254.283     72.28928      1.782     3.78     4.951658       20.395     357.7314        35     1.355     1.305  -7.15   0
        73    197.0333    788.6669 299.9895572 +22.6766770     414.3709     72.28927      1.637     5.88     5.693254       20.395      46.6834         9     1.263     0.770 -20.04   0
        74    505.7316    786.5182 300.0863309 +22.7686316     552.9236     72.39967      1.707     5.49     4.791244       20.395     59.52883        15     1.359     1.086 -66.50   0
        75    152.0181    784.1230 299.9770348 +22.6618700      1035.72     72.28927      2.051     5.58     5.738658       20.395     85.31559        25     1.503     1.390  49.09   0
        76    567.3239    780.1179 300.1075959 +22.7852574     410.7146     72.39967      1.344     3.88     5.011231       20.395     45.66541        11     0.993     0.846  82.53   0
        77    301.4992    776.5493 300.0259934 +22.7045335     54214.95     72.38128      1.831     4.05     5.129243       20.395     4595.011       110     1.600     1.535  24.73   0
        78    559.3624    775.6932 300.1065539 +22.7816007     1647.202     72.27086      1.755     4.23     5.029069       20.395     149.7491        24     1.406     1.084  67.52   0
        79    972.4789    775.3825 300.2354625 +22.9052882     929.8188     72.28928      1.908     6.00     5.233603       20.395     65.17423        18     1.481     0.917 -10.00   0
        80    229.8640    774.9506 300.0042265 +22.6825900     515.7852     72.34449      2.216     6.76     5.610923       20.395     45.51842        12     1.516     0.912 -13.51   0
        81    588.4670    771.6072 300.1169489 +22.7891512     871.6173     72.28928      1.746     4.04     4.964406       20.395     72.57191        16     1.094     1.003  28.19   0
        82    599.5820    770.5539 300.1207542 +22.7921802     463.7486     72.32609      1.578     4.07      4.93765       20.395     52.85591        11     1.236     0.876 -10.58   0
        83    704.8470    766.8384 300.1547666 +22.8226594     388.6622     72.34449      1.699     5.01     4.939878       20.395     41.87867         7     1.133     0.627   5.13   0
        84    742.4244    757.1568 300.1696273 +22.8311384     700.1458     72.34449      1.561     3.19     4.866466       20.395     86.39424        12     0.993     0.843  40.20   0
        85    351.2650    753.8286 300.0488639 +22.7129375     31554.63     72.28928      1.743     3.63     4.852044       20.395     3023.022        74     1.471     1.438   4.82   0
        86    365.5557    754.4274 300.0531172 +22.7173944      2055.63     72.30769      1.823     3.71     4.826209       20.395     182.3428        27     1.374     1.150  43.80   2
        87    362.5888    748.4594 300.0541332 +22.7147921     751.2448     72.25243      2.251     3.37     4.844127       20.395     66.76385         9     0.980     0.760  42.05   3
        88    874.3777    749.9987 300.2131039 +22.8686124      2907.84     72.21558      1.800     4.00      5.13657       20.395     207.0975        31     1.348     1.294  77.36   0
        89    632.1671    746.0119 300.1388832 +22.7948991     952.8384     72.27086      1.686     4.11     4.938417       20.395     85.07141        19     1.234     1.030 -29.03   0
        90    233.5979    745.4848 300.0149633 +22.6752565     760.5964     72.21558      1.810     6.22     5.575013       20.395     72.70271        18     1.467     1.092 -85.17   0
        91    469.3154    746.3774 300.0880357 +22.7461925     625.4379     72.23401      1.991     3.19     4.822005       20.395     49.52203         6     0.820     0.535 -41.83   0
        92     39.2732    741.0778 299.9559727 +22.6156997     424.4397     72.39967      1.463     4.33     5.639948       20.395     38.90115         7     1.248     0.427  64.29   0
        93    479.5071    740.7859 300.0930263 +22.7476426     855.1759     72.21558      1.475     4.09     4.848284       20.395     82.77197        14     1.111     0.871  11.02   0
        94    880.7293    737.7609 300.2190623 +22.8669989     501.6242     72.23401      1.735     6.61     5.262753       20.395     39.21513        14     1.319     0.930 -27.85   0
        95    381.2207    737.1226 300.0636163 +22.7171250     314.6993     72.28927      1.378     4.94     4.870012       20.395     43.10077         7     1.195     0.595 -71.31   0
        96    338.5732    736.2347 300.0506311 +22.7040828      331.346     72.30769      1.610     4.59     4.948595       20.395     42.56864         6     1.228     0.487 -85.56   0
        97    425.1310    736.2604 300.0775659 +22.7300424     406.1438     72.32609      1.526     3.81     4.868808       20.395     38.79073         6     1.028     0.405 -10.34   0
        98     67.0412    735.3376 299.9664687 +22.6223844     529.8057     72.27086      1.787     5.65     5.648729       20.395      43.7583         8     1.202     0.748 -36.08   0
        99    857.8570    732.9650 300.2134860 +22.8587700     429.8813     72.30769      1.534     3.74     5.238393       20.395     40.30775         5     0.811     0.494 -20.43   0
       100    231.4932    730.2982 300.0192432 +22.6702681      415.265     72.47317      1.559     4.15     5.596607       20.395     56.59594        10     1.133     0.831 -33.19   0
       101    554.2433    720.6331 300.1228520 +22.7642584     468.6631     72.34449      1.476     4.64     5.111799       20.395      57.7347        10     1.146     0.943  47.32   0
       102    524.2921    718.9911 300.1140560 +22.7548100     701.7331     72.21558      1.675     4.94     5.069807       20.395     67.03644        13     1.268     0.912 -66.76   0
       103    940.8209    715.3548 300.2450916 +22.8785580     4644.332     72.34449      1.848     3.92     5.390736       20.395     328.7931        42     1.432     1.387 -60.98   0
       104    546.2652    716.1359 300.1218280 +22.7605761     1371.446     72.34449      1.560     3.61     5.146153       20.395       141.27        21     1.215     0.987  33.63   0
       105    466.2304    715.8241 300.0970030 +22.7364971     240.8584     72.28927      1.440     4.56     4.928975       20.395     45.72026         6     0.972     0.607 -63.48   0
       106    628.0790    711.7240 300.1487510 +22.7838278     437.3781     72.39967      1.794     4.36     5.098935       20.395     37.17237         7     0.904     0.597  24.13   0
       107    929.4077    706.8405 300.2442970 +22.8726933     1722.273     72.32609      1.804     3.94     5.478312       20.395      121.315        28     1.323     1.247  22.30   0
       108    292.3272    700.3829 300.0478889 +22.6799273     929.9693     72.28928      1.688     4.29     5.400553       20.395     81.74763        18     1.214     1.124 -23.93   0
       109    158.8130    701.1815 300.0060984 +22.6401160     165.4721     72.25243      1.125     3.11     5.637963       20.395      41.1132         5     0.872     0.426 -44.83   0
       110    960.5856    696.9427 300.2572419 +22.8791855     1598.909     72.27086      1.832     4.39     5.381134       20.395     110.1303        28     1.421     1.243 -80.54   0
       111    755.6724    697.9217 300.1930063 +22.8180929     2677.501     72.39967      1.729     3.75     5.219845       20.395     200.3419        30     1.332     1.190  -2.34   0
       112    140.9004    684.4087 300.0059772 +22.6299316     764.7479     72.16026      1.909     5.19     5.668569       20.395     66.32061        18     1.344     1.115  70.36   0
       113    838.1270    683.7977 300.2233080 +22.8387341      549.754     72.19715      1.558     3.94      5.47534       20.395      51.2588         8     1.101     0.579  37.31   0
       114    874.1377    674.9526 300.2374143 +22.8469779     149292.7     72.30769      1.690     3.49     5.612426       20.395     11871.62       146     1.534     1.519 -39.31   0
       115    636.2360    678.9003 300.1619573 +22.7768456      392.124     72.27086      1.483     4.89     5.334858       20.395     39.55011         8     1.341     0.505 -23.77   0
       116   1021.2678    676.6418 300.2827772 +22.8915203     1197.881     67.82434      1.808     4.76     5.211551       20.395     88.81137        21     1.456     1.053  37.64  24
       117    726.3216    675.2418 300.1912242 +22.8027851     694.2296     72.27086      1.532     4.11      5.42557       20.395     69.87364        15     1.172     0.941 -27.32   0
       118    906.8930    668.1985 300.2498273 +22.8548464     345.3999     72.19715      1.467     4.62     5.616416       20.395     36.30335         8     0.845     0.718  27.58   0
       119    560.2377    663.6699 300.1432262 +22.7496985     1652.719     72.25243      1.529     2.98     5.378188       20.395     178.0549        22     1.169     1.082  58.04   0
       120    741.6218    661.0368 300.2006090 +22.8032879      9395.28     72.30769      1.585     3.28     5.448833       20.395     831.8374        45     1.304     1.274 -15.27   0
       121    243.0345    655.9187 300.0469973 +22.6523868     4955.818     72.25243      1.655     3.47     5.562978       20.395     491.2467        36     1.373     1.236  35.31   0
       122    325.2474    653.9027 300.0732322 +22.6764583     1164.718     72.32609      1.540     3.51     5.289971       20.395     105.5458        18     1.103     1.044 -75.97   0
       123    200.6960    651.3598 300.0353084 +22.6383826     487.2523     72.28928      1.595     5.34     5.585776       20.395     56.27025        13     1.225     1.109  39.59   0
       124    533.4536    649.7039 300.1394196 +22.7376615     939.4983     72.36288      1.929     3.76     5.410859       20.395     68.41044        16     1.133     0.903 -12.76   0
       125    525.0501    641.7486 300.1393862 +22.7328587     3201.982     72.32609      1.516     3.00     5.417448       20.395     339.2117        27     1.158     1.125 -83.33   0
       126    515.2845    635.4797 300.1383808 +22.7281320     1412.443     72.43642      1.519     3.25     5.404422       20.395     141.9353        20     1.117     1.092  16.84   0
       127    444.0232    634.8879 300.1163813 +22.7066049     207.7261     72.21558      1.189     4.48     5.040902       20.395     37.44109         7     1.057     0.539 -57.06   0
       128    908.7211    634.3781 300.2613844 +22.8456743      439.856     72.27086      1.561     3.12     5.567796       20.395     47.75154         6     1.009     0.479  -4.95   0
       129    178.6691    631.7375 300.0348309 +22.6261467     664.9335     72.32609      1.676     5.64      5.58625       20.395     57.20841        15     1.262     0.981  41.25   0
       130    192.7066    629.9446 300.0397791 +22.6298417     618.1314     72.34449      1.693     4.99     5.555345       20.395     54.61917        13     1.140     1.104 -26.45   0
       131    962.2435    626.7933 300.2805490 +22.8595200     490.0719     72.30769      1.732     5.81     5.289364       20.395     52.98287         8     1.008     0.944 -54.50   0
       132    218.7346    626.7217 300.0489215 +22.6367217     602.2463     72.38128      1.770     4.98      5.49336       20.395     60.37857        12     1.233     1.015   4.56   0
       133    539.0150    625.8517 300.1488995 +22.7324786     486.9503     72.28927      1.614     4.06     5.572888       20.395     47.00364         9     1.001     0.770  28.09   0
       134    439.9845    625.2148 300.1182657 +22.7026171     1928.452     72.23401      1.600     3.31     5.036124       20.395     189.3269        24     1.181     1.112  26.92   0
       135   1015.6210    623.0103 300.2984373 +22.8744130     784.3256     72.27086      1.694     4.80     4.781502       20.395     61.27745        15     1.173     0.983  14.83   0
       136     93.9761    619.9110 300.0123371 +22.5973538      20078.9     72.21558      1.876     3.61     5.704148       20.395     1832.644        70     1.566     1.493  26.43   0
       137     15.9360    621.4149 299.9875913 +22.5743774     678.0143     72.25243      1.896     3.73     5.754408       20.395     64.79382        11     1.123     0.891  72.54   0
       138    524.9305    620.4362 300.1462714 +22.7267028     1087.047     72.27086      1.647     3.15     5.530229       20.395     107.9854        16     1.075     0.959  62.72   0
       139    560.7045    619.8030 300.1576206 +22.7372409     415.7415     72.19715      1.204     2.09     5.630069       20.395     60.33506         6     0.723     0.510  39.61   0
       140    278.4782    611.6476 300.0724033 +22.6503085     335.9218     72.28928      1.301     4.58        5.409       20.395     36.83159         8     1.020     0.583 -49.72   0
       141    943.2462    607.0458 300.2810349 +22.8481560     1093.653     72.32609      1.699     3.65     5.413571       20.395     96.16785        17     1.165     0.981   3.44   0
       142     40.0392    604.1384 300.0006930 +22.5766514     1596.688     72.28927      2.157     5.87     5.770606       20.395     98.99501        32     1.835     1.282  68.81   0
       143    809.9031    605.4657 300.2399511 +22.8077732     555.1887     72.39967      1.518     4.17     5.470423       20.395     45.06899        10     1.052     0.743  -3.61   0
       144    106.4968    604.8484 300.0211214 +22.5967874     408.1922     72.32609      1.959     4.90     5.674379       20.395     37.13705         7     1.042     0.652 -40.50   0
       145    487.9234    601.1837 300.1409983 +22.7100842     504.2209     72.28927      1.676     4.75     5.413517       20.395     58.13729         9     0.998     0.642  25.72   0
       146    281.1346    600.3374 300.0769029 +22.6478586     266.4406     72.32609      1.341     5.08     5.398711       20.395     39.47778         8     1.051     0.693  59.96   0
       147    883.4011    600.1039 300.2646176 +22.8282421     846.5795     72.19715      2.431     4.72     5.492846       20.395     65.34923        14     1.284     0.914   6.71   2
       148    347.1912    598.9480 300.0979102 +22.6672622     347.3637     72.28927      1.460     3.90     5.173152       20.395     33.94724         5     0.827     0.526  27.64   0
       149    637.5612    598.2328 300.1885730 +22.7540729     252.6585     72.32609      1.119     3.58     5.598035       20.395     37.83105         5     0.926     0.404   8.55   0
       150    444.9755    593.9415 300.1299764 +22.6951337     782.6827     72.28927      1.494     3.46     5.207196       20.395     78.08874        14     1.169     0.794   9.46   0
       151    593.1470    592.0149 300.1767529 +22.7389805     549.8185     72.30769      1.480     3.96     5.701658       20.395     50.64965        11     0.991     0.797  30.25   0
       152    640.4394    590.6669 300.1919271 +22.7527618     352.0388     72.25243      1.366     4.18     5.607562       20.395     49.60226         7     1.033     0.631  54.82   0
       153    610.8056    590.3145 300.1828072 +22.7437826      443.091     72.21558      1.364     4.73     5.675854       20.395     49.88231         9     1.085     0.716 -13.10   0
       154    489.7247    589.2999 300.1454186 +22.7072115      943.663     72.41805      1.635     3.43     5.492532       20.395     95.29968        16     1.154     0.899  36.20   0
       155    923.1974    584.9357 300.2819600 +22.8357981     3332.789     72.28927      1.657     3.38     5.518089       20.395     282.4404        33     1.346     1.227 -76.10   0
       156    454.7718    584.7193 300.1360216 +22.6954215     1731.936     72.30769      1.526     3.25     5.328466       20.395     184.6764        20     1.110     1.048 -83.34   0
       157   1021.1926    583.2223 300.3130994 +22.8646423     814.2867     68.15715      1.990     4.88     4.932325       20.395     64.13193        13     1.342     0.811  30.41  24
       158    430.4185    579.8441 300.1300220 +22.6867231     298.7998     72.30769      1.309     2.45     5.234682       20.395      41.7969         5     0.706     0.459 -70.18   0
       159     16.7560    578.0219 300.0019372 +22.5621756     5100.826     72.34449      1.905     3.92     5.977942       20.395     449.7276        44     1.547     1.417  41.33   0
       160    963.6948    575.0196 300.2978174 +22.8450719     345.2842     72.21558      1.685     3.00     5.328377       20.395     36.07351         4     0.793     0.333 -56.82   2
       161    318.2620    571.3096 300.0978821 +22.6506563      9268.93     72.38128      1.609     3.06     5.336874       20.395     1039.065        45     1.321     1.296 -49.29   0
       162    440.7355    568.4669 300.1369287 +22.6865482     9026.722     72.34449      1.545     2.90     5.383509       20.395     1039.379        40     1.256     1.200  66.99   0
       163    687.1040    564.9766 300.2148136 +22.7593600     223.5253     72.17871      1.316     3.29     5.579774       20.395     40.65426         5     0.657     0.567   1.27   0
       164    852.5861    562.5877 300.2671887 +22.8082325     2081.342     72.21558      1.783     3.55     5.467976       20.395     186.9202        28     1.278     1.225  30.91   0
       165    937.1562    560.0593 300.2943941 +22.8328264     12714.87     72.30769      1.654     3.28      5.46386       20.395     1090.515        48     1.382     1.321  73.19   0
       166    501.3671    558.0666 300.1591868 +22.7017306     11672.19     72.28928      1.501     2.93     5.715471       20.395     1169.722        44     1.255     1.234  87.60   0
       167    228.7921    553.5498 300.0758114 +22.6187370     1540.592     72.28927      1.788     3.36     5.399311       20.395      127.872        23     1.266     1.085  14.59   0
       168    670.9605    553.9789 300.2133530 +22.7513648      627.768     72.32609      1.743     4.23     5.645555       20.395     61.44689        12     1.058     0.861  27.63   0
       169    386.9202    552.8254 300.1252534 +22.6659287     283.4933     72.27086      1.244     2.76      5.37336       20.395      48.6471         5     0.717     0.663 -22.78   0
       170    475.6539    551.2148 300.1534037 +22.6920579     301.8376     72.30769      1.241     2.82     5.649938       20.395     42.04458         5     0.712     0.461 -77.71   0
       171    776.0009    546.6224 300.2484881 +22.7807109     791.9837     72.21558      1.493     2.93     5.473609       20.395     89.50659        16     1.071     0.896   0.54   0
       172    433.0349    546.1611 300.1417737 +22.6778353     4428.087     72.34449      1.510     3.02      5.52292       20.395       420.01        29     1.194     1.178  81.13   0
       173    411.3630    544.6555 300.1355153 +22.6709083     1206.698     72.28928      1.415     2.57      5.46356       20.395     159.5464        18     1.092     0.936   0.81   0
       174    165.5792    543.9317 300.0592729 +22.5970242     614.9282     72.28927      1.470     4.31     5.461459       20.395     81.78823        12     1.176     0.860  53.93   0
       175    852.9570    541.9191 300.2740158 +22.8024031     1706.016     72.27086      1.653     3.52     5.458733       20.395     140.4149        25     1.277     1.175 -43.71   0
       176    549.6574    533.8364 300.1820956 +22.7092400     206825.3     72.28927      1.517     2.84     5.948448       20.395     24699.29       191     1.490     1.430  -9.11   0
       177    733.4173    538.9123 300.2377143 +22.7657424     866.2643     72.23401      1.554     3.23     5.465628       20.395     100.3588        14     1.045     0.918 -11.17   0
       178    937.2018    535.9987 300.3022213 +22.8259232     227.7703     72.06798      1.353     4.84     5.456846       20.395     29.08824         6     1.311     0.506 -13.79   0
       179    235.7665    533.6805 300.0844320 +22.6151247     3416.699     72.25243      1.572     2.99     5.400296       20.395     410.2909        31     1.230     1.163  36.50   0
       180    801.7523    530.0339 300.2619046 +22.7836549     555.8654     72.32609      1.648     4.13     5.428441       20.395     53.50513         9     1.042     0.814  38.60   0
       181    440.2651    514.4825 300.1543099 +22.6709047     2856.039     72.39967      1.614     3.33     5.583138       20.395     297.6325        32     1.473     1.158 -89.43   0
       182    284.5597    516.4541 300.1052050 +22.6248061     506.6129     72.25243      1.615     2.84      5.40721       20.395     61.69324        10     0.947     0.738  88.60   0
       183    596.1003    512.5390 300.2034792 +22.7170353      322.701     72.38128      1.211     4.47     5.879582       20.395     29.54574         5     1.479     0.384 -12.86   0
       184    851.4610    510.7585 300.2836665 +22.7929985     355.1639     72.27086      1.351     2.43     5.382987       20.395     39.78479         5     0.701     0.451 -66.65   0
       185    837.3008    500.4442 300.2825983 +22.7857942     1782.462     72.28928      1.592     2.92      5.35092       20.395     185.2273        26     1.288     1.096  27.11   0
       186    708.5351    497.9894 300.2432435 +22.7465311     2698.197     72.23401      1.512     3.09     5.463882       20.395     248.5575        25     1.190     1.050  55.21   0
       187    952.8743    495.5897 300.3202315 +22.8189971     542.4959     72.28927      1.990     5.29     5.438807       20.395     43.41316        10     1.345     0.588  53.68   3
       188    951.5913    491.6328 300.3211157 +22.8174754     763.8383     72.28928      1.848     3.15     5.437724       20.395     72.89745        11     1.018     0.775  28.14   3
       189    917.8701    494.5602 300.3096430 +22.8082231     268.9211     72.25243      1.357     5.63     5.425272       20.395      52.1721         7     1.291     0.703  40.05   0
       190    613.2556    494.9080 300.2145483 +22.7171088     367.5734     72.34449      1.310     3.31     5.909649       20.395     68.42918         9     0.956     0.842   1.91   0
       191    495.8599    493.7789 300.1783434 +22.6816162     758.2563     72.23401      1.395     2.73     5.711397       20.395     98.26678        13     0.975     0.827 -12.48   0
       192    965.8490    492.2937 300.3253506 +22.8219331      1205.25     72.32609      1.466     2.94     5.436603       20.395     130.5165        19     1.114     1.013  47.38   0
       193    837.6143    490.5656 300.2859030 +22.7830485     2315.462     72.27086      1.833     4.41     5.327894       20.395     185.2747        31     1.532     1.185  67.29   0
       194    591.0211    488.6679 300.2096460 +22.7086559     733.9529     72.27086      1.812     2.87      5.95652       20.395     80.30197        14     1.048     0.822  11.98   0
       195    875.7434    485.6340 300.2993977 +22.7930460     4483.608     72.30769      1.550     2.89     5.347575       20.395     487.6608        33     1.245     1.159  79.85   0
       196    429.6647    487.4780 300.1597757 +22.6599729     418.6267     72.38128      1.728     4.32     5.603115       20.395     48.94221         8     1.193     0.499   1.02   0
       197    516.6749    485.2039 300.1876099 +22.6853892     289.6043     72.19715      1.197     2.80     5.820297       20.395     43.78761         5     0.730     0.445 -75.44   0
       198    613.7800    482.2441 300.2188226 +22.7136274     223.1393     72.34449      1.434     3.74     5.951558       20.395     32.52676         5     0.883     0.455 -45.65   0
       199    535.6648    481.6323 300.1946844 +22.6900523     360.9688     72.28928      1.856     4.31     5.927488       20.395      40.1239         5     1.154     0.459   7.98   0
       200    967.3132    476.3331 300.3309888 +22.8177821     768.5345     72.39967      1.672     3.68     5.447806       20.395     87.62896        15     1.147     0.964  53.28   0
       201    107.5472    475.3163 300.0635015 +22.5599322     1044.015     72.32609      1.753     5.25     5.554688       20.395     95.88808        19     1.410     1.093  65.05   0
       202    768.6938    470.2701 300.2709976 +22.7565794     267.3451     72.41805      1.486     4.31     5.261078       20.395     33.37987         7     1.121     0.473 -28.85   0
       203    963.9754    465.3251 300.3335205 +22.8136179     283.7332     72.30769      1.452     4.82     5.475249       20.395     49.13655         9     1.129     0.661  86.02   0
       204    100.1772    465.9693 300.0642438 +22.5550399     336.2324     72.28927      1.321     2.91     5.572238       20.395     55.69534         7     0.879     0.520 -38.90   0
       205    708.1266    460.1827 300.2553886 +22.7355440     511.5518     72.28928      1.484     2.97     5.442001       20.395     53.82468         6     0.747     0.555  36.11   0
       206    596.6829    458.0771 300.2213397 +22.7015628     327.0908     72.38128      1.335     4.11     5.943834       20.395      40.5458         7     0.764     0.647 -65.60   0
       207    649.3658    455.9148 300.2384585 +22.7167203     828.8633     72.25243      1.444     3.40     5.790761       20.395     101.2053        14     1.057     0.932  64.52   0
       208    628.6540    454.1762 300.2325682 +22.7100177     227.1571     72.30769      1.211     4.15     5.877502       20.395     26.48815         6     0.759     0.647  32.42   0
       209    963.8253    448.4472 300.3389521 +22.8087197     569.4502     72.30769      1.630     4.16     5.518606       20.395     69.71079        14     1.161     0.994  13.94   0
       210    709.8964    448.4267 300.2597560 +22.7326954      882.988     72.23401      1.430     2.96     5.431428       20.395     88.63439        12     0.901     0.860 -32.17   0
       211    867.0640    444.4904 300.3100453 +22.7786195     952.3342     72.38128      1.396     3.14     5.308353       20.395     125.4015        14     1.133     0.817  70.35   0
       212    825.8231    442.8495 300.2977140 +22.7658019     345.2881     72.28927      1.394     3.89     5.289041       20.395     33.20761         6     0.771     0.563  43.09   0
       213    851.3093    440.9731 300.3062724 +22.7728921     696.4156     72.25243      1.508     3.83     5.297079       20.395     78.25835        14     1.133     0.875 -16.15   0
       214    595.7540    438.7163 300.2273341 +22.6957218     3228.499     72.27086      1.486     2.84     5.911201       20.395     392.1586        27     1.154     1.087  55.54   0
       215    956.0065    437.8362 300.3399561 +22.8033283     576.0024     72.30769      1.552     5.12     5.530101       20.395     51.61025        13     1.170     0.831  43.15   0
       216     72.5552    429.7860 300.0673991 +22.5363735     332.8354     72.30769      1.202     2.19     5.778997       20.395     48.39728         5     0.676     0.479  73.88   0
       217    601.4878    426.0533 300.2332303 +22.6938005     208.4384     72.32609      1.586     4.64     5.912375       20.395     47.92692         5     1.368     0.447 -80.05   0
       218    436.0196    425.7325 300.1817947 +22.6441426     336.6862     72.25243      1.388     3.04     5.652207       20.395     59.16821         6     0.872     0.625  67.36   0
       219   1007.1741    418.1453 300.3623166 +22.8129784     1218.219     72.30769      1.575     4.14     5.705436       20.395     115.0235        20     1.292     0.983 -62.87   0
       220    879.0664    417.9177 300.3224138 +22.7745723     495.3068     72.39967      1.392     3.45     5.339163       20.395     65.00848        11     1.122     0.676  33.11   0
       221    965.5640    416.7581 300.3497797 +22.8001273     1067.281     72.36288      1.614     3.24      5.60288       20.395      106.307        16     1.048     1.011 -50.06   0
       222    706.4264    412.7890 300.2702403 +22.7214138     1107.068     72.28927      1.334     2.94     5.472272       20.395     130.6841        14     1.009     0.836  21.66   0
       223    502.1159    413.4040 300.2063786 +22.6604018     387.7618     72.21558      1.367     2.72     5.591702       20.395     54.51381         6     0.730     0.590 -43.07   0
       224    210.3530    410.5194 300.1165013 +22.5721504     653.5944     72.28928      1.738     4.95     5.733226       20.395     58.83484        14     1.217     0.989 -38.17   0
       225   1005.9085    405.2951 300.3660918 +22.8089038      4196.34     72.47317      1.624     3.14     5.802701       20.395     433.8715        32     1.337     1.184 -81.48   0
       226    272.6988    406.3995 300.1372340 +22.5896527     3607.059     72.16026      1.542     2.98     5.874509       20.395     429.5611        28     1.185     1.165  13.33   0
       227    724.4308    402.3563 300.2792387 +22.7238060     266.3315     72.32609      1.531     3.92     5.348708       20.395     31.82512         5     0.990     0.445  75.75   0
       228    219.8282    401.1727 300.1224815 +22.5723068     7666.292     72.25243      1.591     3.21     5.794608       20.395     722.1146        42     1.363     1.224  57.52   0
       229    985.8713    396.3750 300.3627324 +22.8003424     1857.246     72.28927      1.623     3.25     5.778812       20.395     188.0741        26     1.298     1.128  63.09   0
       230    360.7144    395.4795 300.1681682 +22.6128909      4800.01      72.4548      1.526     2.72     5.887817       20.395     629.8394        37     1.305     1.144  52.76   0
       231    622.7778    392.3545 300.2508000 +22.6904928     766.9989     72.32609      1.917     6.53     5.861515       20.395     62.33092        19     1.555     0.993 -49.08   0
       232    604.9396    392.3416 300.2452456 +22.6851471     18483.86     72.36288      1.451     2.64     5.879287       20.395     2345.561        53     1.255     1.213  55.02   0
       233    801.9335    382.9825 300.3096916 +22.7414394     445.7246     72.27086      1.560     4.26     5.280488       20.395     48.32321         9     1.125     0.745 -12.73   0
       234    224.5376    379.3495 300.1310273 +22.5674521     396.9044     72.34449      1.388     3.06     5.893291       20.395     44.53164         6     0.855     0.476  -1.85   0
       235    938.5862    375.1224 300.3548719 +22.7800801     815.6851     72.30769      1.505     4.33     5.575952       20.395     87.53011        18     1.291     0.990 -75.69   0
       236    159.6111    372.3206 300.1131133 +22.5459748     2121.666     72.27086      1.639     3.29     5.908096       20.395     214.5169        25     1.228     1.093  -1.44   0
       237    545.5856    361.7691 300.2366731 +22.6585863     6609.894     72.28928      1.450     2.56     5.589317       20.395     852.1794        36     1.224     1.119  62.80   0
       238    959.2578    362.4110 300.3654472 +22.7826103     1145.012     72.25243      1.438     3.04     5.755297       20.395     130.8624        16     1.027     0.942  72.57   0
       239    260.3080    360.9385 300.1481289 +22.5728850     599.4413     72.38128      1.503     3.80       5.9508       20.395     71.89024        15     1.188     0.921  -9.91   0
       240    118.1583    354.0274 300.1061576 +22.5282981     391.2846     72.30769      1.360     4.37     6.006684       20.395     54.34164        10     1.246     0.708  58.29   0
       241    805.5982    354.0102 300.3202350 +22.7342066     332.4612      72.1049      1.462     4.90      5.28057       20.395     42.41433         8     1.298     0.647   4.49   0
       242    659.4102    352.2921 300.2752151 +22.6899480      495.567     72.23401      1.239     3.54     5.778135       20.395     61.99842         8     0.882     0.652  -3.12   0
       243    749.9262    350.7895 300.3039195 +22.7166156      1217.01     72.28928      1.591     4.00     5.303694       20.395     116.8407        17     1.179     0.948 -64.47   0
       244    452.2505    347.9444 300.2120886 +22.6266587     6489.157     72.32609      1.462     2.86     5.718806       20.395     664.8685        35     1.255     1.121  60.92   0
       245     38.4270    346.7237 300.0837398 +22.5023011      156.367     72.30769      1.579     4.44     5.802287       20.395     30.80571         5     1.148     0.489  85.78   0
       246    844.2515    342.5075 300.3360227 +22.7424687     1529.029     72.34449      1.636     3.52     5.358559       20.395     166.6363        20     1.220     0.984  89.71   0
       247    941.5746    343.0647 300.3662058 +22.7717546     659.1924     72.27086      1.581     2.99     5.673078       20.395     62.14981        12     0.902     0.868  41.38   0
       248    436.8022    336.8705 300.2108708 +22.6188498     584.3168     72.23401      1.483     2.76     5.774714       20.395     83.37231         9     0.821     0.748 -12.32   0
       249    519.4663    334.6770 300.2373262 +22.6429788     430.6076     72.38128      1.346     3.41     5.609399       20.395     55.62674         9     0.943     0.735  21.30   0
       250    816.9759    330.6510 300.3313618 +22.7308957     451.0399     72.30769      1.221     3.34     5.447917       20.395     66.40422         9     0.949     0.675  89.07   0
       251    499.9051    332.6597 300.2318879 +22.6365407     309.5353     72.36288      1.409     4.07      5.61745       20.395     42.70087         5     1.082     0.466   4.91   0
       252    339.7883    327.1321 300.1838288 +22.5869901     2510.721     72.28927      1.473     3.05     5.919984       20.395     263.3894        25     1.148     1.092  85.46   0
       253     58.2544    324.6453 300.0970648 +22.5019071     957.9568     72.32609      1.545     3.32     5.988677       20.395     118.1878        15     1.192     0.902 -13.96   0
       254    687.8179    322.5758 300.2937099 +22.6899114     310.2891     72.28927      1.291     3.04     5.729099       20.395     35.27387         5     0.728     0.455  19.93   0
       255    309.0952    316.5071 300.1777230 +22.5747425     30266.88      72.4548      1.524     2.84     5.928003       20.395     3368.795        74     1.411     1.294  54.07   0
       256    843.7654    314.3004 300.3450218 +22.7342120     1534.579     72.27086      1.591     2.84     5.580899       20.395     185.6145        20     1.205     0.993  76.42   0
       257    799.1431    312.2522 300.3317688 +22.7202679      311.218     72.34449      1.191     2.87     5.590078       20.395     49.61005         6     0.755     0.531  36.72   0
       258      5.4219    304.2048 300.0872731 +22.4802021     5063.375     72.25243      1.857     3.54     6.046696       20.395       517.74        49     1.568     1.396  39.48  24
       259    759.0867    303.5572 300.3220981 +22.7057783     553.9154     72.27086      1.324     2.58     5.658617       20.395      72.9438        11     0.890     0.785  62.26   0
       260    183.4747    302.4361 300.1432047 +22.5330608     505.3533     72.23402      1.687     3.47     6.024248       20.395     56.09107        11     1.013     0.826   9.88   0
       261    407.5183    302.0258 300.2130560 +22.6000673     526.2048     72.27086      1.361     3.64     5.852851       20.395     73.83193        10     1.043     0.719   2.98   0
       262    719.5426    296.5257 300.3120497 +22.6919196     1880.609     72.34449      1.407     2.65     5.743814       20.395     251.0188        19     1.108     0.926  48.12   0
       263    935.0119    289.5620 300.3815140 +22.7544021      596.327     72.28928      1.405     3.96     5.918264       20.395      71.0092        11     1.067     0.949  73.23   0
       264    527.9478    290.9826 300.2541414 +22.6329624     395.7985     72.27086      1.325     4.57     5.648267       20.395     47.78071         7     1.056     0.600 -65.91   0
       265    381.3041    281.0605 300.2116949 +22.5861918     2072.856     72.36288      1.597     3.41     5.906438       20.395      207.644        23     1.262     0.995  62.72   0
       266    593.9368    279.8243 300.2783189 +22.6495149     407.4789     72.27086      1.608     3.47     5.793561       20.395     42.11972         7     0.947     0.645  89.96   0
       267    813.2352    275.2377 300.3481698 +22.7138417     271.5627     72.36288      1.191     3.95     5.772091       20.395     37.76903         6     0.778     0.576  44.02   0
       268    820.8264    274.1424 300.3508926 +22.7157985     559.5217     72.28928      1.388     3.28     5.776073       20.395     78.96362        12     1.055     0.887  -2.67   0
       269    702.7831    271.8608 300.3148249 +22.6798116     471.4047     72.23401      1.318     2.84     5.801265       20.395     62.04264         6     0.972     0.446  21.32   0
       270    670.4681    270.5226 300.3051859 +22.6697534     258.1373     72.39967      1.460     3.79     5.821713       20.395     32.25351         6     1.010     0.409  18.12   0
       271    457.1804    260.3876 300.2420235 +22.6029776      1262.35     72.25243      1.524     2.50     5.802389       20.395     159.1471        19     1.085     0.958  50.13   0
       272    840.2656    254.3201 300.3633847 +22.7159151     340.1793     72.39967      1.646     3.72     5.801487       20.395     35.86569         5     0.882     0.450  46.12   0
       273    702.0909    252.4019 300.3209199 +22.6740097     2306.308     72.19715      1.436     2.55     5.798481       20.395     278.6592        22     1.120     0.982  43.60   0
       274    963.4977    246.8390 300.4042600 +22.7506348     3126.693     72.27086      1.577     3.33     5.929135       20.395     295.2853        30     1.253     1.189 -84.49   0
       275    410.7485    236.1437 300.2354277 +22.5821053     728.9345     72.32609      1.540     3.42     5.951037       20.395     95.84307        13     1.044     0.952   0.66   0
       276    116.0857    230.6706 300.1455206 +22.4922582     522.0209     72.39967      1.401     4.29     6.370147       20.395     51.52073        10     1.088     0.724  -0.54   0
       277     85.3604    230.3479 300.1360721 +22.4829580     1513.384     72.27086      1.874     4.08     6.370157       20.395      119.465        22     1.434     0.926 -35.58   0
       278    979.0839    227.1781 300.4155003 +22.7496411     531.6843     72.25243      1.547     4.47     5.932115       20.395     59.92622        10     1.105     0.844 -63.19   0
       279    822.6860    224.0376 300.3677217 +22.7019451     329.4305     72.27086      1.719     5.33      5.80741       20.395     45.25621         7     1.755     0.458  40.12   0
       280    170.0211    222.2209 300.1650330 +22.5059931     518.9679     72.28928      1.500     4.39     6.382676       20.395     52.30745         8     0.856     0.652 -44.27   0
       281     25.4796    219.4601 300.1209877 +22.4618858     389.1046     72.34449      1.690     3.93     6.363688       20.395     41.74255         5     0.927     0.546 -43.65   0
       282    845.6503    216.3965 300.3773623 +22.7066189      399.731     72.28928      1.451     5.01     5.843711       20.395     40.62992         9     1.136     0.625 -12.97   0
       283    773.6507    213.9556 300.3556984 +22.6843717      655.248     72.32609      1.305     2.85     5.791762       20.395     86.74837        10     0.916     0.733  52.07   0
       284    364.0670    213.0335 300.2283887 +22.5614837     365.6865     72.28927      1.347     3.90      6.16468       20.395     51.08973         7     0.962     0.569  58.02   0
       285    909.8375    207.6592 300.4002202 +22.7233101     187.0585     72.30769      1.226     3.45     5.912445       20.395     27.41178         5     0.783     0.439  16.01   0
       286    871.9878    202.9054 300.3899527 +22.7106186     2141.931     72.21558      1.489     3.00     5.886431       20.395     221.3655        27     1.239     1.139 -85.29   0
       287    290.3009    199.9322 300.2096782 +22.5356248     2211.452     72.38128      1.532     2.96     6.404538       20.395     243.3932        27     1.287     1.096  54.61   0
       288    368.3325    195.0237 300.2355555 +22.5575863     1047.752     72.27086      1.651     3.70     6.076189       20.395       98.536        19     1.331     0.947  26.07   0
       289    120.2516    195.7291 300.1581445 +22.4834722     311.2089     72.28928      1.305     3.39     6.478893       20.395     47.81118         7     0.840     0.613  17.12   0
       290    770.1517    194.4125 300.3609438 +22.6777042     533.4358     72.30769      1.305     3.15     5.811669       20.395     81.16296        12     1.018     0.871  79.05   0
       291    877.4128    191.9961 300.3951823 +22.7091034     421.2634     72.14182      1.557     4.23     5.901289       20.395     53.15907         7     0.983     0.568 -26.24   0
       292    185.2056    187.7034 300.1809466 +22.5006285     687.2881     72.19715      1.343     2.83     6.436182       20.395     97.43088        10     0.899     0.739 -11.99   0
       293    303.4592    186.7145 300.2180581 +22.5357687     320.3621     72.39967      1.727     4.97     6.342927       20.395      32.9374         6     0.997     0.701 -26.55   0
       294    787.8895    184.0756 300.3698266 +22.6800391     603.1857     72.43642      1.361     3.34     5.825674       20.395     84.26328        11     1.059     0.707  50.74   0
       295    723.1324    184.3245 300.3495539 +22.6607319     1731.811     72.36288      1.433     2.57     5.817576       20.395     231.4115        20     1.096     0.977 -80.18   0
       296    206.8059    180.4439 300.1900188 +22.5050145      579.777     72.28927      1.630     5.16      6.40096       20.395     62.66293        12     1.268     0.864  66.76   0
       297    994.4565    177.1935 300.4365057 +22.7398573     829.3559     72.27086      1.447     3.90     5.934672       20.395     80.07426        16     1.145     0.998 -54.37   0
       298    727.1524    175.7852 300.3535757 +22.6594793     789.7715     72.30769      1.607     3.99     5.823036       20.395     86.38161        14     1.172     0.977 -31.67   0
       299    496.3680    176.4291 300.2814507 +22.5905825     282.6568     72.28928      1.109     3.24     5.868674       20.395     41.70478         7     0.933     0.478  -9.24   0
       300    647.6179    174.8669 300.3290810 +22.6354114     1333.343     72.27086      1.430     3.08     5.835608       20.395      148.271        16     0.980     0.970  34.56   0
       301    468.6251    171.6742 300.2743518 +22.5809092      411.455     72.30769      1.613     4.21     5.885347       20.395      40.7367         7     0.940     0.559  30.26   0
       302    843.0074    166.4873 300.3927196 +22.6914719     1458.314     72.19715      1.518     3.00     5.898587       20.395     186.3379        23     1.356     0.979  60.91   0
       303    573.7554    166.8207 300.3086728 +22.6109886     939.2314     72.34449      1.459     2.79     5.847348       20.395     119.9337        15     1.028     0.869   4.32   0
       304    855.2291    165.8239 300.3967471 +22.6949375      759.379     72.28927      1.383     2.90     5.912579       20.395     93.93546        14     0.973     0.896  55.26   0
       305    901.0353    165.3155 300.4112024 +22.7084950     416.2299     72.27086      1.583     3.76     5.934517       20.395     36.54274         5     0.879     0.463  -3.33   0
       306    414.2580    162.2797 300.2604680 +22.5619300     262.8401     72.32609      1.238     4.69      5.94118       20.395     23.88075         7     1.125     0.554 -26.25   0
       307   1016.0566    156.7162 300.4498868 +22.7404250     1642.619     72.38128      1.629     3.02     5.968713       20.395     183.5228        23     1.232     1.165   1.52  16
       308    971.8752    156.0047 300.4363269 +22.7270061     1145.629     72.19715      1.512     3.47     5.961017       20.395     117.6013        17     1.109     0.996  -8.48   0
       309    205.7872    148.5518 300.2000399 +22.4955479     807.6563     72.30769      1.739     4.33     6.471495       20.395     81.28696        14     1.294     0.861  71.30   0
       310     67.6977    143.3598 300.1587805 +22.4526852     2252.493     72.28928      1.747     3.64     6.594524       20.395     206.4366        24     1.306     1.123  42.71   0
       311    890.9385    140.7342 300.4160208 +22.6984024      840.805     72.32609      1.682     3.96     5.924053       20.395     81.34348        14     1.242     0.868  65.38   0
       312     17.2739    140.4795 300.1440400 +22.4367485     554.4401     72.39967      1.546     5.18       6.5934       20.395     53.54789        10     1.403     0.620  -4.64   0
       313    225.1447    136.7848 300.2098757 +22.4979660     5733.379     72.27086      1.617     3.12     6.457242       20.395     575.9634        38     1.378     1.212  50.46   0
       314    206.9123    138.1726 300.2037541 +22.4929032     373.4923     72.27086      1.221     2.76     6.494888       20.395     44.99739         6     0.756     0.538 -35.49   0
       315      9.2443    131.0920 300.1445868 +22.4316466     1223.465     72.27086      1.745     4.94     6.594943       20.395      125.757        21     1.351     1.128  77.14   0
       316    208.7695    127.9241 300.2076535 +22.4905153     782.1831     72.28928      1.830     2.62     6.514358       20.395     88.39922        10     0.867     0.763 -44.31   2
       317   1023.2314    124.6560 300.4625191 +22.7333441     11574.94     58.69226      1.344     4.26     6.288946       20.395      1825.29        36     1.538     0.800  84.85  24
       318    869.2604    118.5197 300.4164581 +22.6855262     3553.398     72.34449      1.605     3.15     5.885826       20.395     421.4827        34     1.331     1.185 -89.98   0
       319    972.9921    117.5127 300.4491527 +22.7162636     2823.389     72.19715      1.610     3.03     6.144847       20.395     322.8931        28     1.235     1.194 -71.05   0
       320    418.6282    113.9119 300.2775062 +22.5493370     834.2548     72.27086      1.800     3.10     5.940189       20.395     68.21758        14     1.023     0.892 -38.25   0
       321    171.9604    114.2678 300.2006300 +22.4755659     254.3032     72.25243      1.235     4.24     6.611655       20.395     34.26887         7     0.770     0.665 -18.98   0
       322    343.2493    105.5377 300.2567542 +22.5243594     938.0684     72.34449      2.253     4.98     6.012295       20.395     75.92773        15     1.310     0.965 -36.09   2
       323    470.1652    101.0059 300.2977372 +22.5610570     1751.708     72.28927      1.453     3.06     5.931317       20.395     189.5963        23     1.123     1.092 -21.22   0
       324    398.1006    101.7426 300.2750590 +22.5396930     443.3966     72.38128      1.299     3.23     5.940937       20.395     59.71664         7     0.764     0.640 -15.52   0
       325    109.1296    102.5846 300.1848770 +22.4533875     535.5166     72.30769      1.482     3.90     6.617268       20.395     72.24097         6     0.990     0.441 -14.38   0
       326      7.4652    101.4240 300.1536486 +22.4225938     374.5472     72.27086      1.685     4.03     6.600948       20.395     39.69875         5     0.947     0.492  84.19   0
       327    531.6835    100.2812 300.3171332 +22.5792644      377.665     72.43642      1.493     2.49     5.867176       20.395      48.8307         6     0.668     0.653   6.14   0
       328    445.0208     94.9616 300.2918657 +22.5517918     4032.742     72.30769      0.415     2.22     5.947041       20.395      3578.29         7     0.414     0.363  83.85   0
       329    213.9012     96.5095 300.2194308 +22.4830271     520.0413      72.4548      1.426     1.84     6.581853       20.395     60.07184         6     0.699     0.499   2.47   0
       330    758.3237     90.5728 300.3909154 +22.6442978     210.1839     72.30769      0.981     3.14     5.861691       20.395     59.56314         6     0.918     0.414 -19.32   0
       331    606.6883     87.2387 300.3447287 +22.5979638     270.5255     72.27086      1.184     3.69     5.983143       20.395     33.93976         5     0.880     0.445 -43.36   0
       332    904.3272     85.3127 300.4381611 +22.6864607     369.3557     72.43642      1.553     3.87     5.875121       20.395     40.79225         5     0.944     0.454  44.78   0
       333    750.7346     81.6706 300.3914340 +22.6394663     329.2508     72.32609      1.335     2.76     5.892925       20.395     41.08697         6     0.704     0.625 -50.47   0
       334    244.0982     80.6273 300.2339718 +22.4875080     6063.793     72.23401      1.632     3.23      6.51434       20.395     629.2387        38     1.373     1.230  61.20   0
       335    359.3350     80.7325 300.2697996 +22.5220470     208.5896     72.34449      1.312     4.97     5.979921       20.395     32.43547         6     0.919     0.761 -78.41   0
       336     95.2720     80.1659 300.1878330 +22.4427963     799.6912     72.28928      1.865     4.97     6.632259       20.395     77.99149        16     1.405     0.906  48.26   0
       337    873.4125     78.3826 300.4307618 +22.6752198     403.8463     72.25243      1.664     4.05     5.780828       20.395     39.18267         6     0.878     0.535 -49.12   0
       338    216.3369     74.8335 300.2272126 +22.4775287     287.0022     72.28927      1.177     2.39     6.617302       20.395     50.65401         5     0.724     0.438 -71.99   0
       339    720.1345     72.6810 300.3848064 +22.6277250     274.9518     72.39967      1.241     3.48     5.971539       20.395     34.31976         5     0.810     0.431 -15.03   0
       340    259.6969     72.1785 300.2415629 +22.4897518     236.7101     72.21558      1.186     3.13     6.429543       20.395     51.88519         6     0.771     0.578 -38.23   0
       341      6.2505     71.0275 300.1631207 +22.4135004     279.0259     72.30769      1.240     3.37     6.593339       20.395     43.20831         6     0.897     0.470 -48.27  16
       342    490.2253     66.1074 300.3152939 +22.5570292     6276.845     72.23401      1.493     2.85     6.178186       20.395     682.2081        38     1.316     1.159  68.27   0
       343    375.5871     65.8845 300.2796701 +22.5226456     594.5883     72.23401      1.472     4.00     6.016469       20.395     60.32096        13     1.028     0.926  12.29   0
       344    243.7437     59.6761 300.2406503 +22.4813815     275.4359     72.32609      1.375     3.89     6.513683       20.395     35.72816         5     1.015     0.427 -84.36   0
       345    742.8506     56.0672 300.3972725 +22.6297424     873.9885     72.27086      1.704     4.39      6.00658       20.395     86.02579        16     1.322     0.908  79.08   0
       346    835.4377     55.1734 300.4264365 +22.6571828     478.4224     72.30769      1.710     3.77     5.648536       20.395     47.32869         8     1.033     0.671  12.58   0
       347    903.3994     52.4513 300.4485206 +22.6767269     302.5767     72.25243      1.412     5.21     5.745167       20.395     31.93754         7     0.957     0.802  50.47   0
       348    183.0208     50.0846 300.2248681 +22.4604393      499.106     72.23401      1.468     4.89     6.677069       20.395     47.32372        11     1.070     0.916 -41.48   0
       349    541.5624     48.7509 300.3369090 +22.5674049     463.6354     72.30769      1.380     4.33     6.396403       20.395     59.23063         8     0.910     0.802  80.51   0
       350    618.6406     46.2293 300.3617420 +22.5897472     6220.578     72.30769      1.534     2.87     6.388692       20.395      731.379        39     1.330     1.157  86.91   0
       351    393.3334     45.1419 300.2919157 +22.5219964     1501.164     72.32609      1.600     3.15     6.067636       20.395     160.6768        24     1.204     1.162  -6.46   0
       352    659.7938     44.1004 300.3752576 +22.6014494     890.7443     72.17871      1.473     2.59      6.19241       20.395     122.5332        12     0.995     0.797  -8.45   0
       353    675.5829     39.9346 300.3815288 +22.6049756      636.249     72.27086      1.555     3.14     6.142126       20.395     69.88828         9     0.981     0.681  -0.83   0
       354    945.3790     37.7197 300.4663935 +22.6850418     608.2286     72.25243      1.550     3.58     6.009312       20.395     72.38895        11     1.066     0.774   7.12   0
       355    142.4479     37.5907 300.2162972 +22.4446973     558.7645     72.30769      1.506     3.34     6.692563       20.395     62.21764        12     0.963     0.873  26.45   0
       356    985.0099     37.0009 300.4789952 +22.6966858     316.8268      72.1049      1.422     2.44     6.602792       20.395     40.11424         5     0.618     0.582 -89.99   0
       357    714.1473     35.5983 300.3949557 +22.6152666     442.9302     72.25243      1.340     3.23     6.143311       20.395     63.21255         6     0.768     0.488   4.64   0
       358    677.9999     30.3687 300.3853816 +22.6029472     967.4643     72.23401      1.808     4.90     6.190201       20.395     86.10646        18     1.649     0.788  45.82   0
       359    662.8198     31.1362 300.3804012 +22.5986260     2796.735     72.27086      1.475     2.78     6.253314       20.395     335.1378        26     1.222     1.050  79.63   0
       360    303.4530     32.1219 300.2681573 +22.4913432     338.0152     72.32609      1.511     3.97     6.093813       20.395     41.70104         6     0.753     0.617 -49.82   0
       361    749.3105     22.9742 300.4100092 +22.6221547     1580.477     72.23401      1.553     3.48     6.060467       20.395     152.3303        21     1.181     1.024 -75.30   0
       362    827.4973     17.8666 300.4360475 +22.6440731     323.2293     72.38128      1.978     4.85     5.475885       20.395     36.42549         6     1.009     0.935  60.46   0
       363    320.0503   1021.0071 299.9522789 +22.7802206      771.513     68.77924      3.280     3.68     5.284264       20.395     26.98357         5     1.013     0.386  31.92  16
       364    226.9390   1000.0106 299.9301418 +22.7462606      583.988     72.23401      1.686     5.26      80.9908       20.395     77.42739        13     1.440     0.834  46.47   0
       365    290.0000   1011.4829 299.9460272 +22.7684728       666.98     72.16026      2.082     4.40     6.063416       20.395     43.00629         6     1.177     0.467 -74.38   3
       366    133.7094   1004.8052 299.8995899 +22.7196559     545.2075     72.19715      2.285     4.93     88.76837       20.395     42.72611         5     1.989     0.345  10.86   3
       367    778.7761     12.4913 300.4225937 +22.6279531     530.8235     72.21558      2.421     4.27     5.721638       20.395     53.32638         6     1.039     0.500  -0.52   0
       368    128.7208   1007.0392 299.8973122 +22.7187990     1589.927     72.27086      2.998     9.58      90.5507       20.395     52.59857        20     2.139     1.197 -87.08   2
