#   1 NUMBER                 Running object number                                     
#   2 X_IMAGE                Object position along x                                    [pixel]
#   3 Y_IMAGE                Object position along y                                    [pixel]
#   4 ALPHA_J2000            Right ascension of barycenter (J2000)                      [deg]
#   5 DELTA_J2000            Declination of barycenter (J2000)                          [deg]
#   6 FLUX_APER              Flux vector within fixed circular aperture(s)              [count]
#   7 FLUXERR_APER           RMS error vector for aperture flux(es)                     [count]
#   8 FLUX_RADIUS            Fraction-of-light radii                                    [pixel]
#   9 FWHM_IMAGE             FWHM assuming a gaussian core                              [pixel]
#  10 BACKGROUND             Background at centroid position                            [count]
#  11 THRESHOLD              Detection threshold above background                       [count]
#  12 FLUX_MAX               Peak flux above background                                 [count]
#  13 ISOAREA_IMAGE          Isophotal area above Analysis threshold                    [pixel**2]
#  14 A_IMAGE                Profile RMS along major axis                               [pixel]
#  15 B_IMAGE                Profile RMS along minor axis                               [pixel]
#  16 THETA_IMAGE            Position angle (CCW/x)                                     [deg]
#  17 FLAGS                  Extraction flags                                          
         1    681.4689     15.9326 300.3930136 +22.6015420     806.0859     72.34558      1.824     4.44     6.482167     20.39531     77.05894        14     1.222     0.954 -64.87   0
         2    486.9175     15.0469 300.3326709 +22.5430890     1127.853     72.30877      1.778     3.73     5.724744     20.39531     104.3181        22     1.317     1.039  60.24   0
         3     60.1218     14.7900 300.1999275 +22.4152646     555.0535     72.25352      1.948     5.18     6.473943     20.39531     49.09022        10     1.220     0.818 -73.16   0
         4    390.7821     13.2775 300.3033036 +22.5138137     823.9025     72.29036      1.708     3.15     5.853063     20.39531     98.36304        12     1.077     0.875 -57.66   0
         5    773.2031     12.3331 300.4227854 +22.6279392     307.5766     72.27195      1.209     3.58     6.278118     20.39531     50.11254         7     0.885     0.556 -31.53   0
         6    730.2103      4.2724 300.4119890 +22.6127624     540.9761     69.72213      1.494     3.20     6.589145     20.39531       64.438         7     0.837     0.597 -18.99  16
         7    162.0879      3.1735 300.2354019 +22.4424554     3627.273      65.5702      1.671     3.21     6.244484     20.39531     339.2167        33     1.488     1.143  -3.64  24
         8    188.5614   1004.3427 299.9186376 +22.7379263     1486.286     72.29036      2.953    11.15     85.74203     20.39531     50.31647        28     2.803     1.235  86.95   3
         9     75.4810   1010.3120 299.8815321 +22.7057107     5796.088     72.41914     16.315    72.70     70.14957     20.39531     160.0759      2012    15.700    11.766  34.30  27
        10     67.3478    947.3034 299.8994974 +22.6851979     5300.508     72.36398     30.004   121.72     27.28836     20.39531     1341.152      4832    22.830    18.005 -58.42  19
        11    228.3069    972.6398 299.9413135 +22.7407534     7084.021     72.30878      7.733    29.82     51.28614     20.39531     156.9846       653     9.723     4.875  63.71  18
        12    154.7535    968.3529 299.9198292 +22.7174593      1414.39     72.29036      6.176     8.69      55.1227     20.39531       45.358        19     1.755     1.500  80.93   3
        13    157.4545    977.1998 299.9177918 +22.7208076     2030.108     72.19823      4.842    14.55     63.22354     20.39531     57.17206        51     2.595     2.269 -37.68   2
        14      2.2584   1015.6177 299.8570460 +22.6852587     1150.444     61.28917      7.512    10.24    -6.701537     20.39531     49.57651        24     2.920     1.001 -80.14  27
        15    489.0945    975.6235 300.0215202 +22.8198143     312.2839     72.17979      1.530     4.87     4.329245     20.39531      33.0381         7     1.282     0.523 -67.69   0
        16    162.9921    997.0551 299.9130556 +22.7281648       2971.5     72.29036      6.161    26.40      81.0838     20.39531     68.66285       204     5.295     3.655  17.96  18
        17    917.2628    970.4730 300.1566768 +22.9466436     603.3524     72.32718      2.339     8.81     4.172489     20.39531      37.5245        14     1.630     1.329 -22.24   0
        18    133.8463    953.5991 299.9181259 +22.7069546     1970.737     72.29036      9.741    13.88      42.5214     20.39531     86.86409        39     2.748     1.949 -50.03   3
        19    211.5361    954.5397 299.9419833 +22.7305295     933.6029     72.32718      3.465     9.07     37.64219     20.39531      39.7584        20     1.889     1.214  26.04   1
        20    642.2210    953.3692 300.0764672 +22.8593235     6847.175     72.29036      2.124     5.18     4.264483     20.39531     342.7624        49     1.613     1.540 -15.36   0
        21    165.1231    988.3650 299.9165451 +22.7263112     1708.496     72.25352      7.111    12.69     72.80492     20.39531     54.28551        31     2.579     1.738 -66.21   3
        22    523.2752    948.3837 300.0410269 +22.8222403     540.3745     72.29036      2.029     4.29     4.303871     20.39531     35.53794         6     1.132     0.464  -8.16   2
        23    444.5654    940.4702 300.0190864 +22.7963723      1051.16     72.30878      2.067     6.13     4.428776     20.39531     71.39459        19     1.397     1.064  49.38   0
        24    550.9019    944.0734 300.0510351 +22.8292839     1405.366     72.41914      1.910     4.97     4.278541     20.39531     116.5288        27     1.448     1.282  25.49   0
        25    729.2028    940.6314 300.1077248 +22.8817300     237.0501     72.25352      1.328     3.79     4.174572     20.39531       24.873         5     1.043     0.395  85.39   0
        26    375.0910    938.4243 299.9981210 +22.7749548     6580.084      72.2351      2.156     5.10     4.770337     20.39531     381.9539        50     1.673     1.565  18.08   0
        27    121.7695   1007.6053 299.8968044 +22.7188234      1433.93     72.29036      3.767    12.07     91.12643     20.39531     50.19974        28     2.617     1.634 -43.79  18
        28    408.0011    926.2436 300.0123280 +22.7813258     542.6087     72.29036      1.963     5.91      4.54101     20.39531     41.67887        11     1.406     0.699 -48.56   0
        29    921.4725    917.5841 300.1751933 +22.9327054     2180.585     72.29036      2.334     6.05     4.376282     20.39531     94.16838        37     1.691     1.485  -4.00   0
        30    221.3085    999.9172 299.9302637 +22.7464804     630.0313     72.41914      1.727     7.83     79.85982     20.39531     53.73981        20     1.666     1.286  13.28   0
        31    572.9956    914.1915 300.0676368 +22.8273250     457.7062     72.14291      1.849     4.99     4.442835     20.39531     27.82117         6     1.301     0.542  83.85   0
        32    346.1516    997.8557 299.9697820 +22.7833342       534.46     72.32718      1.892     5.55     5.001797     20.39531     43.76101        10     1.232     0.705  76.15   0
        33    710.2130    906.1836 300.1130075 +22.8661445      650.045      72.2351      2.074     7.38     4.491338     20.39531       39.649        15     1.422     1.071 -39.54   0
        34    745.0256    900.7266 300.1256362 +22.8750070     1053.483     72.30877      2.112     7.98     4.526442     20.39531     57.57093        22     1.402     1.269   6.16   0
        35    190.7642    985.2936 299.9255192 +22.7331222     3801.705     72.27195      8.467    23.17      67.9358     20.39531     77.93501       243     5.139     4.212 -50.32   3
        36    767.3881    894.1047 300.1347628 +22.8798040     11709.65     72.21667      2.042     4.93     4.579462     20.39531     619.0218        58     1.589     1.560  10.15   0
        37    537.4364    990.9308 300.0315988 +22.8387015     2362.016     72.27195      2.127     5.39     4.117985     20.39531     116.0309        42     1.709     1.485   4.53   0
        38     80.2653    885.4301 299.9236327 +22.6713239     859.3013     72.30878      3.365     4.90     12.12728     20.39531     50.46874        12     1.091     0.991  -4.23   0
        39    777.0000    876.4602 300.1434978 +22.8776138     901.4706      72.2351      1.741     5.07     4.773812     20.39531     95.27764        14     1.547     0.808  68.66   3
        40    774.3223    876.7296 300.1425752 +22.8768890     780.6411     72.40076      1.491     4.07     4.767924     20.39531     85.32462        13     1.134     0.805  52.19   3
        41    959.1487    876.2503 300.2003930 +22.9321082     404.7202     72.32718      1.759     5.01     4.846726     20.39531     39.17197         6     1.325     0.537  22.88   0
        42    627.7130    874.4000 300.0976268 +22.8322942     460.7595      72.1798      1.846     5.19      4.68183     20.39531     28.88896         7     1.144     0.666 -36.08   0
        43    815.1927    869.4653 300.1576839 +22.8870444     881.2582     72.27195      3.600     8.62     4.804859     20.39531     42.33997        16     2.326     0.893  60.56   2
        44    864.2215    860.7932 300.1757979 +22.8992372     494.7158     72.27195      1.714     3.77     4.861874     20.39531     34.83425         5     1.029     0.397 -58.69   2
        45    713.8102    860.0460 300.1291315 +22.8539674     749.5668     72.30877      1.847     5.56     4.913484     20.39531     52.37627        16     1.261     0.977   6.65   0
        46    426.3872    856.1424 300.0408469 +22.7667118     4135.373     72.25352      1.938     4.36     4.902111     20.39531     275.5889        44     1.567     1.399 -21.87   0
        47    624.7314    986.4838 300.0602449 +22.8635915     7872.067     72.40076      2.066     6.96     4.162498     20.39531     434.4209        32     1.565     1.412  84.40   3
        48    470.1862    844.7249 300.0581982 +22.7765620     243.7039     72.30877      1.498     4.76     4.975404     20.39531     34.14758         5     1.045     0.614 -60.33   0
        49    205.2117    845.2711 299.9755455 +22.6972768     494.4291     72.30878      2.214     4.15     6.636471     20.39531     35.17317         6     0.753     0.654 -85.88   0
        50    152.3888    841.9041 299.9602100 +22.6804687     708.5154     72.19823      1.954     3.86     8.453872     20.39531     63.37064        12     1.047     0.974 -20.73   0
        51    128.8132    838.8657 299.9538660 +22.6725259      1455.15      72.2351      2.039     5.04     8.288434     20.39531     112.4084        31     1.610     1.308 -19.64   0
        52    629.6646    984.2760 300.0625005 +22.8644361     10002.73     72.36398      2.500    14.15     4.156745     20.39531     457.4614        77     3.315     1.679 -10.89   3
        53   1000.5488    828.3210 300.2288992 +22.9307258     2172.238     72.29036      2.079     5.33     5.089104     20.39531     132.6689        33     1.516     1.425  30.46   0
        54    954.9620    826.6390 300.2152169 +22.9165932     2110.441     72.36398      2.077     5.27      5.04083     20.39531     105.4469        33     1.505     1.423 -37.67   0
        55    659.6998    826.9587 300.1230205 +22.8282501     461.5949     72.27195      2.119     5.65     4.839364     20.39531      31.5234         7     1.302     0.691 -14.16   0
        56    737.9717    820.5707 300.1494986 +22.8498632     597.5724     72.27195      1.911     6.37     4.989051     20.39531     48.99537        12     1.680     0.727  -6.71   0
        57    161.5491    820.5500 299.9700003 +22.6770879     403.3676     72.32718      1.662     3.92     6.711062     20.39531     47.82235         7     1.218     0.578 -57.60   0
        58    606.4761    814.3231 300.1105401 +22.8086734     4924.729     72.38237      1.863     4.46     4.867828     20.39531     364.1752        37     1.382     1.368  27.43   0
        59    724.0798    987.1287 300.0910029 +22.8935510     717.8272     72.40076      2.240     7.83     4.041453     20.39531     36.95096        16     1.634     1.050  63.93   0
        60    409.1214    811.6659 300.0499295 +22.7487654     499.7859     72.40076      1.672     5.17     5.227119     20.39531     45.22213        12     1.107     0.957 -76.71   0
        61    156.7525    807.7917 299.9726555 +22.6719879     1370.002     72.30877      2.102     4.52     5.703481     20.39531     108.2904        26     1.473     1.314  22.44   0
        62    627.4077    806.9263 300.1194677 +22.8128200     722.4539     72.25352      1.741     4.56     4.880075     20.39531     63.99578        14     1.151     1.076 -38.58   0
        63    176.2073    805.5437 299.9794371 +22.6771770     417.0927     72.27195      1.428     4.88     5.537992     20.39531     44.95575         6     1.333     0.506 -38.30   0
        64    782.5834    794.2380 300.1719701 +22.8556586     4126.507     72.29036      1.920     4.22     5.006521     20.39531     243.9236        41     1.503     1.393 -29.86   0
        65    999.4860    794.3412 300.2396138 +22.9206378     1088.708     72.40076      1.899     7.14     5.121298     20.39531     66.52739        25     1.480     1.381   8.20   0
        66    191.8469    787.9518 299.9900194 +22.6768177     420.6251     72.30877      1.313     4.13     5.330358     20.39531      53.0929         6     1.095     0.444  65.89   0
        67    499.5938    786.8894 300.0861577 +22.7687657     574.1417     72.19823      1.540     3.92     5.227849     20.39531     65.08263        12     1.144     0.818   8.25   0
        68    146.1417    784.4019 299.9769575 +22.6620931     1166.789      72.2351      2.178     4.83     5.207708     20.39531     79.03725        26     1.539     1.219  -7.40   0
        69    561.6838    779.6063 300.1078675 +22.7852793     526.5695     72.21667      1.914     6.75     5.093145     20.39531     45.74683        12     1.507     0.849  63.60   0
        70    295.5291    776.4830 300.0260057 +22.7046121     53902.08     72.41914      1.907     4.11     5.549371     20.39531     4010.863       103     1.643     1.570   8.41   0
        71    553.2303    775.4990 300.1065686 +22.7815664     1425.856     72.25352      1.744     4.83     5.120572     20.39531     134.4481        24     1.421     1.184  47.61   0
        72    966.3649    775.0914 300.2355325 +22.9051873     588.6827     72.25352      1.731     7.34     5.181701     20.39531     48.43373        17     1.505     1.147 -20.00   0
        73    223.7801    774.4923 300.0043276 +22.6825294     552.3423     72.21667      2.058     5.46     5.516828     20.39531      48.9496        10     1.238     0.794 -20.03   0
        74    583.2178    772.0057 300.1170474 +22.7895479     895.9879     72.25352      1.799     3.91     5.069697     20.39531     80.25697        12     1.173     0.731  80.92   2
        75    593.3062    770.1417 300.1207968 +22.7920350     487.2618     72.34558      1.572     5.49     5.058361     20.39531      53.6929        13     1.117     1.019   2.71   0
        76    736.2527    756.7324 300.1697127 +22.8310033     691.5098     72.30878      1.747     5.32     5.092109     20.39531     56.01528        15     1.259     0.967  20.54   0
        77    345.2779    753.7368 300.0488816 +22.7129944     31492.93     72.38237      1.845     3.94     5.504146     20.39531     2813.141        79     1.556     1.477  -2.16   0
        78    359.6484    754.2225 300.0531970 +22.7174413     2166.259     72.29036      1.917     4.13     5.469526     20.39531     167.8923        29     1.420     1.276  32.89   2
        79    356.7285    748.4201 300.0541737 +22.7148999     816.3948     72.32718      2.365     6.04      5.49351     20.39531     56.98207        12     1.241     1.029   1.74   2
        80    868.4780    749.9991 300.2131418 +22.8686655     2783.812      72.1798      1.843     3.93     5.375685     20.39531     185.5606        32     1.380     1.303  -2.10   0
        81    626.3176    745.7263 300.1390191 +22.7949102     931.7208     72.40076      1.673     4.12     5.071593     20.39531      98.2135        20     1.324     0.994   2.68   0
        82    462.8077    745.8764 300.0880294 +22.7459619      558.353     72.25352      1.834     5.11     5.275268     20.39531     35.63017        10     0.987     0.748  25.28   0
        83    227.9980    745.3755 300.0151019 +22.6754355     753.5596      72.2351      1.685     5.17     5.441322     20.39531     64.74803        17     1.387     0.956 -67.69   0
        84    473.6733    740.8465 300.0930479 +22.7477733      789.519     72.29036      1.666     3.97     5.272949     20.39531     70.00959        16     1.168     0.964  -5.57   0
        85     33.4472    740.8822 299.9560605 +22.6158062     482.1912     72.30877      2.102     4.06     5.619518     20.39531     37.02563         8     0.882     0.676 -35.16   0
        86    874.4968    738.4837 300.2187620 +22.8671572     425.6766     72.45589      1.453     4.09      5.45108     20.39531     54.08175        10     1.012     0.747   0.20   0
        87    621.4564    738.2070 300.1399476 +22.7912934     369.1661     72.27195      1.370     2.98     5.118685     20.39531       36.225         5     0.726     0.453  68.61   0
        88    376.2046    735.3156 300.0644950 +22.7169743     324.7616     72.21667      1.229     2.79     5.451319     20.39531     34.60022         4     0.798     0.348  73.54   2
        89    419.7624    735.8547 300.0778814 +22.7301836     368.3924     72.29036      1.624     4.85     5.289656     20.39531     40.09227         8     1.133     0.589   0.04   0
        90     62.0205    735.2945 299.9667586 +22.6227722       405.42     72.21667      1.356     4.40     5.474195     20.39531     42.15528         7     0.775     0.710   6.71   0
        91    853.0722    733.0000 300.2138599 +22.8591658     390.5002     72.16135      1.565     3.00     5.403165     20.39531     37.04049         5     0.797     0.485 -26.62   2
        92    225.6357    729.8729 300.0194044 +22.6702768     612.8833     72.25352      1.895     7.32     5.408967     20.39531      42.5169        12     1.417     1.060 -50.30   0
        93    548.8077    720.4724 300.1230730 +22.7644333     396.0929     72.27195      1.607     4.72     5.227304     20.39531     41.23537         7     0.988     0.640 -16.33   0
        94    518.3629    718.8616 300.1141118 +22.7548489      481.711     72.30877      1.447     4.95     5.262644     20.39531     60.32682        12     1.052     0.863 -36.18   0
        95    934.8502    715.3335 300.2451176 +22.8785705     4525.544     72.27195      1.923     4.31     5.490785     20.39531      301.953        42     1.494     1.439 -31.30   0
        96    540.4995    716.1184 300.1218993 +22.7606933     1278.117     72.43752      1.600     3.60     5.245881     20.39531     114.7342        19     1.165     1.048  39.47   0
        97    621.8336    711.2153 300.1488361 +22.7836507     308.0358     72.27195      1.374     3.82     5.173687     20.39531     34.24309         5     1.322     0.317 -29.28   0
        98    923.1808    706.5686 300.2443240 +22.8725568     1729.429     72.29036      1.799     4.18     5.519948     20.39531     121.9884        29     1.339     1.305  44.07   0
        99    286.2898    700.1883 300.0479220 +22.6799366     811.8984      72.2351      1.838     3.80     5.613099     20.39531     91.45403        19     1.271     1.164  36.60   0
       100    749.6912    697.8521 300.1930366 +22.8181051     2559.111     72.34558      1.719     4.13      5.25469     20.39531     204.2203        32     1.332     1.267 -66.51   0
       101    954.5057    696.9815 300.2572153 +22.8791772     1771.915     72.21667      1.876     4.15     5.535801     20.39531     113.5025        28     1.343     1.271 -31.26   0
       102    134.9928    684.3388 300.0060037 +22.6300289      498.163     72.27195      1.520     4.03     5.370578     20.39531     62.23888        10     1.155     0.788 -24.29   0
       103    832.2515    683.9014 300.2233188 +22.8388165     687.0811     72.38237      1.708     4.55     5.394452     20.39531     56.06421        11     1.120     0.825  78.55   0
       104    868.1262    674.8703 300.2374447 +22.8469606     149218.5     72.36398      1.816     3.89     5.512062     20.39531     10250.51       156     1.628     1.569 -26.69   0
       105    630.0897    678.4909 300.1620416 +22.7767201     397.1017     72.45589      1.983     3.89     5.189774     20.39531     44.96644         6     1.106     0.514  42.39   0
       106   1015.1689    676.7469 300.2827259 +22.8915155     1147.798     72.30877      1.883     4.61     5.762821     20.39531     79.54143        26     1.370     1.285  38.82  16
       107    720.6384    675.5348 300.1912286 +22.8029899     722.6682     72.27195      1.499     3.09      5.21205     20.39531     75.43786        13     0.998     0.853   0.02   0
       108    900.4445    667.7468 300.2498428 +22.8545874     406.9035     72.30878      1.594     5.94     5.565524     20.39531     37.29052        10     1.138     0.872  36.92   0
       109    735.5922    660.9417 300.2006322 +22.8032733     9555.227     72.27195      1.701     3.60     5.325971     20.39531     727.1258        49     1.398     1.349  60.89   0
       110    554.2730    663.4052 300.1433168 +22.7496744     1770.125      72.2351      1.706     3.73     5.374652     20.39531     151.4805        24     1.240     1.154 -12.80   0
       111    237.0978    655.7095 300.0470647 +22.6524195     4931.244     72.47426      1.777     3.56     5.409297     20.39531     515.3674        39     1.404     1.319  12.87   0
       112    319.1936    653.7274 300.0732558 +22.6764566     1271.871      72.2351      1.840     4.25      5.56113     20.39531     107.6964        20     1.210     1.118 -36.42   0
       113    194.4911    652.1042 300.0349807 +22.6386124     442.3332     72.47426      1.845     5.96     5.390141     20.39531     35.51874         9     1.301     0.768 -23.19   0
       114    527.5009    649.4883 300.1394969 +22.7376555     861.7772     72.45589      1.778     4.08     5.385624     20.39531     85.82372        17     1.280     1.067  48.73   0
       115    519.1094    641.5930 300.1394474 +22.7328730     3216.062     72.19823      1.630     3.40     5.388669     20.39531     327.8152        29     1.311     1.178 -76.66   0
       116    509.1549    635.2896 300.1383940 +22.7280798     1424.834     72.27195      1.697     3.77     5.391228     20.39531     131.0975        22     1.311     1.035   1.73   0
       117    437.5840    635.3970 300.1160679 +22.7066682     304.6322     72.16135      1.615     4.14      5.49505     20.39531     30.65298         5     1.009     0.486  -3.79   0
       118    902.9315    633.7012 300.2616790 +22.8455417     510.8817     72.38237      1.949     6.69     5.620445     20.39531     34.89493        10     1.314     0.956  38.53   0
       119    173.2263    631.7423 300.0349798 +22.6263915     675.6294     72.29036      1.609     3.13     5.400648     20.39531     64.30683        12     0.961     0.851  77.19   0
       120    187.0208    630.1083 300.0398014 +22.6300575     568.8792     72.21667      1.504     3.52     5.390735     20.39531     72.84698        11     1.225     0.751  -0.54   0
       121    243.0071    627.8100 300.0579654 +22.6461793     371.7852     72.16135      1.815     4.70      5.38483     20.39531     36.51091         6     1.129     0.556 -23.40   0
       122    955.8268    627.1031 300.2803297 +22.8594765     463.3185      72.2351      1.585     5.13     5.732512     20.39531     53.71938         7     1.186     0.766  14.85   0
       123    213.1472    626.5202 300.0490942 +22.6368588     555.0323     72.30877      2.221     5.77     5.371667     20.39531     50.30154        10     1.453     0.723 -52.90   0
       124    532.7983    626.0541 300.1487592 +22.7325088     392.9707      72.2351      1.553     4.79      5.39047     20.39531     51.76318         8     1.037     0.711  13.36   0
       125    434.0527    624.9124 300.1183737 +22.7025981     1845.994     72.32718      1.689     3.44     5.486516     20.39531     166.8055        25     1.284     1.138  71.44   0
       126   1010.1823    622.9282 300.2986529 +22.8745431     766.3882     72.29036      2.294     6.63     5.767587     20.39531     51.32824        16     1.390     0.894  -4.96   0
       127     87.9946    619.7905 300.0123554 +22.5974082     19911.67     72.14291      1.984     3.95     5.584393     20.39531      1827.87        70     1.626     1.542  16.13   0
       128    519.2099    620.5080 300.1463274 +22.7268447     1184.404      72.2351      2.077     4.11     5.392551     20.39531     104.8436        19     1.223     1.088 -42.75   0
       129      9.1559    621.4737 299.9872997 +22.5742523     721.0793     72.27195      2.078     5.77     6.075585     20.39531      53.9857        13     1.238     0.996 -57.04   0
       130    272.0034    611.3488 300.0723342 +22.6501427     378.1716     72.29036      2.647     5.54       5.3629     20.39531     28.96242         6     1.227     0.706 -63.10   0
       131    937.1488    606.7172 300.2811219 +22.8480230     1001.359     72.30877      1.772     5.23     5.748082     20.39531     70.53426        22     1.408     1.147 -37.42   0
       132     34.2204    604.2881 300.0006719 +22.5768351     1421.648     72.21667      2.142     5.07     5.990172     20.39531     111.9026        26     1.575     1.305 -35.23   0
       133    803.9325    604.9830 300.2401219 +22.8076478     517.2866     72.29036      1.536     5.28     5.334441     20.39531     48.69283        11     1.109     0.710  -2.44   0
       134    100.6023    604.7054 300.0211747 +22.5968574     346.3838     72.19823      1.798     4.90     5.553621     20.39531     43.95519         7     1.268     0.537 -34.14   0
       135    876.4323    599.5942 300.2644890 +22.8278012     965.5888     72.29036      2.297     8.64     5.523455     20.39531     69.68023        23     2.119     1.013   7.29   0
       136    482.5151    601.1620 300.1411805 +22.7102934     348.8007     72.27195      1.375     4.07     5.458257     20.39531     49.74015        10     0.981     0.866  10.88   0
       137    621.6085    597.8694 300.1855865 +22.7510094     159.7466     72.27195      1.282     4.17     5.501647     20.39531     29.07504         6     0.752     0.658 -34.47   0
       138    439.0718    593.1082 300.1302661 +22.6949645     734.1742     72.43752      1.566     3.68       5.5202     20.39531     68.88497        14     1.165     0.933  68.89   0
       139    586.8550    592.1121 300.1766259 +22.7389463     477.5046     72.32718      1.447     5.20      5.54916     20.39531     49.82733        10     1.059     0.722 -24.37   0
       140    634.2100    590.5364 300.1918955 +22.7526756     467.4335      72.2351      1.523     3.91     5.562299     20.39531     55.68468         8     1.088     0.695  29.69   0
       141    604.8945    590.2714 300.1828452 +22.7438200     684.4938     72.40076      1.688     3.88     5.567324     20.39531     62.34532        11     0.940     0.883   1.71   0
       142    483.6277    589.3633 300.1453588 +22.7072365     965.1882     72.29036      1.641     3.75     5.553858     20.39531     93.39941        14     1.106     0.917  39.44   0
       143    917.1932    584.9723 300.2819568 +22.8357962     3255.576     72.29036      1.682     3.69      5.59892     20.39531      252.739        33     1.343     1.291 -84.26   0
       144    448.8300    584.6909 300.1360385 +22.6954695     1859.815     72.25352      1.675     3.28     5.561752     20.39531     170.8439        24     1.213     1.137  30.67   0
       145   1014.7354    583.3157 300.3129406 +22.8645105     811.4623     72.38237      1.904     6.52     5.624844     20.39531     61.93222        15     1.448     0.981  17.35  16
       146     10.7400    577.9528 300.0019250 +22.5622353      5044.06     72.34558      2.040     4.16     6.121792     20.39531     426.2531        48     1.609     1.523  17.67   0
       147    955.6729    574.5753 300.2973425 +22.8443219     176.0291     72.32718      1.398     5.09     5.583764     20.39531     36.05769         5     1.044     0.702  53.33   0
       148    312.3020    571.1906 300.0979168 +22.6506850     9413.096     72.19823      1.745     3.37     5.438441     20.39531     914.5922        50     1.422     1.379  15.84   0
       149    434.7795    568.3593 300.1369663 +22.6865679     8992.809     72.32718      1.615     3.26     5.619355     20.39531     863.0226        45     1.338     1.253  45.98   0
       150    513.9827    565.0687 300.1627036 +22.7093479     199.7667     72.29036      1.225     3.76     5.769159     20.39531     28.41233         5     1.018     0.400 -59.78   0
       151    846.3751    562.6655 300.2671047 +22.8081843     1928.781     72.27195      1.677     3.80     5.364856     20.39531     158.2564        25     1.240     1.177  58.73   0
       152    931.1704    560.0187 300.2944225 +22.8328020     12587.63     72.29036      1.727     3.66      5.50674     20.39531     960.0931        52     1.419     1.401 -62.68   0
       153    495.3534    557.9393 300.1592156 +22.7017190     11602.17     72.32718      1.574     3.16     5.810812     20.39531     1147.798        46     1.300     1.264  38.53   0
       154    664.9209    554.2075 300.2132656 +22.7514290     474.8712     72.21667      1.224     3.53     5.792515     20.39531     61.43619         9     0.946     0.702  -3.41   0
       155    222.7907    553.2757 300.0758798 +22.6187152     1444.483     72.27195      1.796     3.64     5.381912     20.39531     121.8631        23     1.257     1.135  10.39   0
       156    469.5727    551.3815 300.1533149 +22.6921122     380.6696     72.30878      1.475     4.34     5.813197     20.39531     45.14262         9     1.001     0.834 -26.91   0
       157    426.9446    546.0837 300.1417596 +22.6778203     4330.831     72.38237      1.607     3.26     5.674394     20.39531     399.3453        37     1.413     1.260  16.38   0
       158    769.8117    546.6300 300.2484304 +22.7806543      750.446     72.29036      1.488     3.04     5.394223     20.39531     90.63949        15     1.094     0.877   7.75   0
       159    405.3538    544.5351 300.1355394 +22.6709073     1234.299     72.30878      1.554     3.31     5.607266     20.39531     142.0651        20     1.162     1.075 -17.41   0
       160    847.0157    541.9341 300.2740365 +22.8024138     1594.646     72.27195      1.741     3.78     5.328655     20.39531     123.8159        23     1.264     1.111 -55.89   0
       161     94.1697    542.0189 300.0395294 +22.5769312     338.6065     72.29036      1.281     3.05     5.734567     20.39531     42.06243         6     0.795     0.639 -82.13   0
       162    367.0051    540.1561 300.1250216 +22.6581602     390.6749     72.29036      1.591     4.57     5.514972     20.39531     34.73417         8     0.883     0.672  38.91   0
       163    727.4657    538.6785 300.2378073 +22.7656907      911.966     72.40076      1.686     4.42     5.525823     20.39531     80.00838        15     1.123     0.946 -76.25   0
       164    543.6633    533.7271 300.1821269 +22.7092301     206602.7     72.32718      1.614     3.18     6.047234     20.39531     22297.81       195     1.610     1.449 -17.35   0
       165    229.7079    533.5763 300.0844278 +22.6151304     3540.051     72.21667      1.684     3.38     5.452327     20.39531     331.9861        37     1.407     1.236  10.33   0
       166    796.0444    530.2574 300.2619281 +22.7837988     552.9209     72.32718      2.183     4.57     5.326632     20.39531     38.79716         8     0.874     0.677 -46.37   0
       167    159.5110    543.8846 300.0592441 +22.5970527      639.926     72.41914      1.670     5.38     5.542207     20.39531     76.55291        13     1.304     0.848  28.77   0
       168    434.3938    514.4385 300.1543536 +22.6709586     2948.137     72.32718      1.730     3.15     5.618562     20.39531     326.1211        37     1.698     1.182 -78.88   0
       169    278.7527    516.3747 300.1052733 +22.6248861      320.799     72.30878      1.416     3.65     5.613699     20.39531     42.85928         8     1.034     0.668 -10.54   0
       170    845.9352    510.1612 300.2840157 +22.7929522     516.0851     72.27195      2.142     6.50     5.318864     20.39531     37.91086        10     1.558     0.762 -58.50   0
       171    751.6180    502.7785 300.2569944 +22.7625981      464.372     72.29036      1.726     4.82     5.440139     20.39531      43.1456         9     1.064     0.668  42.26   0
       172    831.3088    500.3082 300.2826517 +22.7857407     1654.479     72.45589      1.628     3.16     5.305003     20.39531     159.5859        24     1.187     1.171 -87.38   0
       173    702.5321    498.0312 300.2432302 +22.7465387     2604.849     72.27195      1.633     3.29     5.669862     20.39531     221.0552        27     1.261     1.149  40.67   0
       174    947.4604    495.8568 300.3203396 +22.8192194     527.7505     72.36398      1.758     6.11     5.429716     20.39531     56.90543        10     1.375     0.762 -33.36   2
       175    945.7896    491.3454 300.3212828 +22.8174216     838.9277     72.29036      1.993     4.91     5.429716     20.39531     63.29947        12     1.113     0.920 -26.34   2
       176    911.8368    494.8540 300.3095476 +22.8082713     345.1596     72.30877      1.505     5.39     5.403101     20.39531     37.85209         7     1.296     0.633  41.92   0
       177    607.2789    494.8612 300.2145678 +22.7171085     375.7335     72.36398      1.525     4.69      6.34867     20.39531     41.15992         9     1.148     0.677 -36.45   0
       178    489.8355    493.9658 300.1782670 +22.6816811     789.2786     72.36398      1.584     4.65     5.718234     20.39531      74.7506        14     1.237     0.908  58.64   0
       179    959.9629    492.1588 300.3254424 +22.8218965     1244.088     72.38237      1.626     3.92     5.429716     20.39531     107.4074        20     1.260     1.028 -27.05   0
       180    831.7089    490.4974 300.2859615 +22.7830387     2269.159     72.47426      1.778     4.13     5.300436     20.39531     192.8356        29     1.431     1.199  86.58   0
       181    584.8603    488.4587 300.2096599 +22.7085551     704.5427     72.36398      2.000     5.66      6.38712     20.39531     56.38109        12     1.477     0.611  63.64   2
       182    370.7878    487.9192 300.1431577 +22.6442848      441.643     72.27195      1.745     4.92     5.517453     20.39531     45.76711         7     0.924     0.821  36.22   0
       183    869.8085    485.5507 300.2994536 +22.7930180     4442.779     72.29036      1.649     3.19     5.337348     20.39531     414.6121        35     1.316     1.250 -62.39   0
       184    423.7392    487.2368 300.1598662 +22.6599504      336.725     72.30878      1.473     3.10     5.533632     20.39531     48.09703         6     0.856     0.591 -27.74   0
       185    530.3031    481.3720 300.1949614 +22.6901807     272.6636      72.2351      1.408     3.49     6.207643     20.39531     43.10392         5     0.762     0.462  13.45   0
       186    961.4880    476.3755 300.3310423 +22.8178118     726.7167     72.25352      1.721     4.33     5.463195     20.39531     68.46683        14     1.140     0.995  33.57   0
       187    101.7918    475.4887 300.0634967 +22.5601117     986.9271     72.19823      1.743     4.14     5.766625     20.39531     100.1421        17     1.250     0.984  89.96   0
       188    900.9144    473.5949 300.3130406 +22.7988872     281.2481     72.21667      1.432     3.90     5.444528     20.39531     34.89104         5     0.890     0.489   2.90   0
       189    368.2777    469.5825 300.1483283 +22.6382640     293.9651     72.29036      0.937     3.53     5.578616     20.39531     37.19549         5     0.805     0.447 -18.03   0
       190     94.4554    466.0485 300.0642794 +22.5552018     281.0761     72.32718      1.336     4.35     5.779387     20.39531     42.50383         7     1.081     0.547 -60.55   0
       191    957.8307    465.6395 300.3333859 +22.8136286     298.3447     72.29036      1.428     2.42     5.532329     20.39531     41.08266         5     0.728     0.434  20.60   0
       192    702.2377    460.2906 300.2553896 +22.7355982     537.5435     72.27195      1.655     3.70     5.734631     20.39531     50.65583        11     1.117     0.685   1.04   0
       193    591.1929    458.1996 300.2214555 +22.7017522     358.4669       72.106      1.377     4.02      6.44181     20.39531     38.38239         7     0.984     0.643  12.99   0
       194    311.2966    458.2781 300.1342602 +22.6179461     284.3838     72.41914      1.413     4.16     5.756961     20.39531     39.92659         6     1.104     0.447 -33.19   0
       195    643.0259    456.1427 300.2382775 +22.7166796     750.6943     72.29036      1.497     3.20     6.134918     20.39531     75.34482        13     0.959     0.913   3.46   0
       196    958.1861    448.7170 300.3389898 +22.8088659     578.0805     72.27195      1.876     4.73     5.648623     20.39531     52.09494         9     1.198     0.860 -58.63   0
       197    703.8700    448.0540 300.2598703 +22.7325680      816.313     72.32718      1.615     3.67     5.759974     20.39531     75.69674        14     1.065     0.897 -62.04   0
       198    861.3012    444.4753 300.3101327 +22.7786564     1037.357     72.41914      1.711     4.43     5.624463     20.39531     100.5142        20     1.399     0.960  61.17   0
       199    845.4600    440.6445 300.3064339 +22.7728140     679.9882     72.30878      1.717     4.13     5.557029     20.39531      63.3302        14     1.102     0.996  22.32   0
       200    589.7808    438.7445 300.2273299 +22.6957361     3219.204     72.27195      1.524     2.86      6.44111     20.39531     367.9387        30     1.208     1.155  68.92   0
       201     66.4847    429.8482 300.0673308 +22.5364227     288.7305     72.27195      1.226     4.12     5.830169     20.39531     43.58509         7     1.033     0.470  79.28   0
       202    950.2123    438.0722 300.3399561 +22.8034174     432.6662     72.30877      1.316     3.13     5.740499     20.39531     56.16481         8     0.929     0.592  21.15   0
       203   1001.2184    417.8363 300.3624454 +22.8128534     1363.365     72.29036      1.774     3.95     5.729759     20.39531     102.3163        24     1.304     1.190 -59.23   0
       204    959.5038    416.6814 300.3497987 +22.8000421     831.3542     72.43752      1.673     4.11     5.861345     20.39531     76.90926        16     1.198     0.919  55.63   0
       205    873.3054    417.9350 300.3224919 +22.7746131     388.8869     72.41914      1.330     3.71     5.878424     20.39531     61.16289        11     1.200     0.654   7.62   0
       206    700.4453    412.6598 300.2702897 +22.7213641     1083.811     72.30878      1.540     2.98     5.849363     20.39531     144.3681        18     1.112     0.991  74.79   0
       207    496.2591    413.2401 300.2064691 +22.6604013     453.2591     72.29036      1.428     4.11     6.318073     20.39531     41.55267        10     1.021     0.717 -50.96   0
       208    204.5630    410.6844 300.1164931 +22.5722951     669.0883     72.27195      1.645     3.82     5.880014     20.39531     81.40355        16     1.230     0.988  48.99   0
       209     43.9717    408.9398 300.0671163 +22.5236708     306.8198     72.30877      1.570     3.90     5.941267     20.39531     34.92794         5     1.254     0.347 -25.70   0
       210    266.6938    406.3233 300.1372399 +22.5896563     3819.704     72.41914      1.702     3.33     5.851571     20.39531     395.7766        36     1.333     1.297  34.25   0
       211    999.9347    405.2304 300.3661357 +22.8088416     4490.849     72.29036      1.730     3.31     5.779316     20.39531     422.0835        36     1.360     1.307 -22.24   0
       212    213.9591    401.0263 300.1225502 +22.5723356      7625.86     72.34558      1.683     3.25     5.844537     20.39531     669.8848        47     1.449     1.334  25.35   0
       213    592.3778    400.9086 300.2404181 +22.6856351     223.3088     72.21667      1.235     3.50     6.326395     20.39531     34.46179         5     0.788     0.448 -73.28   0
       214    979.8909    396.3140 300.3627722 +22.8002799       1957.1     72.45589      1.738     3.46     5.858212     20.39531     174.1642        28     1.308     1.264 -49.41   0
       215    354.7267    395.3933 300.1681866 +22.6128855     4767.642      72.2351      1.586     2.89     5.808068     20.39531     560.4572        38     1.298     1.271  31.83   0
       216    598.9596    392.2858 300.2452673 +22.6851261     18490.34     72.27195      1.513     2.86     6.245771     20.39531     2001.359        59     1.315     1.298  47.32   0
       217    616.8564    392.6787 300.2507174 +22.6905967      807.199     72.32718      2.348     6.96     6.187328     20.39531     55.45684        17     1.964     0.691 -35.98   0
       218    842.6020    389.1868 300.3222421 +22.7571553     199.1057     72.12445      1.227     3.40     5.794663     20.39531     30.55938         5     0.742     0.452 -71.35   0
       219    795.7782    382.8463 300.3096934 +22.7413202     411.4932     72.32718      1.436     5.07      5.60985     20.39531     42.68126         9     1.094     0.664  46.67   0
       220    219.2161    379.7406 300.1310923 +22.5677952     328.9188     72.25352      1.437     3.45     5.824922     20.39531     40.57516         6     0.754     0.563 -48.41   0
       221    932.6102    375.3385 300.3548213 +22.7800999     803.5132      72.2351      1.672     3.97      5.99537     20.39531     83.09087        14     1.171     0.919 -52.81   0
       222    153.5392    372.1195 300.1131342 +22.5459285     1961.498     72.34558      1.761     3.79     6.070548     20.39531     188.4897        29     1.394     1.243 -84.25   0
       223    953.2335    362.4277 300.3654472 +22.7825539      1214.19     72.30878      1.572     3.45      5.98645     20.39531     110.9693        20     1.199     1.031  26.85   0
       224    539.5972    361.6535 300.2367092 +22.6585465     6449.789     72.25352      1.530     2.84     6.307455     20.39531     777.0733        34     1.227     1.166  84.70   0
       225    254.1380    361.2062 300.1479716 +22.5729313     581.0072     72.27195      1.450     3.93     5.827632     20.39531     83.76331        13     1.250     0.835 -10.76   0
       226    111.9332    353.7295 300.1061606 +22.5281794     452.6683     72.32718      1.643     6.22     6.124614     20.39531     49.12467        10     1.371     0.793  66.06   0
       227    799.8519    353.1775 300.3205906 +22.7340039     296.2729     72.29036      1.283     3.54     5.826609     20.39531     55.01927         5     0.821     0.536  45.03   0
       228    653.4846    352.2906 300.2752387 +22.6899460     608.1521     72.45589      1.373     2.66     5.840482     20.39531      62.6132        10     0.914     0.680   4.27   0
       229    743.8345    350.9166 300.3038536 +22.7165910     1089.647     72.25352      1.505     3.18       5.8049     20.39531     100.8274        15     1.052     0.886 -20.17   0
       230    446.2687    347.8461 300.2121171 +22.6266335     6349.805     72.27195      1.537     2.94     6.092185     20.39531     702.7339        36     1.258     1.191  89.72   0
       231    838.1735    342.5722 300.3359855 +22.7424188     1545.035     72.25352      1.700     3.24     5.921784     20.39531     142.4563        20     1.165     1.014 -53.83   0
       232    935.8419    342.6387 300.3664398 +22.7716565     591.7194     72.38237      1.624     5.75     6.021595     20.39531     55.00091        14     1.182     0.938 -32.30   0
       233    430.7703    336.6722 300.2109155 +22.6187806     601.8488     72.29036      1.631     4.40     6.000702     20.39531      56.6922         9     0.935     0.766   3.26   0
       234    513.6400    334.6656 300.2373780 +22.6430156     470.7853     72.25352      1.611     4.71     6.225775     20.39531     43.75644        10     0.945     0.819 -67.41   0
       235    811.1205    330.0467 300.3316099 +22.7307208     716.6877     72.30877      1.523     3.71     5.866874     20.39531     76.98087        14     1.093     0.983  67.47   0
       236    333.8129    326.9940 300.1838675 +22.5869637     2615.678     72.16135      1.608     3.50     5.814367     20.39531     250.8958        28     1.220     1.186  23.50   0
       237     52.2296    324.4287 300.0971013 +22.5018730     1005.462     72.27195      1.806     4.30     6.581444     20.39531     95.74676        20     1.368     1.063 -23.79   0
       238    303.1445    316.4145 300.1777533 +22.5747380     30165.18     72.27195      1.626     3.00     5.828074     20.39531      3468.02        71     1.431     1.378  48.22   0
       239    837.9090    314.3538 300.3450575 +22.7342202     1276.487     72.27195      1.513     3.26     5.931314     20.39531     139.8995        19     1.105     1.049  -2.34   0
       240    792.9828    312.4938 300.3316467 +22.7202438     263.5965     72.21667      1.295     3.84     5.857744     20.39531     30.24375         6     0.847     0.500   0.12   0
       241      1.1953    304.0794 300.0878368 +22.4807351     1396.161     55.40321      1.102     2.86     7.078341     20.39531     312.4361        11     1.252     0.396  89.28  24
       242    753.3229    303.1835 300.3222977 +22.7056985      566.443     72.29036      1.732     4.30     5.861483     20.39531     56.52811        11     1.163     0.699 -42.14   0
       243    177.6416    302.7275 300.1431417 +22.5332128     418.4691     72.27195      1.543     3.47     6.003019     20.39531     52.81618         7     1.037     0.671 -56.69   0
       244    401.7275    301.9232 300.2131437 +22.6000948     645.2659     72.38237      1.550     2.75     5.889733     20.39531     74.07764        11     0.868     0.826  22.39   0
       245    713.6760    296.3881 300.3121389 +22.6918800     1914.241     72.30878      1.521     2.71     5.894176     20.39531     226.6338        23     1.170     1.053  76.40   0
       246    521.7126    291.4116 300.2539237 +22.6329950     320.2362      72.2351      1.212     2.82     6.080639     20.39531     53.26697         7     0.897     0.515 -58.33   0
       247    929.2144    289.2302 300.3816972 +22.7543031     690.7214     72.29036      1.669     7.14     6.029542     20.39531      61.1496        15     1.556     0.917  -2.91   0
       248    375.4893    280.8949 300.2117946 +22.5861931     2191.645     72.47426      1.721     3.76     5.846344     20.39531     197.3242        27     1.348     1.118  52.88   0
       249    814.4871    273.8952 300.3508745 +22.7155712     555.1891     72.47426      1.505     3.68     5.881871     20.39531     64.59235        13     1.061     0.895  67.71   0
       250    807.1979    274.7004 300.3483396 +22.7136223     305.0364     72.16135      1.313     3.50     5.873843     20.39531      41.9141         5     0.805     0.438 -11.41   0
       251    697.3315    271.7367 300.3150385 +22.6798975     270.4016     72.34558      1.226     3.24     5.915234     20.39531     56.15109         5     0.939     0.395 -13.29   0
       252    451.0046    260.1345 300.2420426 +22.6028339     1108.526     72.29036      1.565     3.72     5.953723     20.39531     98.18681        20     1.218     1.027  36.86   0
       253    258.6656    260.2801 300.1821172 +22.5452833     172.1107     72.40076      1.354     3.47     5.857019     20.39531     37.02924         5     0.760     0.457 -78.71   0
       254    303.3732    258.2198 300.1966990 +22.5580800     274.6751     72.29036      1.728     4.64     5.836721     20.39531      26.7323         5     0.832     0.733 -20.61   0
       255    835.0804    253.8854 300.3637884 +22.7159736     321.8958     72.45589      1.432     4.36     5.874565     20.39531     41.01437         5     0.790     0.684  22.32   0
       256    696.0944    252.2697 300.3209663 +22.6739269     2266.969     72.41914      1.539     2.92     5.904897     20.39531      256.215        24     1.177     1.128 -54.73   0
       257    957.4897    246.7795 300.4042907 +22.7505407     3125.134      72.2351      1.655     3.64     6.102361     20.39531     263.1623        32     1.305     1.239 -84.91   0
       258   1018.8726    242.1296 300.4249609 +22.7675578     343.4155     72.36398      1.714     4.78     6.197318     20.39531      46.2895         8     1.026     0.713  17.37  16
       259    404.6986    236.1956 300.2353853 +22.5820877     647.1389      72.1798      1.450     3.12     5.953829     20.39531     80.90284        12     1.122     0.701 -41.16   0
       260    110.0050    230.3431 300.1455788 +22.4921528     525.5375     72.25352      1.384     3.55     6.502273     20.39531     57.05714        11     1.011     0.777 -17.18   0
       261     79.6124    230.1409 300.1361933 +22.4829901       1381.7     72.27195      1.920     3.66     6.676738     20.39531     123.4977        24     1.514     0.986 -28.81   0
       262    973.2694    227.4520 300.4154841 +22.7496957     430.6867     72.27195      1.475     4.82     6.152217     20.39531     48.39127         8     0.951     0.692  18.71   0
       263    816.6563    224.0999 300.3677001 +22.7018905      402.276     72.38237      1.498     2.61     5.826006     20.39531     44.95755         7     0.722     0.669  79.26   0
       264    163.6002    222.2171 300.1648828 +22.5058717     521.1017     72.17979      1.610     4.12     6.128981     20.39531     64.30434        11     1.029     0.971  46.49   0
       265    958.1532    220.2294 300.4131078 +22.7430961      284.807     72.30877      1.350     3.89     6.134751     20.39531     34.32272         6     0.764     0.567  35.03   0
       266    838.9503    215.7483 300.3773631 +22.7061555     351.6385     72.32718      1.904     5.73     5.824471     20.39531     32.10061         7     1.185     0.780  45.70   0
       267    767.7162    213.8047 300.3557735 +22.6842878     627.3563     72.21667      1.380     3.04     5.833319     20.39531     66.78612        13     0.974     0.841  48.19   0
       268    358.4925    213.1925 300.2284576 +22.5616402     385.6126     72.19823      1.257     2.86      5.84038     20.39531     53.35461         6     0.715     0.656 -23.13   0
       269    858.2401    207.1597 300.3861662 +22.7094532     408.0742     72.36398      1.769     5.54     5.823405     20.39531     32.46725         9     1.123     0.770  83.56   0
       270    866.0657    202.8730 300.3899978 +22.7105599     2194.879     72.32718      1.596     3.53     5.826859     20.39531     200.8662        27     1.303     1.115 -52.26   0
       271    284.4337    199.7870 300.2097515 +22.5356117     2148.201     72.27195      1.652     3.08     5.905167     20.39531     248.3903        31     1.296     1.255  23.33   0
       272    764.2902    194.3543 300.3610117 +22.6776656     700.3419     72.27195      1.675     3.65     5.833642     20.39531     82.41055        12     1.074     0.846  70.15   0
       273    871.6003    191.6621 300.3953597 +22.7089883     296.0612      72.2351      1.324     3.45     5.848456     20.39531     35.43695         5     1.048     0.327 -20.06   0
       274    362.2409    195.0789 300.2354975 +22.5575545     1041.898     72.27195      1.568     3.61     5.861152     20.39531     98.83336        18     1.135     1.081  11.29   0
       275    179.2402    187.0022 300.1811651 +22.5004354     826.2866     72.29036      1.771     3.49      6.03605     20.39531     84.18235        12     0.998     0.915  35.24   0
       276    782.0839    184.2202 300.3698470 +22.6800720     576.9686      72.2351      1.448     3.55     5.829067     20.39531     73.80901        10     1.066     0.720  29.50   0
       277    717.0912    184.0916 300.3496205 +22.6605926     1604.522     72.45589      1.491     3.26     5.863982     20.39531     182.7646        22     1.183     1.097 -65.15   0
       278    200.5227    180.6064 300.1898595 +22.5049708     628.2758     72.21667      1.776     2.73     6.004562     20.39531     63.73721         8     0.848     0.674 -43.11   0
       279    988.4901    177.0133 300.4365902 +22.7397253     835.1559      72.2351      1.534     3.46     6.310828     20.39531     85.42567        13     0.996     0.918   2.56   0
       280    490.5110    176.7428 300.2813875 +22.5906784     289.9246     72.32718      1.431     4.65     5.915242     20.39531     46.25591         8     1.081     0.619   5.83   0
       281    721.2725    175.3066 300.3537724 +22.6593156     816.2882     72.41914      1.648     5.14     5.859157     20.39531     81.91914        15     1.461     0.916  88.57   0
       282    641.6635    174.8023 300.3291168 +22.6353529     1198.688     72.29036      1.461     3.00      5.91558     20.39531     131.6482        18     1.113     0.989  45.27   0
       283    462.6768    171.0045 300.2745779 +22.5806971     486.9793     72.19823      2.577     4.77     5.916616     20.39531     40.28405         7     1.153     0.704  -5.24   0
       284    837.1235    166.4844 300.3927659 +22.6914299     1555.344     72.40076      1.595     2.98      5.82323     20.39531     172.9588        21     1.153     1.072  64.85   0
       285    567.9269    166.7752 300.3087384 +22.6109797     1045.225     72.32718      1.440     3.19     5.965996     20.39531     115.8057        13     1.075     0.766 -27.83   0
       286    849.2000    165.7783 300.3967625 +22.6948384      997.483     72.19823      1.687     2.99     5.823172     20.39531     96.75436        14     1.007     0.863 -34.67   0
       287   1010.0366    156.4872 300.4499714 +22.7402570     1758.424     72.27195      1.786     3.37     6.475968     20.39531     160.2821        29     1.378     1.248 -82.32   0
       288    966.0159    155.9718 300.4363963 +22.7269473     1197.102     72.30877      1.658     4.16     6.232786     20.39531     102.6209        17     1.201     1.058 -32.39   0
       289    199.8318    149.0134 300.1998857 +22.4956829     784.6987     72.27195      1.596     3.81     6.023311     20.39531      78.9805        11     1.100     0.683 -20.06   0
       290     61.6192    143.1868 300.1587877 +22.4526147     2260.064     72.25352      1.851     3.73     6.738325     20.39531     219.0554        31     1.432     1.314  31.92   0
       291    885.0862    141.0563 300.4159738 +22.6984538      623.541     72.38237      1.373     2.56     5.893153     20.39531     77.71828        10     0.876     0.694   0.73   0
       292     11.6991    140.6671 300.1440847 +22.4369374     376.4169     72.38237      1.442     3.21     6.888204     20.39531      53.1348         8     1.008     0.621 -32.74   0
       293    219.1476    136.6197 300.2099125 +22.4979042     5698.378     72.27195      1.768     3.29     6.042631     20.39531     598.0096        39     1.416     1.319  49.98   0
       294      3.3769    131.0345 300.1446198 +22.4316766      1294.73     66.45741      1.802     3.96     6.915182     20.39531     122.5953        22     1.255     1.229  77.40  24
       295    202.3918    127.5938 300.2076248 +22.4902923     606.0707     72.14291      1.757     5.08     6.082991     20.39531     68.21339        11     1.207     0.985  36.76   0
       296   1018.1577    124.5583 300.4628572 +22.7334905     18382.29     72.40076      1.805     3.62     6.523208     20.39531     1602.149        63     1.554     1.444 -82.91  16
       297    863.3174    118.5350 300.4164816 +22.6854606     3533.799     72.40076      1.640     3.18     5.844798     20.39531     363.3671        34     1.312     1.232 -86.14   0
       298    967.0965    117.2266 300.4492932 +22.7161141      2853.73      72.2351      1.759     3.20     6.234355     20.39531     331.3869        32     1.434     1.230 -65.44   0
       299    412.8517    113.9515 300.2775540 +22.5493755      560.001     72.32718      1.476     3.08     5.944661     20.39531     71.09737        10     0.924     0.712   0.60   0
       300    165.4140    113.8881 300.2005634 +22.4752797     414.0912      72.2351      1.926     4.91     6.174214     20.39531     53.74064         8     1.272     0.566  47.39   0
       301    527.0621    111.6208 300.3138836 +22.5828848     240.6195     72.25352      1.214     2.79     5.919775     20.39531     41.46362         6     0.791     0.483   3.88   0
       302    338.3251    104.9962 300.2572523 +22.5244924     900.9756     72.19823      2.455     8.33     6.033572     20.39531     71.43368        19     2.219     0.873 -15.07   0
       303    464.1647    100.8681 300.2977750 +22.5609696     1719.834     72.29036      1.559     2.89     5.913358     20.39531      180.677        27     1.278     1.120  82.38   0
       304    103.0921    102.7815 300.1847792 +22.4534240     486.7384     72.21667      1.303     3.57     6.594831     20.39531     55.02229         9     1.095     0.556 -25.39   0
       305    526.2744    100.3596 300.3172879 +22.5794095     369.5108     72.27195      1.358     2.86     5.906351     20.39531     42.59573         6     0.834     0.494 -45.51   0
       306    207.8757     96.3421 300.2194593 +22.4829503     376.0416     72.34558      1.889     5.09     6.162845     20.39531     37.25201         6     1.034     0.709  -9.05   0
       307    752.5552     90.7555 300.3909343 +22.6443394     492.7282     72.32718      1.881     3.94     5.884347     20.39531     51.96727         8     0.912     0.809  82.54   0
       308    600.5128     87.4084 300.3446183 +22.5978956     351.8871     72.21667      1.762     4.20     5.896707     20.39531     29.04024         5     1.025     0.492   0.32   0
       309    238.0754     80.5511 300.2339731 +22.4874522     6176.619     72.29036      1.733     3.17     6.146439     20.39531      643.923        44     1.436     1.337  56.75   0
       310    744.8943     81.5447 300.3915303 +22.6393970      481.378     72.34558      1.471     4.31     5.953056     20.39531     44.98121         8     1.160     0.457  10.66   0
       311     89.2646     80.0140 300.1878571 +22.4427392     704.1121     72.25352      1.802     4.13     6.573787     20.39531     54.09794        12     1.092     1.024  64.99   0
       312    867.0307     78.5873 300.4305873 +22.6750700     285.2344     72.29036      1.390     2.21     5.874693     20.39531     47.50539         6     0.768     0.491   3.71   0
       313    209.9191     74.6862 300.2271127 +22.4773362     289.7879     72.43752      1.392     2.75     6.173596     20.39531      39.3104         5     0.855     0.462  -3.54   0
       314    253.5775     72.0418 300.2415543 +22.4896466     422.7181     72.32718      1.543     3.17     6.154412     20.39531     51.21943         6     1.110     0.533 -22.65   0
       315    484.2554     65.9940 300.3153345 +22.5569498     6155.005     72.27195      1.576     3.01     5.835664     20.39531     622.2732        38     1.325     1.236  64.28   0
       316    369.6107     65.9650 300.2796408 +22.5226321     655.4558     72.29036      1.598     3.70     6.012949     20.39531     79.26121        15     1.194     0.904  37.70   0
       317    541.6445     60.6325 300.3349508 +22.5725789     217.6902     72.34558      1.184     3.81      5.82479     20.39531     36.31631         5     1.000     0.416  74.88   0
       318    736.8471     56.1875 300.3972379 +22.6296914     723.9136     72.30877      1.531     3.03     6.171376     20.39531     74.81679        10     0.899     0.721  -8.40   0
       319    829.2907     54.5398 300.4266055 +22.6568618     348.9413     72.38237      1.435     3.80     5.933949     20.39531     50.10651         7     0.963     0.488  -6.99   0
       320    898.0942     52.4766 300.4487417 +22.6768396      196.148     72.41914      1.418     4.22      5.95433     20.39531     32.10371         5     0.781     0.651  73.92   0
       321    176.8800     49.9222 300.2248581 +22.4603245     470.1226     72.40076      1.585     5.06     6.227183     20.39531     60.26832         9     1.212     0.842  21.29   0
       322    612.6339     46.1265 300.3617734 +22.5896426     6293.624     72.27195      1.623     3.08     5.905597     20.39531     686.6396        42     1.417     1.238  73.32   0
       323    535.7254     48.4722 300.3370468 +22.5673091      618.621     72.34558      1.833     3.49     5.796515     20.39531     56.93924         8     1.060     0.638  -9.59   0
       324    387.3668     45.0692 300.2919400 +22.5219363     1320.556     72.29036      1.598     3.16     5.922767     20.39531      148.717        23     1.228     1.163  65.22   0
       325    653.6330     43.5776 300.3753788 +22.6011731      915.087     72.29036      1.700     3.87     6.159945     20.39531     104.1184        20     1.300     1.014  59.66   0
       326    669.5110     39.7779 300.3815598 +22.6048288     588.8607     72.21667      1.503     3.70     6.286664     20.39531     64.69164        12     1.119     0.900 -11.69   0
       327    136.5983     37.7677 300.2162662 +22.4447695     765.7917     72.25352      1.818     3.67     6.271921     20.39531     73.32192        14     1.193     0.802 -21.84   0
       328    939.3370     37.2054 300.4665614 +22.6847718      484.997     72.25352      1.462     3.27     6.017151     20.39531     62.74031         8     0.895     0.710  23.51   0
       329    708.3191     35.5506 300.3950291 +22.6152192     512.2411     72.32718      1.366     2.62     6.334249     20.39531     59.30683         5     0.700     0.451 -22.97   0
       330    656.8649     31.0742 300.3804376 +22.5985412     2705.179     72.32718      1.572     3.11     6.247736     20.39531     276.5142        28     1.261     1.164 -82.03   0
       331    298.3275     32.1457 300.2684083 +22.4915700     249.2755     72.29036      1.256     2.62     6.181628     20.39531     43.11414         6     0.719     0.616 -33.44   0
       332    671.9378     29.9505 300.3855005 +22.6027262     990.9208     72.34558      2.052     5.16     6.371184     20.39531     85.97268        20     1.485     1.174  35.15   0
       333    743.2394     22.5983 300.4101148 +22.6219342     1355.779     72.30878      1.624     3.40     6.402273     20.39531     136.2432        22     1.227     1.113  45.42   0
       334    778.5747   1021.4113 300.0968418 +22.9197279     312.0733     67.27361      2.131     3.60     3.976536     20.39531     32.06588         5     1.425     0.261  44.97  16
       335    286.0151   1011.6405 299.9465822 +22.7692535     1022.105     72.30877      2.063     6.30     9.535038     20.39531     62.78671        24     1.555     1.405 -19.29   0
       336      3.9366   1022.6202 299.8552896 +22.6877703     958.1774     58.16919      5.069     9.67    -5.811353     20.39531     35.75171        22     2.040     1.278   5.75  27
       337   1022.8735   1010.3302 300.1766727 +22.9897295     189.2596     60.69994      1.314     4.69     4.123763     20.39531     33.64916         5     0.870     0.717  68.93  24
       338    209.1758    984.3151 299.9315646 +22.7383646     4644.954     72.25352      8.517    27.05     65.49403     20.39531      88.9797       358     6.408     4.598 -50.75   3
       339    199.8498   1005.1182 299.9218966 +22.7415353     811.3007     72.30877      2.348     6.50     85.98074     20.39531       39.029         9     1.982     0.599  56.82   0
