#   1 NUMBER                 Running object number                                     
#   2 X_IMAGE                Object position along x                                    [pixel]
#   3 Y_IMAGE                Object position along y                                    [pixel]
#   4 ALPHA_J2000            Right ascension of barycenter (J2000)                      [deg]
#   5 DELTA_J2000            Declination of barycenter (J2000)                          [deg]
#   6 FLUX_APER              Flux vector within fixed circular aperture(s)              [count]
#   7 FLUXERR_APER           RMS error vector for aperture flux(es)                     [count]
#   8 FLUX_RADIUS            Fraction-of-light radii                                    [pixel]
#   9 FWHM_IMAGE             FWHM assuming a gaussian core                              [pixel]
#  10 BACKGROUND             Background at centroid position                            [count]
#  11 THRESHOLD              Detection threshold above background                       [count]
#  12 FLUX_MAX               Peak flux above background                                 [count]
#  13 ISOAREA_IMAGE          Isophotal area above Analysis threshold                    [pixel**2]
#  14 A_IMAGE                Profile RMS along major axis                               [pixel]
#  15 B_IMAGE                Profile RMS along minor axis                               [pixel]
#  16 THETA_IMAGE            Position angle (CCW/x)                                     [deg]
#  17 FLAGS                  Extraction flags                                          
         1    518.2424     16.4281 300.3326773 +22.5430830     1120.486     72.32495      1.385     2.50     5.450103     20.39987     162.3881        18     1.233     0.958 -87.32   0
         2    421.9865     14.5407 300.3033148 +22.5137263     932.5775     72.28812      1.477     3.62     5.320527     20.39987     135.8338        13     1.122     0.863  53.70   0
         3    718.5424     11.7422 300.3966091 +22.6016765     334.0898     72.38017      1.344     3.39     5.772278     20.39987     33.45304         5     0.733     0.455  69.27   0
         4    193.5226      4.5447 300.2354600 +22.4424421     3784.048     70.53519      1.646     2.84     6.151096     20.39987      470.103        41     1.527     1.249  50.52  24
         5    761.6121      5.3891 300.4120952 +22.6127344     657.7236     72.14059      1.355     2.75     5.926462     20.39987     88.51404         8     0.905     0.615  24.35  16
         6    323.7374      5.1937 300.2757615 +22.4816235     301.8058     71.97426      1.730     4.69     5.679492     20.39987      31.0771         6     0.968     0.644 -10.46  16
         7    616.1885      2.2326 300.3677901 +22.5683144     376.0143     61.17241      1.200     3.85      5.81576     20.39987     44.27581         6     0.781     0.545  48.28  24
         8    519.7014      2.4799 300.3376511 +22.5395088     363.7005     62.57143      1.313     3.35     5.455418     20.39987     40.04618         7     0.933     0.489   7.46  16
         9    377.1540    998.2692 299.9699622 +22.7827709     469.3917     72.28812      1.794     4.65      4.07922     20.39987      52.0091         6     1.424     0.431  42.89   0
        10    270.4344   1016.4153 299.9308534 +22.7559527     2778.133     72.30653      7.356    35.90     36.06292     20.39987     59.14441       232     7.615     4.697  84.75  27
        11    222.7984   1004.9670 299.9197617 +22.7383743     2432.601     72.26969      5.187    29.00     81.02514     20.39987     61.57261       188     6.173     3.781   0.41  19
        12    223.2404    986.6274 299.9258656 +22.7332486     4490.762     72.36177      9.378    23.05     64.65838     20.39987     92.81156       345     5.559     5.112  44.46   3
        13    242.5053    985.8146 299.9321217 +22.7387970     6072.548     72.23283     10.763    43.89      48.6512     20.39987      108.012       595     9.014     5.929  67.42  19
        14    260.1077    975.2659 299.9410285 +22.7410543     9024.821     72.43534     13.323    40.66     29.74321     20.39987     179.7618      1113    13.731     5.805  67.33  19
        15    519.7432    976.9322 300.0212938 +22.8194228     403.2083     72.32495      1.700     4.63     3.942974     20.39987     35.40829         5     1.247     0.488 -17.85   0
        16    948.0468    971.6611 300.1565134 +22.9463104     738.9269     72.34336      2.116     7.90     4.208761     20.39987     39.02019        20     1.573     1.110 -27.94   0
        17    193.4095    994.4525 299.9140430 +22.7265394     2150.833     72.30653      5.336    13.50     75.51826     20.39987     63.11174        45     2.553     1.987 -16.62   3
        18      5.8145   1010.5906 299.8504820 +22.6748514     3204.514     72.21439     13.774    51.67    -25.85738     20.39987      82.4192       634    12.537     5.908 -82.91  26
        19    168.3760    957.9693 299.9181270 +22.7085663     1328.051     72.30653      5.091    10.89     50.14368     20.39987     47.84523        24     1.993     1.658   0.86   2
        20    166.3357    955.1447 299.9184114 +22.7071441      1140.87     72.36177      4.704     7.25     48.15898     20.39987     50.06526        16     1.843     0.800  -9.94   3
        21    191.5665    998.6400 299.9121076 +22.7271868     1280.586     72.34336      3.503     6.08     79.93158     20.39987     51.47901        18     1.420     0.968   0.36   3
        22    673.9052    954.8707 300.0764951 +22.8593199     6868.821     72.41695      1.904     4.31     4.158505     20.39987      414.863        47     1.523     1.388  19.56   0
        23    110.7132   1011.8274 299.8826796 +22.7066984     3572.193     72.30653     14.676    92.53     88.87643     20.39987     143.4431      1805    22.821    10.409  47.34  27
        24    582.2771    945.5540 300.0509780 +22.8291723     1650.326     72.28812      1.875     4.72     4.026689     20.39987      110.203        27     1.457     1.221   8.53   0
        25    569.0215    992.5198 300.0315701 +22.8386744     2234.181     72.26969      1.874     4.23      4.16384     20.39987     162.3902        32     1.371     1.360  31.66   0
        26    100.6307    939.5964 299.9030419 +22.6829662     5443.831     72.26969     27.389   108.96     22.14326     20.39987     237.3133      3788    20.799    15.837  75.56  19
        27    757.0000    989.0201 300.0912842 +22.8940340     386.9631     72.21439      1.424     3.83     3.921885     20.39987     38.75746         5     1.104     0.380  80.28   2
        28    476.0546    941.8419 300.0191049 +22.7962515     1134.473     72.30653      2.191     4.90      4.10992     20.39987     86.18566        23     1.514     1.237   8.87   0
        29    406.8195    939.9370 299.9981711 +22.7749382     6682.832     72.28812      1.833     3.90     4.374751     20.39987     526.7141        43     1.471     1.371  17.87   0
        30    754.6907    989.2950 300.0904749 +22.8934206     328.7476     72.49048      1.614     4.59     3.910192     20.39987     40.83193         7     1.036     0.744  40.17   2
        31    718.4005    929.5402 300.0986021 +22.8653881     296.5886     72.26969      1.174     3.90     3.932804     20.39987     26.48763         5     1.061     0.411 -74.17   0
        32    439.4699    927.3625 300.0124246 +22.7811243     633.1899     72.26969      1.887     5.81     4.441866     20.39987     48.31788         9     1.102     0.862  -9.80   0
        33    953.3172    918.9320 300.1753111 +22.9327454     2111.942     72.41695      2.018     4.87     4.519932     20.39987     108.8224        31     1.491     1.346  59.95   0
        34    655.5239    987.6912 300.0600899 +22.8632285     8834.918     72.45373      2.027     6.67     4.157136     20.39987     466.7348        45     1.597     1.547 -24.67   3
        35    603.5035    916.2401 300.0671252 +22.8271241     429.1976     72.28812      1.636     5.02     3.964008     20.39987     39.04805         8     1.074     0.665  50.75   0
        36    450.9014    915.1556 300.0199536 +22.7810507     377.5185     72.30653      1.552     4.40     4.404872     20.39987     39.65769         5     0.790     0.698  31.21   0
        37    741.7108    907.5727 300.1130132 +22.8660689     695.8282     72.28812      1.859     5.42     4.059758     20.39987     50.72397        11     1.242     0.756  17.85   0
        38    776.8414    902.0468 300.1257623 +22.8750121     1077.392     72.36177      1.840     4.69      4.30517     20.39987     69.30652        18     1.209     1.089  38.64   0
        39    554.7018    902.8279 300.0562858 +22.8086419     329.3087     72.25127      1.429     4.93     4.185377     20.39987      38.5857         6     0.907     0.759  27.05   0
        40    235.3521    897.7087 299.9585542 +22.7113848      775.433     72.30653      4.410     4.16     8.778865     20.39987     30.95031         5     0.800     0.642  18.71   2
        41    799.0164    895.6699 300.1347501 +22.8798271     11300.91     72.32495      1.804     4.14     4.448268     20.39987     779.5457        49     1.432     1.389  16.65   0
        42    844.4869    895.9651 300.1488332 +22.8935387     409.6201     72.28812      1.702     6.07     4.482591     20.39987     37.30198         8     1.278     0.811  34.68   0
        43    661.0931    985.6340 300.0624946 +22.8643080     9711.495     72.25127      2.005     4.99     4.157215     20.39987     548.9831        47     1.582     1.451 -11.55   3
        44    111.1995    886.4812 299.9236009 +22.6709100     1016.047      72.1775      3.802     5.56      9.28694     20.39987     62.42891        14     1.482     0.898  49.26   2
        45    852.2204    883.7529 300.1552168 +22.8923491      355.109     72.34336      1.787     4.56     4.520414     20.39987     34.76627         5     0.778     0.758  88.56   0
        46    504.1092    883.9647 300.0466643 +22.7880577     396.8652     72.26969      1.544     5.64     4.300542     20.39987     47.02214        10     1.136     0.906 -22.90   0
        47     86.3916    959.3967 299.8921758 +22.6843684     4297.981     72.12213      9.206    29.74     33.06914     20.39987     1340.556       288     6.653     3.690  48.36   3
        48    807.6866    877.8810 300.1432389 +22.8773173      1506.36     72.43534      1.741     4.24     4.523029     20.39987     99.92653        21     1.238     1.116  21.27   0
        49    189.4898    979.0345 299.9178399 +22.7209426     1779.874     72.26969      3.819    13.82     63.40928     20.39987     54.89357        49     2.841     1.894 -79.18   2
        50    991.4390    876.4741 300.2010159 +22.9319703     248.8339     72.26969      1.705     4.25      4.58951     20.39987     30.36029         6     1.307     0.395  45.06   0
        51    659.7390    874.7500 300.0981401 +22.8320742     490.7225     72.36177      1.717     7.09     4.362669     20.39987     34.35277        11     1.366     1.031 -46.77   0
        52    845.6790    871.4103 300.1571907 +22.8868442     798.5009     72.26969      1.848     4.06      4.55514     20.39987     72.98563        14     1.079     0.986 -52.12   0
        53    185.2610    871.0704 299.9516384 +22.6887155      457.764     72.34336      2.754     5.38      9.38082     20.39987     32.29253         8     1.346     0.608 -61.07   0
        54    953.4807    867.9512 300.1919431 +22.9181504      254.241     72.34336      1.530     4.84     4.577431     20.39987     35.02505         6     1.205     0.551 -63.61   0
        55    894.2351    862.9976 300.1750711 +22.8989773     533.7109     72.28812      1.705     5.74     4.574929     20.39987     43.56911        13     1.241     0.747  -0.23   0
        56    745.4019    861.4367 300.1291680 +22.8539287     678.5166     72.32495      1.705     4.14     4.444847     20.39987     72.09603        13     1.067     0.855  40.72   0
        57    457.9400    857.6010 300.0408617 +22.7666470     4230.183     72.26969      1.699     3.60     4.436175     20.39987     385.1318        38     1.331     1.304 -25.60   0
        58    756.8186    858.5964 300.1336506 +22.8565348     720.7655     72.25127      1.672     4.83     4.471246     20.39987     62.02391        11     0.978     0.958 -28.05   0
        59    501.3299    845.2502 300.0583877 +22.7761139     413.8139     72.30653      1.787     4.84     4.381975     20.39987     34.19817         7     1.037     0.639  -5.85   0
        60    183.2479    843.1500 299.9600905 +22.6801042     894.7372     72.34336      1.924     4.56     7.173854     20.39987     89.72858        16     1.333     1.108 -53.82   0
        61    160.3945    840.0602 299.9539889 +22.6723610      1724.24     72.26969      1.949     4.90     7.385262     20.39987     132.0576        28     1.500     1.243  47.60   0
        62    188.0266    973.8230 299.9190802 +22.7190093     1316.938     72.28812      4.082     7.26      59.3595     20.39987     56.53601        17     1.614     0.967  32.58   3
        63    658.8442    836.7689 300.1102117 +22.8209021     880.7285     72.36177      0.611     0.87     4.424522     20.39987     484.6918         5     0.478     0.401  30.01   0
        64    986.4401    828.1456 300.2151716 +22.9165883     2109.188     72.28812      1.998     4.54     4.856791     20.39987     122.7416        30     1.377     1.331  32.01   0
        65      3.0204    977.5140 299.8603741 +22.6645333      1758.97     64.91135     12.799    21.04    -16.21332     20.39987     52.39355        90     5.640     2.181 -82.60  27
        66    691.5109    828.4531 300.1230955 +22.8283060     540.0146     72.32495      2.117     5.34     4.438018     20.39987     40.29801         7     0.968     0.831 -19.82   0
        67    769.7222    822.0488 300.1495571 +22.8499068     653.6038     72.30653      1.714     5.62     4.504933     20.39987     47.57459        12     1.136     0.876  27.69   0
        68    193.5551    821.7811 299.9702429 +22.6770679     286.8959     72.34336      1.169     3.42     6.165225     20.39987     38.09914         5     0.763     0.444  68.88   0
        69    637.9946    815.7876 300.1105367 +22.8086288     4924.997      72.1775      1.604     3.40     4.424823     20.39987     441.6615        34     1.289     1.193   9.76   0
        70    440.1897    812.8138 300.0498973 +22.7484716     553.3577     72.21439      1.464     3.74     4.549118     20.39987     68.19653        13     1.191     0.814  -2.17   0
        71    188.1245    809.5837 299.9725193 +22.6719402     1334.455     72.30653      1.770     3.70     5.734632     20.39987     128.6479        23     1.412     1.173 -35.74   0
        72    658.7454    808.4139 300.1193999 +22.8127316     705.6107     72.30653      1.591     4.11     4.439028     20.39987     68.73474        14     1.242     0.928  24.67   0
        73    207.2944    806.9823 299.9793265 +22.6769452     250.3321     72.23283      1.315     4.80     5.524415     20.39987     41.17176         7     0.913     0.716  79.83   0
        74    814.0897    795.6982 300.1719577 +22.8556336     4228.345     72.49048      1.673     3.50     4.575593     20.39987     323.0475        37     1.361     1.243  40.60   0
        75    222.6523    789.7602 299.9897012 +22.6766123     463.6007     72.30653      1.529     4.25      5.28179     20.39987     57.85092        10     1.159     0.763 -26.99   0
        76    531.1899    787.7538 300.0863793 +22.7685638     520.1108     72.32495      1.412     4.44     4.526889     20.39987     58.82242         9     0.969     0.639  70.49   0
        77    177.4649    785.8809 299.9769095 +22.6619436     1127.114     72.41695      1.743     3.74     5.388061     20.39987     127.5737        19     1.363     0.993  32.84   0
        78    592.7354    781.6177 300.1075442 +22.7852521     584.9594     72.28812      1.706     5.79     4.574572     20.39987     53.24489        11     0.990     0.954 -20.56   0
        79    327.0993    778.0250 300.0260081 +22.7045742     53395.58     72.23283      1.624     3.31     4.878533     20.39987     5335.987        96     1.471     1.415  27.37   0
        80    584.9780    777.1374 300.1065841 +22.7816405      1710.03     72.28812      1.520     3.04     4.612696     20.39987      164.448        23     1.151     1.113 -82.44   0
        81    998.0479    776.7574 300.2355013 +22.9052997     888.4461     72.34336      1.803     5.41     5.137067     20.39987     65.62968        16     1.213     0.988   6.37   0
        82    255.8208    776.0031 300.0044897 +22.6826153     490.3131     72.25127      1.479     4.07     5.158645     20.39987     59.32822        10     1.036     0.793 -13.52   0
        83    613.9018    773.1264 300.1168986 +22.7891588     908.2992     72.45373      1.441     3.24     4.653605     20.39987     91.95786        16     1.014     0.989 -66.55   0
        84     13.1988    772.4421 299.9302164 +22.6088015     1021.302     72.30653      2.080     5.12     4.956727     20.39987     87.81012        20     1.378     1.306  72.31   0
        85    624.3074    769.9323 300.1211789 +22.7913606      1431.24     72.45373      1.170     1.02     4.678048     20.39987     838.8252        13     1.430     0.569  73.14   0
        86    944.8364    769.2239 300.2213460 +22.8871974      253.959     72.32495      1.376     5.01     4.909909     20.39987     34.89622         6     1.124     0.631  17.07   0
        87    730.1949    767.8870 300.1548426 +22.8225073     438.8266     72.23283      1.418     5.66     4.550536     20.39987     42.89037        10     0.967     0.934 -83.54   0
        88    767.9589    758.1461 300.1697814 +22.8310256     790.9791     72.28812      1.637     4.03     4.577861     20.39987     65.29221        14     1.106     0.935  30.77   0
        89    376.8185    755.2674 300.0488775 +22.7129541     31801.68     72.28812      1.586     3.31     4.728673     20.39987     2980.617        69     1.367     1.336  45.14   0
        90    391.1125    755.9272 300.0531119 +22.7174297     1967.599     72.45373      1.543     3.10     4.703826     20.39987     232.0381        25     1.301     1.131  48.29   2
        91    388.1414    749.3858 300.0543132 +22.7146615     632.5609     72.28812      1.947     5.48     4.715686     20.39987     51.06169        11     1.225     0.957  -8.82   2
        92    899.9420    751.4304 300.2131239 +22.8686373     2896.645     72.32495      1.707     3.55     4.911141     20.39987     220.5911        29     1.310     1.210  16.62   0
        93    657.6477    747.2483 300.1389406 +22.7948396     799.5222     72.34336      1.489     3.57      4.85554     20.39987     90.38168        15     1.065     0.944  55.64   0
        94    494.6045    746.9326 300.0882546 +22.7458778     528.6454     72.28812      1.653     3.99      4.82788     20.39987     58.54943         7     0.927     0.546  39.96   0
        95    499.7971    746.6393 300.0899669 +22.7473503     337.0512     72.34336      3.828     4.32     4.830775     20.39987     27.47983         5     1.149     0.462   7.20   1
        96    504.8759    741.8368 300.0931093 +22.7474942     1006.192     72.26969      1.724     3.92     4.865911     20.39987     84.78425        18     1.311     0.887  65.68   0
        97     64.6363    742.2495 299.9560140 +22.6155782     556.1653     72.32495      1.729     5.15     5.160285     20.39987     49.46109        10     1.088     0.689  53.27   0
        98    906.1260    738.9924 300.2190959 +22.8669161     434.3842     72.26969      1.434     3.98     5.013001     20.39987     48.41668        10     0.926     0.850  36.77   0
        99    407.3330    738.5215 300.0638177 +22.7172981     212.4129     72.41695      1.532     5.37     4.701191     20.39987     32.51746         8     1.014     0.804  24.41   0
       100    259.4634    747.0007 300.0150490 +22.6753871     864.0446     72.30653      1.718     3.59      5.10583     20.39987     89.59367        16     1.099     1.019  60.32   0
       101    450.6479    737.0381 300.0777839 +22.7298593     460.0529     72.32495      1.379     4.60     4.787275     20.39987     53.71802        10     1.044     0.756   7.70   0
       102     92.9316    736.4683 299.9666876 +22.6224097     443.5513     72.36177      1.531     4.39     5.265794     20.39987     53.87323         9     1.139     0.663 -42.56   0
       103    883.3927    734.0874 300.2135987 +22.8586973     579.4122     72.21439      2.005     4.67     4.959438     20.39987     53.89556         9     1.249     0.526  20.36   0
       104    256.9781    731.0681 300.0194538 +22.6700704     518.4102     72.30653      1.604     5.30     5.107014     20.39987     53.89265        11     1.122     1.007 -53.62   0
       105    580.2350    721.9623 300.1230397 +22.7643776     380.2904     72.38017      1.249     3.00     5.052186     20.39987     48.61145         7     0.843     0.634 -33.06   0
       106    550.0552    720.1329 300.1142335 +22.7548064     541.3642     72.36177      1.482     4.81     5.037621     20.39987     51.14912         9     0.822     0.796  -1.30   0
       107    571.9030    717.6498 300.1218457 +22.7606420     1391.694     72.38017      1.470     2.81     5.072649     20.39987     170.6635        19     1.200     0.906 -23.40   0
       108    459.1924    719.1168 300.0862683 +22.7272768     368.7185     72.23283      1.285     4.17     4.857432     20.39987     45.96661         7     0.903     0.549  45.98   0
       109    966.4344    716.7976 300.2451255 +22.8786016     4642.543     72.26969      1.734     3.56     5.138587     20.39987     361.9984        36     1.343     1.275  -4.79   0
       110    491.9879    717.5538 300.0969877 +22.7366598     443.6383     72.30653      1.647     3.90     4.934768     20.39987     35.02224         7     0.933     0.604 -58.62   0
       111    954.9645    708.2149 300.2443358 +22.8727001     1864.557     72.30653      1.734     3.66     5.167406     20.39987     149.1705        24     1.246     1.189  22.77   0
       112    317.8794    701.7055 300.0479425 +22.6799091     741.4712     72.43534      1.504     3.76     4.876821     20.39987     84.51522        15     1.111     0.931   4.42   0
       113    183.3136    702.6224 300.0057863 +22.6398145     269.9962     72.25127      1.559     4.10     5.398187     20.39987     30.08244         5     1.222     0.394  14.15   0
       114    986.0208    698.4426 300.2572026 +22.8791922     1826.594     72.34336      1.793     4.05     5.124896     20.39987     138.5922        27     1.454     1.167 -24.23   0
       115      4.5031    689.3739 299.9545081 +22.5823714     951.6384     70.34614      1.947     5.50     4.872623     20.39987     72.46031        16     1.535     0.947  36.43  26
       116    781.2486    699.3670 300.1930283 +22.8181235     2615.721     72.34336      1.668     3.30     4.777323     20.39987     214.7631        28     1.408     1.077   3.51   0
       117    863.6653    685.4105 300.2232647 +22.8388025     529.5593     72.26969      1.675     4.80     5.192859     20.39987     49.33378         9     1.110     0.588  27.39   0
       118    166.5529    685.1554 300.0062498 +22.6297760      529.749     72.34336      1.401     3.78     5.424085     20.39987     83.09692        11     1.161     0.787  52.59   0
       119    899.6691    676.2982 300.2374562 +22.8469678     149939.9     72.43534      1.631     3.26     5.285275     20.39987     13945.38       164     1.511     1.472 -11.44   0
       120    752.0337    676.5734 300.1913268 +22.8028231     893.2006     72.32495      1.641     3.29     4.882944     20.39987     105.2162        15     1.112     0.920 -81.70   0
       121    932.4562    669.5048 300.2498923 +22.8548349     539.6039     72.36177      1.651     3.55     5.315025     20.39987     44.70941         9     0.893     0.781 -73.26   0
       122    585.9283    664.9593 300.1433362 +22.7497157     1667.449     72.28812      1.433     3.17     5.469789     20.39987     170.6945        19     1.090     0.988 -56.81   0
       123    767.1018    662.3883 300.2006335 +22.8032623     9597.383     72.19595      1.488     2.87     4.954121     20.39987     970.2186        44     1.272     1.205  42.72   0
       124    268.6479    657.3307 300.0470433 +22.6524116     5029.005     72.28812      1.570     3.01     5.001659     20.39987     541.4413        35     1.285     1.163  47.29   0
       125    350.8029    655.6682 300.0731456 +22.6765684     1161.039     72.28812      1.501     3.06     4.921104     20.39987      125.552        18     1.134     0.980  68.63   0
       126    226.2762    653.1556 300.0352195 +22.6385069     449.9805     72.28812      1.365     3.93     5.249996     20.39987     62.02538        10     1.090     0.683 -21.06   0
       127    559.0085    650.9377 300.1395061 +22.7376216     751.2485     72.25126      1.369     3.43     5.472537     20.39987     85.02955        12     0.949     0.862  42.92   0
       128    550.6074    643.1657 300.1394143 +22.7328720     3273.541     72.30653      1.397     2.77      5.50793     20.39987      356.385        23     1.141     0.968  50.44   0
       129    540.9435    637.0046 300.1384059 +22.7282066      1439.68     72.26969      1.396     2.67     5.524773     20.39987     202.3967        19     1.056     0.935  27.94   0
       130    736.5372    636.0042 300.1996771 +22.7865262     247.0238     72.28812      1.561     4.63     5.082368     20.39987     28.49405         5     1.063     0.573 -13.45   0
       131    469.6026    636.3804 300.1163921 +22.7066452     264.9579     72.23283      1.359     2.95     5.283638     20.39987     46.72013         5     0.720     0.476 -77.89   0
       132    934.7791    634.9480 300.2618448 +22.8455992      434.367     72.30653      1.562     4.88        5.358     20.39987     49.31192        11     1.149     0.815  36.68   0
       133    451.4006    633.9301 300.1115208 +22.7004858     231.6868     72.25127      1.404     5.38     5.242618     20.39987     40.00661         7     1.013     0.805  59.13   0
       134    204.0793    632.9044 300.0348946 +22.6260391     655.7811     72.41695      1.484     4.08     5.182099     20.39987     74.11185        12     1.026     0.930 -22.51   0
       135    218.4212    631.1980 300.0399094 +22.6298504     677.6622     72.23283      1.662     3.56     5.098608     20.39987      88.8532        13     1.128     0.879  -8.19   0
       136    987.8206    628.4971 300.2804915 +22.8596275      543.374     72.23283      1.773     4.84       5.3383     20.39987     45.69883         8     0.865     0.768  46.76   0
       137    243.7635    628.4464 300.0486857 +22.6366604     602.0787     72.34336      1.615     4.58     4.987261     20.39987     70.36246        15     1.118     0.996  65.31   0
       138    565.0297    627.5826 300.1489691 +22.7327192     457.5245     72.28812      1.309     3.01     5.625486     20.39987     59.14239        10     0.948     0.726 -39.00   0
       139    465.5732    626.6143 300.1183101 +22.7026335     1784.149     72.32495      1.448     2.52     5.340918     20.39987     248.5918        21     1.137     0.985  52.46   0
       140    274.9373    628.3193 300.0584245 +22.6459717     382.6393     72.41695      1.470     4.58     4.906457     20.39987     46.14385         7     1.036     0.576  19.78   0
       141    119.5513    621.3484 300.0123647 +22.5973721     20053.72     72.34336      1.716     3.40     5.509758     20.39987     2045.976        62     1.465     1.353  38.07   0
       142    550.6415    621.8419 300.1463522 +22.7267588      1041.55     72.41695      1.468     2.98     5.651232     20.39987     126.0918        17     1.227     0.936 -47.14   0
       143    586.0673    621.1863 300.1576003 +22.7371865     322.8392     72.30653      1.339     3.23     5.682053     20.39987     46.09604         6     0.914     0.559 -22.38   0
       144    626.6536    620.2088 300.1705626 +22.7490673     959.4046     72.30653      0.687     0.95     5.661295     20.39987     429.2703         5     0.508     0.434 -42.24   0
       145    921.9133    617.8561 300.2633835 +22.8368341     211.6216     72.38017      1.272     4.61     5.375636     20.39987     34.76587         5     0.943     0.641  27.05   0
       146    303.6751    613.5737 300.0721552 +22.6503562     206.1967     72.30653      1.260     4.10      4.88229     20.39987     30.87113         5     0.989     0.486   6.07   0
       147    968.4954    608.5328 300.2809466 +22.8481026     980.9669     72.45373      1.565     3.50     5.415858     20.39987      99.7992        16     1.157     0.903 -17.49   0
       148     65.5800    605.6174 300.0006971 +22.5766705      1674.37     72.28812      2.071     5.12     5.552431     20.39987     123.6223        27     1.642     1.187  80.92   0
       149    835.6298    606.1041 300.2402873 +22.8076171     536.9588     72.25127      1.478     3.45     5.305456     20.39987     61.57103        11     1.010     0.806  84.03   0
       150     41.3320    623.1533 299.9874651 +22.5744272     783.0297     72.28812      1.779     4.03     5.421409     20.39987     84.05292        14     1.300     0.755  30.76   0
       151    908.8009    601.1990 300.2647038 +22.8281202     914.4586     72.08519      2.024     3.69     5.377339     20.39987     77.28777        16     1.203     0.946  56.18   2
       152    514.0528    602.4085 300.1412691 +22.7102129     461.0832     72.30653      1.430     4.36      5.64696     20.39987     66.60154         7     0.904     0.598  32.60   0
       153    306.6420    601.3448 300.0770504 +22.6477357       337.36     72.30653      1.399     3.63     4.906635     20.39987     52.12184         9     0.977     0.674  48.99   0
       154    470.7874    594.6747 300.1303084 +22.6950255     675.6257     72.32495      1.329     2.91      5.51821     20.39987     100.1629        12     0.953     0.788  63.26   0
       155    618.7329    593.3784 300.1768101 +22.7389875     402.7018     72.28812      1.323     3.39     5.711045     20.39987     57.02746         8     0.941     0.581  20.29   0
       156    665.7520    591.6529 300.1920219 +22.7525791     502.5099     72.34336      1.579     4.37      5.57437     20.39987     53.36033        13     1.236     0.869  49.95   0
       157    636.1392    591.6620 300.1827911 +22.7437097     655.0011     72.34336      1.723     3.04     5.661528     20.39987      70.8878        11     0.935     0.813 -71.72   0
       158    514.8582    590.3621 300.1454328 +22.7069950      1040.01     72.30653      1.574     2.74     5.657103     20.39987     127.8016        17     1.210     0.926  69.52   0
       159    948.7949    586.2744 300.2820297 +22.8358059      3328.59     72.23283      1.553     3.08      5.39522     20.39987     358.1098        30     1.244     1.202  70.45   0
       160    480.3801    586.1140 300.1360758 +22.6954423     1642.335     72.23283      1.316     2.68     5.564537     20.39987      228.318        18     1.038     0.934  33.22   0
       161    845.3391    584.1601 300.2504433 +22.8042188       252.51     72.30653      1.186     3.60     5.359485     20.39987     37.53453         5     1.032     0.362  -3.34   0
       162    818.4615    582.7916 300.2425057 +22.7957761     151.1057     72.26969      1.422     4.81     5.340564     20.39987     31.33428         5     1.075     0.609 -24.45   0
       163    456.3534    581.3701 300.1301355 +22.6868791     208.2047     72.32495      1.437     4.96     5.482066     20.39987     33.98181         6     1.159     0.600 -25.01   0
       164     42.3656    579.5534 300.0019470 +22.5622299     5194.404     72.34336      1.799     3.37     5.526298     20.39987     566.5206        42     1.436     1.329  30.15   0
       165    987.7284    576.5166 300.2973482 +22.8446576     324.5481     72.43534      1.255     4.18     5.374154     20.39987     42.59148         5     0.983     0.507  41.73   0
       166    343.8045    572.7857 300.0978899 +22.6506787     9181.877     72.15905      1.480     2.82     5.155086     20.39987      1151.45        39     1.247     1.133  39.84   0
       167    601.0989    574.2920 300.1775153 +22.7282217      195.362     72.49048      1.110     3.71     5.739992     20.39987     43.84235         5     0.888     0.452  -3.51   0
       168    466.2753    569.8681 300.1369604 +22.6865500     8994.854     72.38017      1.393     2.64     5.534984     20.39987     1205.845        36     1.165     1.105  46.99   0
       169    110.1491    565.5090 300.0275773 +22.5785308     257.6908     72.34336      1.462     4.71     5.522825     20.39987     33.03059         6     1.021     0.719 -44.15   0
       170    878.1022    564.0750 300.2671859 +22.8082576      1873.62     72.43534      1.494     2.98     5.415277     20.39987     186.1233        25     1.206     1.097 -78.69   0
       171    962.6132    561.3962 300.2944219 +22.8327917     12712.76     72.15905      1.603     2.99     5.371355     20.39987     1345.419        48     1.320     1.279 -86.40   0
       172    526.8737    559.5219 300.1591912 +22.7017388     11655.88     72.41695      1.380     2.55     5.700954     20.39987     1517.895        42     1.179     1.130  80.28   0
       173    696.4114    555.6049 300.2132851 +22.7514077     445.2832      72.1775      1.160     2.35     5.485675     20.39987     75.78777         7     0.825     0.530 -58.66   0
       174    254.4034    554.9544 300.0758647 +22.6187582      1303.59     72.30653      1.472     2.63      4.89046     20.39987     166.5337        20     1.119     0.977   0.89   0
       175    412.4268    554.4286 300.1252099 +22.6659777     327.2998     72.28812      1.394     4.08     5.388053     20.39987     36.28183         5     0.954     0.504 -42.89   0
       176    501.5436    552.7064 300.1535160 +22.6921910     429.6733     72.36177      1.472     3.13     5.652776     20.39987     47.74705         7     0.825     0.624  14.54   0
       177    458.5860    547.6791 300.1417722 +22.6778738     4415.042     72.30653      1.410     2.43     5.543513     20.39987     615.7607        29     1.121     1.092  37.39   0
       178    801.2692    548.0578 300.2484256 +22.7806457     727.3774     72.32495      1.230     2.67     5.400896     20.39987     106.1709        12     1.019     0.695  10.26   0
       179    436.8456    546.2156 300.1354788 +22.6709380     1210.979     72.32495      1.361     3.06     5.474033     20.39987     156.6252        15     0.972     0.912   1.42   0
       180    191.1545    545.4053 300.0592930 +22.5970534     566.8732     72.30653      1.330     3.24     5.133221     20.39987     88.66698        13     0.985     0.898  71.69   0
       181    878.3686    543.2531 300.2740313 +22.8023527     1660.809     72.32495      1.574     3.30     5.450424     20.39987     161.7526        21     1.129     1.072 -17.89   0
       182    125.5497    543.2473 300.0395942 +22.5767615     215.0496     72.34336      1.241     3.44     5.454687     20.39987     29.77579         5     0.763     0.448 -69.45   0
       183    575.2085    535.2515 300.1821283 +22.7092505     206443.9     72.30653      1.363     2.57     5.732145     20.39987     23665.74       188     1.428     1.357 -12.56   0
       184    758.8187    540.2629 300.2377212 +22.7656920     755.1636     72.26969      1.409     3.19     5.445383     20.39987     92.80049        15     1.008     0.971  24.58   0
       185    398.7004    541.4933 300.1251377 +22.6581495     283.9466     72.49048      1.250     4.07     5.410109     20.39987     48.01167         7     1.000     0.474  10.39   0
       186    962.9650    536.9856 300.3024595 +22.8258794     276.0643     72.30653      1.375     3.81     5.357481     20.39987     29.24824         5     1.048     0.397  57.90   0
       187    261.2440    535.1132 300.0844356 +22.6151138     3545.125     72.28812      1.451     2.89     4.942728     20.39987     448.0989        28     1.137     1.097  44.36   0
       188    827.5434    531.6021 300.2619629 +22.7837847     723.0567     72.25127      1.871     2.74     5.451324     20.39987     90.97645        10     0.890     0.805  37.19   0
       189    465.8037    515.4826 300.1544743 +22.6707906     2853.336     72.23283      1.472     2.47     5.571086     20.39987     339.2168        26     1.116     1.103 -84.08   2
       190    310.2097    517.5208 300.1053822 +22.6247425     424.2136     72.26969      1.405     3.11     5.220805     20.39987     63.18925        11     1.011     0.735  74.17   0
       191    877.2263    511.7396 300.2839086 +22.7929524     294.9786     72.30653      1.391     4.82     5.475378     20.39987     42.95364         7     1.119     0.589  73.63   0
       192    696.7495    511.0678 300.2278532 +22.7387124     191.8712     72.28812      1.085     3.45     5.492827     20.39987     34.99543         5     0.791     0.506  34.39   0
       193    782.8568    504.2374 300.2569142 +22.7625382     332.9266     72.30653      1.273     3.14     5.487784     20.39987     46.21739         8     0.833     0.640  42.87   0
       194    862.8236    501.7625 300.2826558 +22.7857721     1715.624     72.32495      1.463     2.88     5.500763     20.39987     222.2424        20     1.129     1.031 -43.26   0
       195    749.1415    501.7902 300.2471971 +22.7517380     350.1807     72.26969      1.627     5.09     5.467737     20.39987      38.3345         8     1.391     0.527 -35.94   0
       196    733.9933    499.4230 300.2432434 +22.7465210     2547.615     72.26969      1.356     2.50     5.461983     20.39987     356.2852        24     1.097     0.994  44.13   0
       197    978.6222    497.0184 300.3203238 +22.8190757     595.5226     72.30653      1.795     4.60     5.334083     20.39987     63.55963        14     1.176     0.957 -26.56   2
       198    977.1122    492.8693 300.3211998 +22.8174307     740.2917      72.4721      1.747     4.24     5.337008     20.39987     75.67206        13     1.126     0.961 -78.78   3
       199    638.5630    496.1075 300.2145773 +22.7169850     429.7522     72.28812      1.321     3.41     5.633013     20.39987     53.46524         8     0.813     0.712 -15.73   0
       200    521.2157    495.3551 300.1782651 +22.6816135     790.8283     72.32495      1.384     2.71     5.648947     20.39987     93.80392        12     0.932     0.796 -11.67   0
       201    991.2697    493.5229 300.3254057 +22.8218565      1235.88     72.41695      1.583     3.09     5.316534     20.39987     147.4414        20     1.171     1.022  79.78   0
       202    863.0848    491.9243 300.2859316 +22.7830223     2267.026     72.41695      1.620     3.39     5.510733     20.39987     244.0439        28     1.558     1.036  72.63   0
       203    616.3821    490.0619 300.2096288 +22.7086037     876.3113     72.26969      2.035     2.68     5.715024     20.39987     88.50536        11     0.884     0.819  34.35   2
       204    454.8425    489.0468 300.1596446 +22.6599137     419.1134     72.34336      1.323     4.47     5.534949     20.39987     63.75314         9     1.037     0.724 -56.94   0
       205    402.3158    490.0541 300.1429650 +22.6444623     282.5102     72.36177      1.352     2.92     5.410109     20.39987     47.61095         5     0.794     0.476  33.16   0
       206    901.2493    487.0265 300.2994267 +22.7930406     4324.774     72.32495      1.463     3.05     5.454381     20.39987     438.4768        32     1.200     1.132  70.10   0
       207    542.3737    486.2681 300.1878051 +22.6853424     171.6794     72.28812      0.932     3.43     5.651284     20.39987     40.53604         5     0.726     0.468  77.19   0
       208    561.9040    482.8891 300.1949856 +22.6902229     434.7632     72.49048      1.281     4.11     5.672724     20.39987     48.92063         8     0.859     0.650 -31.64   0
       209    993.1135    477.5856 300.3311558 +22.8178258     776.6049     72.25127      1.598     3.61     5.313609     20.39987     75.94457        15     1.055     0.980 -25.19   0
       210    133.1729    477.0159 300.0634676 +22.5600401     907.2678     72.32495      1.574     3.19     5.172755     20.39987     112.2762        16     1.203     0.891  10.92   0
       211    932.4297    474.7368 300.3131446 +22.7988418     174.0984     72.32495      1.124     3.40     5.394453     20.39987     29.13287         5     0.731     0.458 -70.78   0
       212    794.1711    470.9990 300.2712338 +22.7563732     183.0604     72.26969      1.048     2.20     5.549798     20.39987     51.24731         5     0.609     0.563   0.18   0
       213    989.4958    466.9763 300.3334712 +22.8136922      205.194     72.19595      1.275     3.29     5.318179     20.39987     52.04253         5     0.774     0.610   2.98   0
       214    126.1538    467.2299 300.0644619 +22.5551269     449.8033     72.34336      1.212     2.22     5.265906     20.39987     79.08067         5     0.840     0.338 -40.48   0
       215    733.6544    461.5567 300.2554316 +22.7355374     467.8795     72.32495      1.286     2.41     5.501939     20.39987     69.75072         8     0.801     0.681  55.37   0
       216    622.2832    459.1020 300.2215186 +22.7014761     303.9587      72.4721      1.275     2.94     5.667521     20.39987     45.03234         6     0.748     0.558  48.07   0
       217    342.3387    459.7463 300.1341366 +22.6177843     331.1095     72.36177      1.404     3.78     5.417631     20.39987     42.33601         6     0.947     0.434  -1.71   0
       218    674.7653    457.4392 300.2384128 +22.7167177     850.4406     72.34336      1.364     3.14     5.510671     20.39987     112.8642        14     1.052     0.851  65.81   0
       219    989.0916    450.4443 300.3387121 +22.8088174     467.3326     72.28812      1.488     3.91     5.316625     20.39987     55.52675        11     1.013     0.853  36.32   0
       220    735.4356    449.6195 300.2598620 +22.7326401     855.6662     72.32495      1.325     2.39     5.527485     20.39987     132.9874        16     1.014     0.933 -74.61   0
       221    892.6415    446.0271 300.3100521 +22.7786766     998.7513     72.34336      1.409     2.94     5.429854     20.39987     131.1641        14     1.020     0.883 -65.76   0
       222    876.9459    442.4790 300.3063077 +22.7729578     561.1493     72.34336      1.173     3.15     5.458463     20.39987     71.09386         9     0.943     0.642  28.67   0
       223    850.4493    443.2929 300.2977789 +22.7652593      217.022     72.34336      1.169     3.46     5.506897     20.39987     39.40509         5     0.772     0.447  69.80   0
       224    621.2986    440.1744 300.2273560 +22.6957427     3152.865     72.25127      1.308     2.56     5.647773     20.39987     378.4445        27     1.062     1.046  61.25   0
       225    981.6658    438.8841 300.3401474 +22.8032705     449.4832     72.41695      1.455     5.07     5.319139     20.39987     65.69762         9     1.222     0.759  86.42   0
       226    363.0440    436.2053 300.1482219 +22.6172294     18441.39     72.30653      0.796     1.86     5.390507     20.39987     7091.904        12     0.751     0.450 -16.38   0
       227     97.2054    431.5836 300.0670325 +22.5362163     296.2756     72.23283      1.235     3.46     5.488172     20.39987     47.26241         5     0.799     0.432 -20.72   0
       228    626.7420    428.5549 300.2328238 +22.6940343     324.0827     72.34336      1.261     3.44     5.620257     20.39987     40.15454         5     0.745     0.458  19.13   0
       229    461.2973    427.5019 300.1816330 +22.6441707     422.6931     72.50884      1.415     4.06       5.2872     20.39987     53.33118         7     1.028     0.632  35.91   0
       230    904.3716    419.3250 300.3223790 +22.7745107     595.2886     72.32495      1.456     3.56     5.373138     20.39987     55.58851        11     1.074     0.768 -33.80   0
       231    990.8804    418.0975 300.3497706 +22.8000507     933.7325     72.43534      1.479     3.14     5.313655     20.39987     104.5367        13     0.972     0.893  70.58   0
       232    641.1066    416.6265 300.2411715 +22.6949089     374.9927     72.25127      1.400     3.10     5.578015     20.39987     42.56241         5     0.801     0.466 -53.43   0
       233    527.7742    414.8570 300.2064389 +22.6604539     406.4585     72.30653      1.297     3.14     5.529387     20.39987      70.0492         8     1.015     0.494  32.84   0
       234    731.8555    414.0526 300.2702909 +22.7213456     1097.794     72.34336      1.327     3.10     5.579948     20.39987     139.6792        15     1.034     0.892  16.33   0
       235    235.8752    412.0463 300.1164949 +22.5721788     613.5007     72.30653      1.314     3.54     5.345872     20.39987     76.48182        11     0.955     0.810 -65.75   0
       236    298.1965    407.8163 300.1372560 +22.5896430     3728.813     72.23283      1.399     2.76     5.537936     20.39987     484.7745        28     1.183     1.051  68.69   0
       237    245.3896    402.6711 300.1224971 +22.5723388     7423.007     72.30653      1.461     2.52     5.344783     20.39987     1078.778        38     1.227     1.133  42.41   0
       238    624.0168    402.3689 300.2404738 +22.6856934     343.5413     72.28812      1.508     4.25     5.554815     20.39987     37.83335         5     0.827     0.623  87.94   0
       239   1011.2780    397.7462 300.3627422 +22.8003022     1866.984     72.34336      1.489     2.87     5.309379     20.39987     211.5692        22     1.158     1.010  80.58   0
       240    386.2164    396.8877 300.1681951 +22.6128812     4934.262     72.23283      1.348     2.56     5.450477     20.39987     646.0177        32     1.233     1.025  57.72   0
       241    630.4523    393.7386 300.2452800 +22.6851407      18892.5     72.36177      1.341     2.34     5.512947     20.39987       2603.8        51     1.211     1.128  73.40   0
       242    647.8777    393.6547 300.2507372 +22.6903353     802.7222     72.34336      1.830     5.81     5.481755     20.39987     75.16583        13     1.512     0.629 -37.40   0
       243    477.7167    395.5360 300.1971204 +22.6399074     296.4204     72.41695      1.523     3.44     5.236866     20.39987      33.2921         5     0.783     0.436  21.87   0
       244    257.5210    391.6588 300.1298447 +22.5728128     215.4962     72.34336      1.027     4.19     5.376234     20.39987     39.82513         6     1.086     0.461  78.75   0
       245    874.0094    390.2083 300.3223580 +22.7570503       280.15      72.1775      1.252     3.36        5.375     20.39987     40.94694         5     0.796     0.493 -62.32   0
       246    827.5908    384.1374 300.3098503 +22.7414094     347.5545     72.25127      1.220     3.95     5.496768     20.39987     55.09393         9     1.034     0.656  80.49   0
       247    250.3308    380.7346 300.1311529 +22.5675210     301.3651     72.36177      1.304     2.44     5.293167     20.39987     61.74083         6     0.741     0.599  37.24   0
       248    964.1595    376.5211 300.3549260 +22.7800968     893.1714     72.28812      1.443     3.46     5.300378     20.39987     104.1589        14     1.042     0.899 -50.03   0
       249    674.3687    374.7534 300.2651268 +22.6928362     256.2043     72.34336      1.151     3.27     5.379147     20.39987     31.53259         5     0.724     0.463 -75.93   0
       250    501.0381    375.6682 300.2108304 +22.6411859     387.2547     72.26969      1.335     3.37     5.307456     20.39987     42.36617         5     0.764     0.430 -17.66   0
       251    185.0089    373.7768 300.1130932 +22.5459447     2088.555     72.30653      1.517     2.85     5.239613     20.39987     251.4543        27     1.247     1.087  56.24   0
       252    571.1438    363.1658 300.2367233 +22.6585924     6657.134     72.32495      1.315     2.46     5.419833     20.39987      853.748        34     1.165     1.040  68.96   0
       253    984.6829    363.6841 300.3654965 +22.7825468     1337.509     72.43534      1.578     2.96     5.298639     20.39987     137.9488        20     1.145     1.057  12.70   0
       254    286.0260    362.4783 300.1481820 +22.5729762     570.9532     72.30653      1.365     2.74     5.538916     20.39987     92.21829        11     0.922     0.866  61.62   0
       255    143.7874    355.9590 300.1060561 +22.5284731     409.1477     72.30653      1.306     2.21     5.373886     20.39987     75.00206         8     0.749     0.700  71.60   0
       256    831.0000    355.4334 300.3202285 +22.7341772     301.3733     72.25127      1.148     3.62     5.444267     20.39987     58.28138         6     0.957     0.494  -2.49   0
       257    775.2410    352.2102 300.3038869 +22.7165585     1239.819     72.30653      1.367     2.98     5.460434     20.39987      134.049        20     1.111     1.059  57.48   0
       258    684.7086    353.2406 300.2753304 +22.6897490     431.6769     72.30653      1.318     4.19      5.30705     20.39987      63.3178        10     1.029     0.869  21.07   0
       259    477.7018    349.3854 300.2120918 +22.6266442     6323.967     72.21439      1.351     2.35     5.247692     20.39987     902.0759        35     1.196     1.039  59.19   0
       260    869.7198    344.0653 300.3359940 +22.7424983      1450.61     72.41695      1.321     2.30     5.287286     20.39987     201.2678        19     1.189     0.860  58.86   0
       261    967.2031    344.1168 300.3663912 +22.7716880     698.1505     72.23283      1.443     3.97     5.300156     20.39987     67.63763        12     1.072     0.815  45.77   0
       262    462.1827    338.1701 300.2108984 +22.6187732     447.8356     72.28812      1.357     3.64     5.323236     20.39987     60.70546         8     0.857     0.731  18.30   0
       263    823.2961    335.4834 300.3242994 +22.7261349     279.1393      72.4721      1.344     3.97     5.429513     20.39987     40.45399         6     1.074     0.419  55.40   0
       264    545.0290    336.2782 300.2373129 +22.6430446     575.8942     72.30653      1.760     3.05     5.378058     20.39987     53.35838         7     0.837     0.641  54.68   0
       265    842.4432    331.7026 300.3314976 +22.7307790     608.3384     72.30653      1.246     2.19     5.360783     20.39987     91.18329         8     0.745     0.693 -66.54   0
       266    548.0073    331.8525 300.2396765 +22.6426648     451.8536     72.28812      3.040     3.82     5.377007     20.39987     31.32652         5     0.826     0.506 -56.11   0
       267    365.2686    328.5750 300.1838414 +22.5869831      2468.88     72.30653      1.314     2.60     5.870873     20.39987     331.0277        22     1.070     0.961  63.46   0
       268     83.7161    325.8633 300.0971442 +22.5018259     953.7195     72.39857      1.559     3.36     5.530029     20.39987      113.453        17     1.066     1.027  86.32   0
       269    713.0896    323.8157 300.2937240 +22.6897884     344.6855     72.23283      1.570     3.92     5.307971     20.39987     29.13653         6     0.766     0.575 -41.05   0
       270    334.5967    317.9709 300.1777360 +22.5747474     30000.19     72.26969      1.413     2.61     5.909049     20.39987     3987.922        63     1.308     1.173  55.24   0
       271    869.3777    315.7006 300.3450907 +22.7342392     1361.787     72.25127      1.326     2.52     5.287286     20.39987     189.6948        16     0.980     0.915  47.78   0
       272    824.8740    313.5727 300.3319005 +22.7203070     192.1165     72.30653      1.186     3.70     5.369308     20.39987     44.36322         6     0.800     0.492  -4.66   0
       273     30.9262    305.6875 300.0872809 +22.4802088     5005.201     72.45373      1.657     3.22     5.880833     20.39987     556.6649        39     1.444     1.282  67.39   0
       274    784.4025    304.6808 300.3221648 +22.7056359     536.8201     72.21439      1.337     3.27     5.363153     20.39987     76.01379        10     0.950     0.806   9.23   0
       275    208.7955    304.1711 300.1430741 +22.5330875     560.0678     72.26969      1.690     5.54     5.268027     20.39987     53.31055        10     1.365     0.634  30.98   0
       276    433.4484    303.2249 300.2132891 +22.6001258     515.5191     72.30653      1.252     3.75     5.400517     20.39987     62.59069        10     1.055     0.650 -13.64   0
       277    745.0904    297.8927 300.3121101 +22.6919161     2021.527      72.4721      1.330     2.69     5.318682     20.39987     278.6933        19     1.014     0.916  51.62   0
       278    553.4757    292.4505 300.2541629 +22.6329793     451.1304     72.30653      1.398     2.70     5.369922     20.39987     55.71296         6     0.811     0.498   0.51   0
       279    959.9885    290.9938 300.3813758 +22.7542493     576.5623      72.1775      1.270     3.89     5.332732     20.39987     71.51057        10     0.976     0.704  54.53   0
       280    406.7903    282.2061 300.2118083 +22.5861015     2226.784     72.15905      1.582     3.49     5.494818     20.39987     282.6881        24     1.378     0.914  59.47   0
       281    846.2765    275.6718 300.3508712 +22.7158138     578.2223     72.39857      1.282     2.65     5.322142     20.39987       93.305        11     0.957     0.733  50.33   0
       282    838.7466    276.5700 300.3482313 +22.7138185     264.4768     72.32495      1.375     4.45     5.319607     20.39987     43.52689         7     1.258     0.447 -10.46   0
       283    728.5156    273.0005 300.3150179 +22.6797976     413.9606      72.1775      1.463     3.57     5.355671     20.39987     47.99449         6     0.927     0.500  89.69   0
       284    197.6756    263.3803 300.1528467 +22.5180410     164.7174     72.30653      0.985     3.74     5.330649     20.39987     35.87048         5     0.966     0.417 -75.84   0
       285    482.5268    261.7493 300.2420245 +22.6029084     1239.352     72.32495      1.403     2.75     5.289708     20.39987      176.035        17     1.141     0.878  59.96   0
       286    290.0168    262.1778 300.1819622 +22.5453646     207.3526     72.26969      1.128     3.39     5.705158     20.39987     34.32641         5     0.798     0.499 -56.79   0
       287    335.3578    260.3301 300.1966705 +22.5584178     229.8764     72.26969      1.271     4.48     5.716467     20.39987      39.3414         5     0.977     0.583 -36.61   0
       288    993.9997    258.5094 300.4025275 +22.7550808     291.8661      72.1775      1.240     2.67     5.421918     20.39987     36.51881         6     0.763     0.500   0.88   0
       289    727.6362    253.7433 300.3209902 +22.6739975     2355.182     72.30653      1.458     2.49     5.402056     20.39987     303.2926        22     1.112     0.990  51.54   0
       290    988.8954    248.2356 300.4042669 +22.7505980     3130.781     72.30653      1.438     2.75      5.43262     20.39987     421.5334        25     1.158     1.064 -88.63   0
       291    403.8085    241.8699 300.2239631 +22.5736190     1466.876     72.28812      0.543     0.92     5.405601     20.39987     935.2573         5     0.440     0.336   4.03   0
       292    360.2574    239.4758 300.2111834 +22.5598858      252.458     72.34336      1.474     4.92     5.512949     20.39987     31.31402         6     0.953     0.720  68.31   0
       293    435.7289    237.0937 300.2354495 +22.5818074     726.0364     72.41695      1.417     3.69     5.350509     20.39987     88.46773        15     1.152     0.950 -78.32   0
       294    141.3578    231.7226 300.1456001 +22.4920728      717.716     72.28812      1.627     3.32     5.470606     20.39987     83.29567        10     0.972     0.722  31.66   0
       295    110.8238    231.5679 300.1361565 +22.4828777     1292.284     72.30653      1.649     3.82     5.685814     20.39987     154.7136        19     1.265     1.047  -1.31   0
       296   1004.6811    229.0167 300.4154272 +22.7497912     471.0854     72.30653      1.194     3.08     5.459534     20.39987     71.51302        10     0.961     0.835  80.37   0
       297    848.4998    225.2092 300.3679324 +22.7019659     354.5953     72.21439      1.326     4.57     5.429366     20.39987     54.40968         8     0.875     0.705   6.22   0
       298    194.5101    223.7565 300.1647126 +22.5057127     619.6704     72.32495      1.811     5.64     5.326339     20.39987     69.40884        14     1.536     0.920 -19.14   0
       299    989.2690    221.4557 300.4130693 +22.7430051     354.5204     72.32495      1.138     2.48     5.472484     20.39987     44.55725         5     0.702     0.448  23.79   0
       300     50.8304    221.1120 300.1208976 +22.4618948      347.013     72.28812      1.287     2.47     6.056495     20.39987     55.53603         6     0.741     0.534 -58.18   0
       301    871.1655    217.6695 300.3774475 +22.7065798     274.8676     72.30653      1.452     2.14     5.469807     20.39987     51.69421         5     0.701     0.446 -16.17   0
       302    798.9825    215.2625 300.3557154 +22.6842865     657.8451     72.28812      1.296     3.32     5.316677     20.39987     88.01186        10     1.067     0.619  58.71   0
       303    389.7528    214.8019 300.2283659 +22.5616314     358.2826     72.30653      1.437     2.77     5.365629     20.39987     69.60341         7     0.829     0.759 -59.39   0
       304    935.4742    207.9665 300.4006570 +22.7230303     238.6855     72.28812      1.424     5.18     5.475097     20.39987     34.40982         6     1.057     0.717  72.63   0
       305    890.1784    208.4709 300.3863616 +22.7096229     317.1623     72.32495      1.216     3.23     5.470881     20.39987     56.53027         5     0.869     0.518 -52.85   0
       306    897.4606    204.3010 300.3899857 +22.7106024      2081.67     72.38017      1.416     2.74     5.472126     20.39987     258.7276        24     1.242     1.042 -50.93   0
       307    315.9527    201.2821 300.2097811 +22.5356409      2244.05     72.32495      1.472     2.67     5.391998     20.39987     262.2393        23     1.130     1.043  76.34   0
       308    795.9906    196.1688 300.3609743 +22.6778998     582.4183     72.30653      1.235     2.50     5.311949     20.39987     91.40988        10     0.872     0.703  56.68   0
       309    393.7852    196.3984 300.2355889 +22.5575510     1174.455     72.15905      1.566     2.89     5.356977     20.39987     125.6021        18     1.126     0.979  81.77   0
       310    145.4773    196.9673 300.1581511 +22.4833261     393.3513     72.28812      1.255     2.78     5.470723     20.39987     66.91784         6     0.959     0.465 -28.79   0
       311    552.1582    195.7589 300.2851127 +22.6047936      217.026     72.39857      1.064     2.99     5.419959     20.39987     43.27539         5     0.909     0.344  47.57   0
       312    903.1130    193.4199 300.3952777 +22.7091634     241.4408     72.23283      1.240     3.59     5.475857     20.39987     47.16444         8     0.820     0.771  16.23   0
       313    328.7489    188.8042 300.2178092 +22.5358890     337.4988     72.30653      1.451     5.36     5.381504     20.39987     44.00724         7     1.245     0.651  -3.62   0
       314    210.8190    188.6161 300.1811798 +22.5005060     795.5095     72.28812      1.512     2.73     5.326339     20.39987     91.75735        13     0.946     0.861  81.26   0
       315    748.4292    185.6865 300.3495438 +22.6606512      1717.84     72.30653      1.337     2.59     5.363508     20.39987     239.5261        19     1.096     0.931  67.97   0
       316    813.5563    185.2806 300.3699828 +22.6800248     661.7079     72.28812      1.275     3.19     5.334364     20.39987      92.5385        11     1.052     0.725 -47.04   0
       317     63.0545    185.9899 300.1360856 +22.4554737     168.2537     72.30653      1.267     3.78     6.045909     20.39987     41.47193         5     0.678     0.605   0.34   0
       318    232.2621    181.6939 300.1900942 +22.5049420      644.689     72.39857      1.743     3.99      5.33446     20.39987     65.69683        12     1.162     0.830 -52.17   0
       319   1020.2587    178.3634 300.4367161 +22.7398762     732.1093     71.02437      1.536     3.84     5.613256     20.39987     87.04295        15     1.115     0.952  27.20  16
       320    752.6655    177.1950 300.3536179 +22.6594770     857.4958     72.30653      1.283     2.45     5.340405     20.39987     108.9948        13     0.888     0.845 -58.66   0
       321    521.9849    178.1988 300.2814082 +22.5907116     177.1219     72.15905      1.230     3.32      5.39311     20.39987     40.52612         5     0.800     0.493  51.82   0
       322    673.0495    176.3470 300.3290750 +22.6354039     1223.681     72.34336      1.269     2.45     5.417853     20.39987     180.2512        19     1.046     0.943  54.87   0
       323    494.6694    172.5497 300.2747326 +22.5809089     282.7558     72.30653      1.156     2.70     5.362455     20.39987     48.64565         5     0.723     0.461 -19.60   0
       324    868.6097    167.8595 300.3928025 +22.6914870     1520.141     72.26969      1.491     2.77     5.471509     20.39987     170.0627        19     1.099     0.983 -44.46   0
       325    599.2122    167.9145 300.3088002 +22.6108764     920.9617     72.25127      1.348     3.36      5.40854     20.39987     119.9503        14     1.086     0.837  77.04   0
       326    880.5877    167.3227 300.3967129 +22.6949164     884.2141     72.32495      1.432     2.66      5.47586     20.39987     92.27371        10     0.948     0.679  -4.15   0
       327    926.9017    166.4857 300.4114333 +22.7085318     345.5905      72.4721      1.279     3.75     5.492914     20.39987      40.8232         6     0.808     0.500   1.30   0
       328    997.3495    157.2136 300.4364234 +22.7269377     1121.533     72.34336      1.505     3.56     5.628929     20.39987     148.0184        17     1.156     0.927 -88.52   0
       329     20.8337    154.3301 300.1332271 +22.4337293     520.2458     72.28812      1.441     2.66     6.166137     20.39987     77.18756         7     0.933     0.469   2.38   0
       330    231.4565    150.0667 300.2000974 +22.4956152      870.861     72.36177      1.532     3.42     5.459299     20.39987     106.1312        13     1.094     0.840 -89.59   0
       331     93.0836    144.7760 300.1587819 +22.4526372     2203.552     72.26969      1.621     3.11     6.045517     20.39987     265.2573        28     1.347     1.162  52.72   0
       332    916.4167    142.1703 300.4160456 +22.6983993     659.3398     72.30653      1.258     2.89     5.500511     20.39987     81.92355        11     0.921     0.819   3.91   0
       333     42.9749    141.8226 300.1441631 +22.4367732     571.0874     72.26969      1.628     3.85       6.1279     20.39987     63.67337         9     0.922     0.818  10.43   0
       334    250.5790    138.1800 300.2098996 +22.4979287     5651.453     72.30653      1.493     2.81     5.611616     20.39987     655.2479        33     1.265     1.105  55.54   0
       335     34.8052    132.6930 300.1445834 +22.4317032     1251.119     72.19595      1.491     3.29      6.14075     20.39987     144.2101        17     1.096     0.960 -10.25   0
       336    234.0294    129.1094 300.2076916 +22.4903652     489.4728     72.26969      1.319     3.42     5.701582     20.39987     76.42217        10     0.952     0.830  11.96   0
       337    894.8407    119.9511 300.4165176 +22.6855519     3521.791     72.30653      1.496     3.04     5.494528     20.39987     387.3881        31     1.304     1.117  78.29   0
       338    998.3931    118.7891 300.4492066 +22.7161924     2739.404      72.1775      1.506     3.13      5.67622     20.39987     312.7799        28     1.231     1.104  47.87   0
       339    444.1719    115.0512 300.2776486 +22.5492615     639.7683     72.32495      1.488     2.88     5.366318     20.39987     83.54501        12     0.941     0.860  70.80   0
       340    197.5076    115.4754 300.2007510 +22.4755076     321.2732     72.47211      1.358     3.64     5.858247     20.39987     44.18215         5     0.915     0.550  47.68   0
       341    368.3487    106.6925 300.2567536 +22.5241541     743.6187     72.36177      1.423     4.49      5.34631     20.39987     71.19497        11     1.247     0.720  59.15   0
       342    372.4665    105.6675 300.2583675 +22.5250927     448.1811     72.36177      1.664     4.10      5.34631     20.39987     45.29521         6     1.039     0.462  -5.75   1
       343    134.4745    104.0828 300.1848414 +22.4533510     617.7522     72.41695      1.552     2.37     6.041997     20.39987     91.66022         9     0.893     0.611 -22.68   0
       344    495.5615    102.3385 300.2977718 +22.5609935     1726.334     72.30653      1.331     2.63     5.410814     20.39987     233.6123        19     1.034     0.936  89.47   0
       345    423.6072    103.0904 300.2751229 +22.5396659     453.1528     72.21439      1.366     2.75      5.35285     20.39987     69.76678        10     0.925     0.765  16.92   0
       346    557.1199    101.4433 300.3172356 +22.5791648     508.4345     72.28812      1.716     4.56     5.434132     20.39987     48.02859         8     1.093     0.646  83.16   0
       347    319.6946     98.2469 300.2443487 +22.5071562     267.0898     72.32495      1.313     4.44     5.712234     20.39987     40.72838         6     1.216     0.461  89.89   0
       348    238.8790     97.9501 300.2193001 +22.4828656     387.0313     72.30653      1.413     3.64     6.055075     20.39987     54.32109         7     0.747     0.663   4.99   0
       349    783.8277     92.3055 300.3908548 +22.6443855     489.7945     72.21439      1.382     2.87      5.50511     20.39987     63.55197         7     0.877     0.546 -60.38   0
       350    929.8660     86.6604 300.4382366 +22.6864501     315.9243     72.34336      1.556     2.32     5.562835     20.39987     44.96007         5     0.714     0.443  17.46   0
       351    680.5978     83.7695 300.3614395 +22.6110403     205.4991     72.26969      1.095     3.48     5.527432     20.39987     33.54118         5     0.752     0.464  74.40   0
       352    269.5653     82.0732 300.2339926 +22.4874949     5887.802     72.28812      1.505     2.78     6.077965     20.39987     699.8746        35     1.280     1.138  58.73   0
       353    776.3026     83.1283 300.3914829 +22.6394940     387.0359     72.43534      1.303     3.06     5.555549     20.39987     53.55347         6     0.747     0.617  -2.75   0
       354    120.4995     81.6958 300.1877518 +22.4427335     803.0994     72.50884      1.781     3.47     6.074963     20.39987     77.94729        15     1.123     0.878  15.99   0
       355    898.8210     80.0049 300.4307079 +22.6752488     332.7882     72.26969      1.249     3.50     5.582257     20.39987     59.14528         7     0.905     0.639  78.73   0
       356    241.5503     76.5422 300.2270695 +22.4775147      419.387     72.36177      1.407     3.51     6.083676     20.39987     57.63587         7     0.926     0.652  44.92   0
       357    285.0979     73.4041 300.2416349 +22.4896559     278.2263     72.21439      1.204     3.31     6.083724     20.39987      50.0909         7     0.850     0.629 -23.94   0
       358    911.6847     72.0911 300.4372862 +22.6768194      85.6216      72.4721      1.168     3.88     5.609032     20.39987     34.29722         5     0.867     0.499 -39.29   0
       359     30.9050     72.8118 300.1627794 +22.4133375     363.6012     72.23283      1.460     3.74     6.041766     20.39987     40.06386         5     1.169     0.343  -9.64   0
       360    515.6404     67.5748 300.3152926 +22.5570102     6390.905     72.34336      1.394     2.48     5.429585     20.39987     896.4849        33     1.211     1.039  69.84   0
       361    401.1971     67.4503 300.2796974 +22.5227115     685.5181     72.30653      1.283     3.50     5.332794     20.39987     84.25209        10     0.945     0.772 -66.61   0
       362    572.6866     62.2170 300.3347987 +22.5725456     345.6488     72.25127      1.518     3.86     5.511817     20.39987     48.79467         6     0.918     0.585  18.60   0
       363    535.8783     61.7447 300.3234856 +22.5613920     263.4019     72.34336      1.466     4.56     5.433463     20.39987     32.49183         6     0.987     0.599  63.33   0
       364    709.6233     59.1149 300.3784775 +22.6126349     312.7442     72.25127      1.142     2.15     5.612259     20.39987     45.63865         5     0.695     0.450 -70.28   0
       365    768.3449     57.4306 300.3973304 +22.6297206     725.0175     72.32495      1.500     3.22     5.685969     20.39987     87.28943        15     1.133     0.841 -65.76   0
       366    859.5823     56.1740 300.4261911 +22.6566542     669.2939     72.32495      1.610     5.12     5.753272     20.39987     204.6109         8     1.506     0.491   2.94   0
       367    208.9084     51.5326 300.2250206 +22.4605517     508.3515     72.43534      1.412     3.69      6.10782     20.39987     55.67363         6     0.787     0.498   3.34   0
       368    644.0200     47.6664 300.3617406 +22.5897105     6414.044     72.28812      1.427     2.67     5.644168     20.39987     867.3204        38     1.289     1.095  76.50   0
       369    567.2408     49.7762 300.3371340 +22.5673382     467.5277     72.34336      1.433     3.16     5.512175     20.39987     73.48925        10     1.091     0.784  52.73   0
       370    418.8603     46.5222 300.2919784 +22.5219842     1494.998     72.36177      1.420     2.48      5.32731     20.39987      210.228        20     1.107     0.979  28.22   0
       371    685.1751     45.1025 300.3753979 +22.6012887      845.235     72.23283      1.328     3.18     5.645097     20.39987     99.60771        15     1.157     0.784  76.45   0
       372    701.2485     41.1268 300.3816964 +22.6049548     705.6438     72.30653      1.441     2.71     5.665809     20.39987     68.64384        10     0.865     0.728  -9.93   0
       373    970.9795     39.0823 300.4664860 +22.6850542     603.4918     72.26969      1.614     3.06     5.685532     20.39987     72.93578         9     0.903     0.721  70.74   0
       374    167.9815     39.1715 300.2162971 +22.4447412     654.3699     72.30653      1.399     3.00      6.11979     20.39987     78.36175        11     1.063     0.656 -11.11   0
       375     15.1552     39.5664 300.1686576 +22.3990700     336.1937     72.34336      1.261     3.62     5.902037     20.39987     47.90557         6     0.793     0.487   8.19   0
       376    739.8442     36.4825 300.3952331 +22.6151671     439.1089     72.26969      1.274     3.92     5.711752     20.39987     64.88315        10     1.011     0.825  84.07   0
       377    688.2264     32.6294 300.3803910 +22.5986140     2765.237     72.30653      1.383     2.45      5.68301     20.39987     378.6125        27     1.183     1.036 -86.30   0
       378    703.5660     31.7130 300.3854693 +22.6029404     945.9245     72.26969      1.927     4.24     5.696136     20.39987     98.22606        20     1.463     1.116  48.76   0
       379    329.2846     33.4085 300.2683458 +22.4913941     406.3535     72.25127      1.321     3.89     5.615338     20.39987     48.87483         6     0.844     0.513 -38.06   0
       380    774.8507     24.2093 300.4101248 +22.6221096     1398.883     72.30653      1.356     2.71     5.881146     20.39987     190.3907        21     1.076     1.039   3.27   0
       381    712.7139     17.5325 300.3929160 +22.6015983     642.9547     72.39857      1.207     2.48     5.747674     20.39987     106.9183        12     0.961     0.727 -30.86   0
       382    317.2764   1013.1505 299.9464882 +22.7690728     1716.858     72.30653      2.872     5.55     9.154474     20.39987      89.0186        29     1.511     1.404  10.57   0
       383     91.3317     16.5169 300.1998042 +22.4152717     739.9305     72.41695      1.960     3.60     5.806536     20.39987     56.58912        11     1.136     0.718 -23.37   0
       384    160.9431   1008.6080 299.8993426 +22.7208531     603.8807     72.28812      2.350     9.19     92.25489     20.39987     34.91134        11     2.922     0.807  34.64  19
       385    804.9001     13.9676 300.4228138 +22.6281524     345.9525     72.28812      1.345     2.37      6.04335     20.39987     55.14875         7     0.821     0.526 -40.21   0
       386    149.1324   1011.3854 299.8947669 +22.7181042     643.1636     72.30653      2.483    10.26     92.44016     20.39987     42.74122        11     2.284     1.285  43.15  18
       387    155.1489   1007.7930 299.8978063 +22.7188803     1192.413     72.30653      2.413     8.37     90.72086     20.39987     57.67165        18     2.098     0.932  76.78   3
       388    152.2923   1008.4208 299.8967139 +22.7182029     1163.044     72.23283      2.769     6.17     90.35191     20.39987     61.06127        15     1.513     0.848 -70.77   3
       389    197.1069   1001.4196 299.9129262 +22.7296466     2273.451     72.23283      5.405    16.47     80.95167     20.39987     59.54227        75     3.362     2.747  40.65   3
       390    185.2135    999.4918 299.9098550 +22.7255243      1020.58     72.25127      2.853     9.80     80.91656     20.39987     40.00803        18     1.827     1.466  17.97   1
