#   1 NUMBER                 Running object number                                     
#   2 X_IMAGE                Object position along x                                    [pixel]
#   3 Y_IMAGE                Object position along y                                    [pixel]
#   4 ALPHA_J2000            Right ascension of barycenter (J2000)                      [deg]
#   5 DELTA_J2000            Declination of barycenter (J2000)                          [deg]
#   6 FLUX_APER              Flux vector within fixed circular aperture(s)              [count]
#   7 FLUXERR_APER           RMS error vector for aperture flux(es)                     [count]
#   8 FLUX_RADIUS            Fraction-of-light radii                                    [pixel]
#   9 FWHM_IMAGE             FWHM assuming a gaussian core                              [pixel]
#  10 BACKGROUND             Background at centroid position                            [count]
#  11 THRESHOLD              Detection threshold above background                       [count]
#  12 FLUX_MAX               Peak flux above background                                 [count]
#  13 ISOAREA_IMAGE          Isophotal area above Analysis threshold                    [pixel**2]
#  14 A_IMAGE                Profile RMS along major axis                               [pixel]
#  15 B_IMAGE                Profile RMS along minor axis                               [pixel]
#  16 THETA_IMAGE            Position angle (CCW/x)                                     [deg]
#  17 FLAGS                  Extraction flags                                          
         1    712.3823     16.9269 300.3930511 +22.6014656     641.0323     72.37219      1.459     3.31     5.920803     20.41839     90.75468        14     1.154     0.785 -65.34   0
         2    517.9288     16.2681 300.3326675 +22.5431092     1139.998     72.40905      1.472     3.13     5.049097     20.41839     116.3002        18     1.113     0.952  89.13   0
         3    421.8284     14.5323 300.3033013 +22.5138551       765.33     72.37219      1.305     2.37     5.647335     20.41839      111.481        12     0.928     0.751 -57.29   0
         4    323.6784      5.1508 300.2757872 +22.4817838     265.7972     71.94696      1.295     4.11     5.574415     20.41839     36.57308         6     1.184     0.407 -58.54  16
         5    193.2150      4.3380 300.2354574 +22.4424978     3730.342     69.91563      1.615     2.95     6.031418     20.41839     366.3626        37     1.389     1.228  51.17  24
         6    760.9081      5.2772 300.4119561 +22.6126247     591.1475     72.31686      1.223     2.71     6.223869     20.41839     84.13003         9     0.881     0.644  23.10  16
         7    519.4350      2.7055 300.3375316 +22.5396584      356.575     63.53763      1.514     5.48      5.01707     20.41839     32.63468         9     1.151     0.737  66.46  24
         8    615.2398      1.6714 300.3677159 +22.5680209     314.2386     58.25794      1.472     3.97     5.146662     20.41839     37.24362         6     0.736     0.648  51.48  24
         9    193.2102    998.6219 299.9126175 +22.7279889      2825.61     72.37219      6.139    28.25     78.61465     20.41839     68.70786       167     5.726     3.870 -86.40  18
        10    269.3733   1016.4532 299.9305058 +22.7559510     3060.401     72.39062      7.882    33.82     33.24689     20.41839     68.17076       278     7.015     4.525 -71.19  27
        11    225.5490   1003.9301 299.9209482 +22.7392127     2257.008     72.37219      5.563    33.93     78.67542     20.41839     67.44461       239     7.433     4.299  -3.58  19
        12    254.1907   1000.9706 299.9308205 +22.7469556     3738.069     72.37219      8.124    23.60     45.31525     20.41839     87.96364       188     5.252     2.944  -3.26  19
        13    242.8916    985.4105 299.9323683 +22.7391030      6067.54     72.31686     10.233    27.64     46.81959     20.41839     115.7465       517     6.705     5.728  46.66  19
        14    260.0625    975.1993 299.9410319 +22.7413243     9431.552     72.33531     13.338    39.03     27.87736     20.41839     198.6944      1007    13.164     5.125  63.36  19
        15    947.2922    971.4932 300.1563508 +22.9462484       743.65     72.53791      2.151     4.92     4.383644     20.41839     44.37447         8     1.108     0.618 -89.80   2
        16    151.9323    958.3103 299.9128963 +22.7040439      1328.55     72.51952      7.321     9.59     48.96009     20.41839     40.65041        18     1.777     1.443   2.72   3
        17    172.3031    954.6135 299.9204333 +22.7090946     625.1278      72.2615      3.870     5.10     46.19197     20.41839     36.68618         5     1.826     0.403  79.61   3
        18    168.6536    958.0747 299.9181725 +22.7089926     1323.177     72.39062      4.180     9.42     49.16342     20.41839      45.2586        24     1.801     1.569 -50.99   3
        19    164.7697    954.7416 299.9180490 +22.7068715     1323.892     72.39062      4.756     9.42     47.66545     20.41839     46.72404        23     1.634     1.515 -35.60   3
        20    673.4676    954.5408 300.0764760 +22.8593404     6840.601     72.40905      1.932     4.31     4.044339     20.41839     380.4227        49     1.553     1.470  -0.11   0
        21      3.5247    995.6882 299.8546055 +22.6702316     2390.467     67.21095     13.206    20.90     -23.8838     20.41839     60.98667        99     4.818     2.518 -65.08  27
        22    148.8235    952.4940 299.9138217 +22.7014431     1465.304     72.29842      6.415     7.29     43.61285     20.41839     43.90354        13     1.644     1.081  50.43   3
        23    377.1956    998.6644 299.9698454 +22.7831866     361.6757     72.37219      1.452     4.77      4.26611     20.41839     39.67355         8     1.292     0.500  57.70   0
        24    109.7325   1010.4943 299.8827983 +22.7063480     3772.547     72.51952     14.338    73.99     86.32351     20.41839     146.0162      1540    15.067    10.080  41.87  27
        25    233.8940    950.2514 299.9410078 +22.7263186     489.9688     72.44589      2.623     4.87     27.11371     20.41839     35.37618         5     1.596     0.422 -23.73   0
        26    553.8004    948.8690 300.0410360 +22.8218456     480.5826     72.31686      1.938     5.13     3.650546     20.41839     41.32817         8     1.137     0.692  44.48   0
        27    264.8275    948.3405 299.9512521 +22.7350484     747.3447     72.37219      3.073     7.69     14.87071     20.41839     58.61909        15     1.493     1.230  64.38   0
        28    581.9446    945.2928 300.0509667 +22.8292550     1686.673     72.42747      1.879     4.34     3.670549     20.41839     112.5942        24     1.305     1.173  31.18   0
        29    475.7275    941.4802 300.0191247 +22.7963205     1062.088     72.50111      1.903     4.26     3.683352     20.41839     81.55447        23     1.319     1.175 -81.47   0
        30    568.6022    992.2635 300.0315281 +22.8387393     2358.601     72.37219      1.951     4.75     3.542207     20.41839     145.6055        34     1.434     1.348  -6.26   0
        31    406.3533    939.6789 299.9981117 +22.7750040     6741.146     72.37219      1.893     4.10     4.068767     20.41839     468.5295        47     1.490     1.418  29.92   0
        32    655.1952    987.5809 300.0600316 +22.8633507     8424.799     72.33531      1.981     4.61     3.918387     20.41839     466.0035        46     1.579     1.430  30.37   3
        33    438.7809    926.9471 300.0123485 +22.7810726      526.368     72.35375      1.784     5.77     3.934682     20.41839     41.08208        11     1.277     0.734 -21.27   0
        34    660.7331    985.2802 300.0625060 +22.8643499     9590.195     72.48271      2.003     4.44     3.961445     20.41839     521.8536        51     1.563     1.462  34.22   3
        35    755.3649    988.4306 300.0909778 +22.8936139     725.0025     72.39062      1.957     6.97     3.975785     20.41839     50.86474        16     1.228     1.110  47.81   0
        36    952.6993    918.7410 300.1752006 +22.9327114      2029.69      72.4643      1.968     5.01     4.408488     20.41839     98.78487        32     1.493     1.377  59.66   0
        37      3.6441    973.2749 299.8619344 +22.6638416     1845.083     67.60678     12.285    20.92    -14.65499     20.41839     65.13894        95     5.468     2.223  81.42  27
        38    602.8149    915.9698 300.0670076 +22.8270915     442.0687     72.37219      1.760     6.30     3.805732     20.41839     36.67198         8     1.276     0.873  20.23   0
        39    634.7070    912.7715 300.0779850 +22.8357310     284.5543     72.31686      1.707     5.06     3.930187     20.41839     34.02853         6     1.392     0.520 -38.76   0
        40    741.7644    907.6307 300.1130248 +22.8663341     749.4628     72.39062      1.936     7.02     4.309326     20.41839     55.21092        17     1.607     0.858  47.84   0
        41    233.3181    909.0064 299.9542446 +22.7143136     1374.199     72.29842      0.631     0.72     9.314617     20.41839      478.246         6     0.466     0.409   6.16   0
        42    776.2568    901.7439 300.1256936 +22.8749771     960.9236     72.44589      1.725     3.88     4.297884     20.41839     85.10783        17     1.186     1.021  72.19   0
        43    554.5087    902.0314 300.0564925 +22.8086117     481.6559     72.31686      1.748     4.18     3.909821     20.41839     33.53714         6     1.396     0.357  74.97   0
        44    184.4049    967.1201 299.9201281 +22.7163122      680.298     72.29842      9.349    10.51     53.45602     20.41839     55.64467        17     2.657     1.159  50.97   3
        45    192.5195    979.6400 299.9185785 +22.7223374     1303.294     72.33531      4.273    10.86     62.70513     20.41839     42.92524        22     2.295     1.431 -71.19   3
        46    238.7455    898.9557 299.9592018 +22.7130578     1480.088     72.39062      0.533     0.75      8.34049     20.41839     603.9125         5     0.441     0.345 -14.03   0
        47    798.6349    895.3645 300.1347465 +22.8798487     11553.29     72.44589      1.850     4.02     4.285571     20.41839     679.1977        56     1.511     1.426  14.51   0
        48    844.3665    895.1047 300.1490930 +22.8934732     383.7142     72.35375      1.551     4.30     4.344828     20.41839     41.18098         8     1.118     0.825  58.07   0
        49     99.3191    942.8685 299.9015617 +22.6838308     5687.281     72.48271     27.214    27.11     24.54815     20.41839     1327.826      4259    21.205    15.790 -80.50  18
        50    109.7809    886.7771 299.9230576 +22.6708819      1158.14     72.37219      5.805     6.48     9.193166     20.41839     70.71843        23     1.837     1.169  -9.98   0
        51    220.7800    886.7206 299.9575928 +22.7041595     541.2267     72.37219      5.792     5.58     8.597196     20.41839     31.65421         5     1.215     0.723   9.61   0
        52    229.7422    885.6844 299.9607175 +22.7065500     620.8418     72.48271      4.569     4.56     7.861791     20.41839     34.26498         5     1.188     0.498 -58.36   0
        53    850.1041    882.9379 300.1548399 +22.8916964     439.1491      72.4643      1.692     5.64     4.358761     20.41839     38.31226         7     1.234     0.764 -84.83   0
        54    503.7442    883.5837 300.0466813 +22.7880999     427.1464     72.33531      1.520     5.54     3.976697     20.41839     48.41982        10     1.093     0.791 -35.98   0
        55    807.2364    877.5334 300.1432284 +22.8773032     1454.461     72.37219      1.844     4.26     4.293602     20.41839     108.4146        23     1.295     1.166  19.45   0
        56    187.5994    979.5810 299.9170676 +22.7208445     882.6005     72.29842      2.793     8.04     63.45886     20.41839     46.74277        16     2.127     0.849 -82.49   3
        57    659.9991    874.8586 300.0981981 +22.8324230     559.7828     72.33531      1.613     2.67      4.15231     20.41839     50.91867         6     0.836     0.630 -52.23   0
        58    845.2255    870.7861 300.1572706 +22.8867440     861.9721     72.37219      2.272     5.54     4.356066     20.41839     53.68073        15     1.200     1.050  37.28   0
        59    187.5611    974.6469 299.9186610 +22.7194179     962.8532     72.42747      3.382    10.75      59.3319     20.41839     41.76767        17     2.130     1.512 -86.09   3
        60    270.9354    866.9202 299.9796341 +22.7135196     1196.374     72.48271      0.461     1.85     5.656406     20.41839     1010.978         6     0.348     0.310  48.75   0
        61    893.9086    863.0361 300.1749768 +22.8990983     558.8255     72.35375      1.746     4.90       4.3954     20.41839     35.50371         7     1.156     0.589   7.99   2
        62    745.0676    861.5596 300.1290392 +22.8540908     583.2449     72.33531      1.796     5.37     4.360519     20.41839     43.28044        15     1.194     1.109 -28.00   0
        63    756.4113    858.4249 300.1335953 +22.8565887     648.4562     72.37219      1.920     5.93     4.353853     20.41839     48.03136        11     1.277     0.774  53.57   0
        64    457.5532    857.3650 300.0408242 +22.7667275      4252.13     72.39062      1.746     3.86     4.168265     20.41839     320.5894        36     1.375     1.295  35.82   0
        65      5.1536   1013.8727 299.8491952 +22.6759337     3585.407     71.94696     12.587    53.08     -29.8154     20.41839     73.99224       570    12.674     6.170 -73.10  27
        66    182.7944    843.1467 299.9599483 +22.6802658     986.9828     72.33531      2.095     5.91     7.054605     20.41839     71.43582        15     1.338     1.013  89.33   0
        67    159.9231    839.7104 299.9539532 +22.6724205     1606.673     72.50111      1.927     4.30     7.388071     20.41839     140.9433        28     1.384     1.354  64.26   0
        68    985.9424    827.9484 300.2151047 +22.9165745     2048.272     72.42747      1.840     4.41     4.485203     20.41839     126.2746        27     1.360     1.222  72.04   0
        69    692.4129    827.3765 300.1237415 +22.8284975     457.0046     72.37219      2.030     3.39     4.325543     20.41839     33.22503         5     1.080     0.308 -68.19   0
        70    769.6069    821.5806 300.1496908 +22.8499573     677.1466     72.33531      1.788     5.16      4.41526     20.41839     56.78943        13     1.206     0.888  69.51   0
        71    192.1145    821.7932 299.9697898 +22.6769343     374.5018     72.29842      1.256     3.36     6.008865     20.41839     48.65614         6     0.881     0.479 -36.18   0
        72    637.6204    815.5646 300.1105060 +22.8086887     4837.854     72.39062      1.680     3.53     4.324541     20.41839     437.6335        37     1.347     1.230  27.47   0
        73    439.9565    812.5908 300.0499043 +22.7485994     751.7969     72.39062      1.857     3.94     4.345551     20.41839     58.29558        14     1.131     0.964  -6.81   0
        74    187.6875    809.0110 299.9725687 +22.6719391     1361.641     72.31686      1.847     4.85     5.515996     20.41839     106.2139        25     1.485     1.219  58.87   0
        75    658.2781    808.0052 300.1194014 +22.8127068     802.6043     72.27996      1.540     3.61     4.347337     20.41839     72.22018        15     1.142     0.883  52.89   0
        76    207.7597    806.3393 299.9796800 +22.6771917     380.8432     72.37219      1.335     2.89     5.332918     20.41839     58.97083         8     0.895     0.613  81.65   0
        77    575.1624    798.7673 300.0965071 +22.7851503     318.1656     72.40905      1.413     3.43     4.320487     20.41839     30.62699         5     0.986     0.346  45.44   0
        78    813.7577    795.4092 300.1719679 +22.8556621     4226.693     72.39062      1.746     3.73     4.501987     20.41839     317.9803        39     1.425     1.290  28.08   0
        79    222.1841    789.8415 299.9895300 +22.6767829     468.4956     72.39062      1.491     5.96     5.068135     20.41839     48.66422        10     1.256     0.796 -39.90   0
        80    530.8126    787.4172 300.0863821 +22.7686012     667.7091     72.33531      1.639     4.17     4.318658     20.41839      54.9769        12     1.002     0.848 -74.11   0
        81    177.0448    785.4858 299.9769068 +22.6619974      992.132     72.35375      1.856     4.31     5.022958     20.41839     96.17435        20     1.328     1.040  -0.02   0
        82    326.6660    777.7235 300.0259759 +22.7046305     53674.73      72.4643      1.719     3.55     4.628546     20.41839     4829.824        92     1.500     1.423  44.87   0
        83    592.2843    780.8933 300.1076523 +22.7851473     504.9876      72.5563      1.732     4.03     4.334556     20.41839     43.00545         6     0.897     0.613  26.32   0
        84    997.3798    776.1578 300.2355140 +22.9051122     877.9641     72.40905      2.005     6.59     4.483074     20.41839     57.15946        19     1.552     1.107  49.74   0
        85    584.6184    776.9948 300.1065314 +22.7817308       1703.3     72.33531      1.644     3.61     4.331118     20.41839     160.6341        25     1.339     1.088  30.31   0
        86    255.5164    775.7697 300.0044732 +22.6827389     498.3964     72.39062      1.861     3.88     4.819003     20.41839     49.30898         8     1.056     0.694  64.82   0
        87    613.4418    773.0098 300.1168073 +22.7892222     915.1906     72.37219      1.577     3.46     4.331679     20.41839     100.2775        15     1.123     0.914  38.74   0
        88     12.8370    772.6005 299.9300471 +22.6090515     892.0829     72.37219      1.961     5.22     4.834497     20.41839      60.4837        14     1.541     0.962 -13.29   0
        89    624.0585    769.8523 300.1211418 +22.7914961     1447.579     72.42747      1.044     0.38     4.327865     20.41839     834.0709        12     1.316     0.533  84.61   0
        90    944.7618    768.9465 300.2214378 +22.8872863     345.0052     72.37219      1.486     4.80     4.589374     20.41839     35.40472         8     0.954     0.832  -3.15   0
        91    729.7435    767.9805 300.1546895 +22.8226179     472.3214     72.37219      1.551     5.50     4.388028     20.41839     46.54765        10     1.212     0.703   7.23   0
        92    767.6470    757.8691 300.1697937 +22.8310656     842.9758     72.35375      1.754     5.34     4.474736     20.41839     58.69163        14     1.268     0.885  40.74   0
        93    376.4136    754.9908 300.0488483 +22.7130172     31653.28     72.27996      1.640     3.21     4.413633     20.41839     3232.401        70     1.401     1.345  39.96   0
        94    390.8557    755.5358 300.0531666 +22.7175024     1991.477     72.42747      1.618     3.21     4.401004     20.41839     186.9766        27     1.354     1.128  20.41   0
        95    899.4947    751.1619 300.2130957 +22.8686213     2847.056     72.35375      1.727     3.72     4.642499     20.41839     194.4436        30     1.302     1.244 -37.32   0
        96    387.3054    749.7313 300.0539482 +22.7147719     634.6096     72.51952      1.805     3.74     4.390169     20.41839     61.65553        10     0.970     0.840  -6.64   0
        97    657.4659    746.9460 300.1389986 +22.7949245     1066.968     72.40905      1.614     3.63     4.298618     20.41839      101.489        18     1.118     1.058 -65.58   0
        98    493.9308    746.9276 300.0880575 +22.7459220     598.0307     72.44588      1.758     4.39     4.373848     20.41839     49.91901         9     0.973     0.687  13.31   0
        99    504.6031    741.7632 300.0930598 +22.7476370     904.2162     72.40905      1.557     3.61     4.377875     20.41839     93.28982        17     1.101     1.047  31.17   0
       100    426.2925    741.7247 300.0686876 +22.7241581     169.4885     72.53791      1.074     3.43     4.373145     20.41839     31.79025         5     1.216     0.279  55.31   0
       101     64.1083    742.0528 299.9559111 +22.6156666     489.9876     72.42747      1.545     3.13     5.179708     20.41839     55.69704         8     0.862     0.613  50.18   0
       102    906.2939    738.7997 300.2192355 +22.8671039     427.9698     72.24303      1.580     6.34     4.694461     20.41839      42.5681        11     1.176     0.959  37.48   0
       103    450.3110    737.1617 300.0776488 +22.7300460      355.269     72.35375      1.386     4.18     4.373145     20.41839      61.2584        11     1.038     0.947 -57.72   0
       104    406.8192    737.9857 300.0638405 +22.7172483     341.8721     72.31686      1.257     3.62     4.368739     20.41839     38.07885         7     0.720     0.691 -15.69   0
       105    362.8654    737.8430 300.0502051 +22.7040334     435.5915     72.35375      1.668     5.39     4.349352     20.41839      35.4098         8     0.951     0.861  33.28   0
       106     92.4847    735.9279 299.9667227 +22.6224195      447.716     72.48271      1.393     4.34     5.186013     20.41839     50.88628        10     1.162     0.682  77.42   0
       107    259.0359    746.8437 300.0149705 +22.6754922     872.7038     72.42747      1.671     3.92     4.520911     20.41839     74.90013        17     1.287     0.871  36.25   0
       108    883.8098    734.0639 300.2137605 +22.8590107     439.9213     72.33531      1.650     6.03     4.682337     20.41839     44.78725        10     1.331     0.769 -26.74   0
       109    256.6994    730.8182 300.0194522 +22.6701921     574.0337     72.27996      1.625     3.84     4.428847     20.41839     57.84937        11     1.073     0.750  31.24   0
       110    579.7656    721.5342 300.1230473 +22.7643476     490.4634     72.37219      1.575     3.98     4.335296     20.41839     48.27028         9     0.952     0.732  57.01   0
       111    549.7604    719.7922 300.1142662 +22.7548576     599.4192     72.39062      1.485     3.23     4.386393     20.41839     65.95032        11     0.995     0.738  48.91   0
       112    966.0125    716.5052 300.2451161 +22.8785738      4620.37     72.29842      1.728     3.63     4.739419     20.41839     328.3821        38     1.377     1.310 -25.23   0
       113    571.5234    717.3463 300.1218407 +22.7606754     1382.151     72.40905      1.531     3.14     4.348922     20.41839     141.7649        18     1.069     0.983  66.15   0
       114    491.1936    716.4838 300.0971001 +22.7363592     435.8254     72.29842      1.540     3.82     4.382571     20.41839     49.77306         7     0.845     0.716 -50.13   0
       115    954.6521    707.7579 300.2444141 +22.8726584      1858.37     72.37219      1.862     3.66     4.865697     20.41839     126.7892        24     1.266     1.169 -26.60   0
       116    317.3906    701.4313 300.0478864 +22.6799496     859.6868     72.37219      1.583     3.77     4.339569     20.41839     79.22801        17     1.105     1.004 -18.79   0
       117    985.6904    698.1908 300.2572098 +22.8791990     1749.288     72.29842      1.920     4.69     4.742593     20.41839     125.8055        29     1.468     1.275   7.08   0
       118    780.8951    699.0868 300.1930311 +22.8181420     2582.995      72.5563      1.568     3.16     4.798235     20.41839     223.8373        32     1.558     1.109   7.94   0
       119      3.2277    689.3038 299.9541316 +22.5822741     787.9869      65.8676      1.900     5.62     5.223143     20.41839     77.05516        14     1.367     0.979   0.03  24
       120    863.1417    685.3051 300.2231607 +22.8388080     574.8612     72.44589      1.562     4.27     5.193401     20.41839     57.33262         8     0.997     0.621   4.02   0
       121    166.3123    685.0358 300.0062163 +22.6299533     615.7958     72.35375      1.836     5.04      4.85565     20.41839     65.40792        11     1.318     0.881  40.69   0
       122    899.2776    676.0745 300.2374332 +22.8469732     148498.6     72.48271      1.635     3.22     5.304149     20.41839     11849.29       154     1.495     1.479  13.46   0
       123    661.6149    680.0422 300.1620361 +22.7769466     345.0667     72.39062      1.364     3.52     4.560881     20.41839     53.84736         7     1.030     0.468 -41.18   0
       124    751.6982    676.3876 300.1913043 +22.8028756     746.8311      72.2615      1.487     3.39     4.719422     20.41839     99.30479        16     1.194     0.900  35.26   0
       125    931.9862    669.0978 300.2499056 +22.8547592     618.9069      72.2615      1.786     4.45      5.29457     20.41839     46.10053         9     1.158     0.618  19.23   0
       126    585.4677    664.7073 300.1432913 +22.7497321     1681.925     72.51952      1.478     3.04     4.444267     20.41839     210.2346        21     1.157     1.023  45.65   0
       127    766.7427    662.1526 300.2006208 +22.8032899     9395.857     72.42747      1.497     2.95     4.866113     20.41839     898.5655        42     1.269     1.185  53.41   0
       128    268.2012    656.9485 300.0470353 +22.6524354     4908.047     72.33531      1.601     3.36     4.365701     20.41839     508.7522        35     1.376     1.144  41.45   0
       129    350.1533    655.2104 300.0731017 +22.6764988     1192.789     72.39062      1.509     3.36     4.305842     20.41839     121.5134        17     1.099     0.969  10.00   0
       130    226.6130    652.9494 300.0353968 +22.6388213     503.3398     72.42747      1.546     3.93      4.45733     20.41839     47.06992         6     1.009     0.439 -76.55   0
       131    558.6270    650.7255 300.1394726 +22.7376751     726.5449     72.37219      1.437     2.86     4.692326     20.41839     95.69795        13     0.952     0.859  26.27   0
       132    550.1710    642.8763 300.1393887 +22.7328872     3360.001     72.35375      1.464     2.91     4.823614     20.41839     372.6277        27     1.123     1.108  53.35   0
       133    540.4960    636.5320 300.1384363 +22.7281664     1442.813     72.50111      1.386     2.67     4.918999     20.41839     197.1655        18     1.020     0.986  14.57   0
       134    468.8048    636.6519 300.1160694 +22.7067231     278.1508     72.37219      1.208     4.52     4.877821     20.41839     41.58629         7     1.070     0.542 -25.78   0
       135    934.1313    635.0496 300.2616387 +22.8456124     472.2222     72.37219      1.591     5.53     5.147327     20.41839     40.34676        12     1.181     0.731   7.09   0
       136    203.8356    632.5734 300.0349318 +22.6261443     772.2849     72.37219      1.566     3.90     4.563524     20.41839       71.841        13     1.127     0.806 -51.48   0
       137    218.1742    631.0458 300.0398880 +22.6300040     639.0746     72.39062      1.871     5.74     4.427084     20.41839     70.41721        14     1.394     0.860  27.07   0
       138    274.8728    628.1753 300.0584591 +22.6461745     551.6182     72.40905      1.995     6.07     4.275593     20.41839     46.84261         8     1.173     0.896   9.09   0
       139    243.5709    628.2397 300.0486999 +22.6368109     641.6587     72.37219      1.735     3.11     4.320633     20.41839     73.02509        13     1.020     0.876  80.88   0
       140    986.7209    628.3308 300.2802332 +22.8594209     365.0889     72.48271      1.556     5.04     4.960666     20.41839      31.1849         8     1.284     0.559  23.43   0
       141    564.2923    627.1599 300.1488940 +22.7326023     534.7609     72.37219      1.519     2.51     5.035012     20.41839      64.1946         8     0.755     0.692 -46.23   0
       142    465.1777    626.3059 300.1183012 +22.7026648     1670.268     72.29842      1.401     2.82      5.00912     20.41839     175.2146        23     1.148     1.033  32.05   0
       143    498.7603    625.5923 300.1289912 +22.7125210     226.0813     72.40905      1.386     3.22     5.079137     20.41839     34.72795         5     0.717     0.472  14.60   0
       144    119.1447    621.1043 300.0123207 +22.5974633      19637.1     72.44589      1.729     3.34     5.078064     20.41839     1857.656        65     1.528     1.378  27.03   0
       145     40.2017    622.7033 299.9872606 +22.5742527     690.9522     72.27996      1.673     3.61      5.21077     20.41839     76.09122        14     1.025     0.985 -87.03   0
       146    550.2267    621.6872 300.1462903 +22.7268168     1133.013     72.35375      1.525     3.07     5.129669     20.41839     122.7494        16     1.051     0.932  23.90   0
       147    585.2537    621.0560 300.1574074 +22.7371274     507.5042     72.40905      1.643     2.14     5.090448     20.41839     57.50472         6     0.704     0.548  32.06   0
       148    303.7202    613.0383 300.0723525 +22.6504741     431.2592     72.33531      1.666     4.21     4.227147     20.41839     39.56773         6     1.032     0.526 -40.02   0
       149    968.2021    608.1927 300.2809965 +22.8480877     1086.765     72.18761      1.601     3.38     5.011491     20.41839     86.36893        18     1.129     0.966 -46.59   0
       150     65.2393    605.5758 300.0006067 +22.5768448     1670.799     72.40905      2.246     4.91     5.165463     20.41839     107.7065        27     1.560     1.127 -67.84   0
       151    835.1699    606.3124 300.2401029 +22.8077272     450.5301     72.35375      1.406     4.00     4.888554     20.41839     56.02129         9     1.043     0.648   3.17   0
       152    513.0803    602.3674 300.1409962 +22.7101393     444.1797     72.37219      1.325     3.76     5.330543     20.41839     50.02057         9     0.951     0.683  53.83   0
       153    908.4252    600.7311 300.2647679 +22.8280509      811.065     72.37219      1.746     3.47     4.982665     20.41839     85.27994        15     1.078     0.896  30.28   0
       154    306.1205    601.5942 300.0768170 +22.6479075     339.0401     72.29842      1.583     3.52     4.282524     20.41839     32.42541         5     0.793     0.450 -17.60   0
       155    652.6157    598.6177 300.1856871 +22.7508552     327.6837     72.35375      1.741     3.86     5.185302     20.41839     29.24742         5     0.976     0.437  75.85   0
       156    470.2997    594.5985 300.1301967 +22.6950918     761.9041     72.24303      1.481     3.25     5.267166     20.41839     81.82925        12     1.083     0.771   4.98   0
       157    618.1998    593.5306 300.1766147 +22.7390864        413.7     72.31686      1.261     2.63     5.252944     20.41839     63.25309         9     0.845     0.703  72.19   0
       158    665.1818    591.2861 300.1919851 +22.7525115      414.556     72.31686      1.263     5.40     5.170132     20.41839     64.70717         9     1.343     0.612  49.56   0
       159    636.0561    591.3549 300.1828858 +22.7438090     524.8625     72.40905      1.400     2.65     5.225361     20.41839     69.41606         9     0.889     0.646 -69.43   0
       160    514.5244    590.4895 300.1453044 +22.7071597     923.9141     72.51952      1.535     2.82     5.337543     20.41839     104.6876        15     1.005     0.899  38.78   0
       161    948.3925    586.0805 300.2819981 +22.8358006     3331.714     72.29842      1.596     3.18     4.979539     20.41839     295.5517        31     1.243     1.217 -13.82   0
       162    479.8487    585.6765 300.1360685 +22.6953895     1712.903     72.37219      1.486     2.89     5.328237     20.41839      202.759        19     1.075     1.016  32.09   0
       163    844.6901    583.1395 300.2506002 +22.8039153      326.641      72.4643      1.593     4.38     4.877086     20.41839     40.06623         7     0.818     0.810 -18.76   0
       164     41.9658    579.2881 300.0019110 +22.5623225     5028.978     72.35375      1.750     3.39      5.15744     20.41839     483.3985        38     1.382     1.316  58.51   0
       165    455.7120    580.6426 300.1301874 +22.6867128     232.5743     72.37219      1.093     2.44     5.190767     20.41839     45.15861         5     0.706     0.453  16.72   0
       166    986.8395    576.2457 300.2971914 +22.8444784     346.6238     72.44589      1.309     3.55     4.933105     20.41839     34.84836         5     1.146     0.317  80.37   0
       167    509.0987    576.6602 300.1481066 +22.7015615     220.6197     72.44589      1.313     3.95     5.343588     20.41839     48.00663         6     0.780     0.611  72.31   0
       168    343.4476    572.5638 300.0978629 +22.6507566     9311.659     72.40905      1.527     2.78     4.574107     20.41839     1116.715        40     1.258     1.171  43.33   0
       169    465.8735    569.6130 300.1369342 +22.6865886     9078.343     72.39062      1.445     2.66     5.252506     20.41839     1125.253        37     1.196     1.120  43.28   0
       170    877.6011    563.7924 300.2671508 +22.8082041     1888.376     72.18761      1.525     2.54     4.874872     20.41839     230.9625        23     1.243     0.999  84.39   0
       171    711.6581    565.9025 300.2147170 +22.7591331     282.5152      72.4643      1.267     2.62      4.97703     20.41839     52.61557         6     0.719     0.632 -24.89   0
       172    110.1247    565.6092 300.0275418 +22.5788306     289.0217     72.35375      1.639     4.44     4.999481     20.41839     29.93848         7     0.914     0.613 -80.80   0
       173    962.2781    561.1746 300.2944216 +22.8327941     12492.35     72.37219      1.588     3.10     4.915653     20.41839     1145.801        50     1.344     1.290  62.37   0
       174    526.4567    559.1747 300.1591924 +22.7017373     11651.75     72.37219      1.415     2.66     5.359437     20.41839     1269.305        44     1.223     1.161  61.03   0
       175    253.8426    554.4686 300.0758577 +22.6187090     1294.556     72.35375      1.560     3.00     4.695024     20.41839     143.2139        20     1.218     0.970  54.19   0
       176    696.0410    555.1630 300.2133371 +22.7513703     600.1037      72.4643      1.334     3.39      5.05152     20.41839     71.52104        10     0.967     0.733  38.78   0
       177    411.9717    553.7252 300.1253115 +22.6658769     337.3461     72.39062      1.190     3.93     4.960177     20.41839     42.94514         6     0.920     0.563  61.24   0
       178    500.9862    552.5206 300.1534205 +22.6921964      546.274     72.35375      2.003     2.68     5.352988     20.41839     49.24544         6     0.771     0.497   5.04   0
       179    458.1366    547.3943 300.1417414 +22.6778882     4440.024     72.33531      1.440     2.63     5.214452     20.41839     451.5456        31     1.227     1.076  55.46   0
       180    801.1389    547.4312 300.2486160 +22.7806126     809.4386     72.40905      1.444     3.33     4.886783     20.41839     91.98935        15     1.072     0.906  50.19   0
       181    436.4683    545.7839 300.1355174 +22.6709345     1209.745     72.37219      1.486     2.91     5.088423     20.41839     156.0096        17     1.041     0.960  56.85   0
       182    190.7886    545.0895 300.0592897 +22.5971187     584.8079     72.31686      1.357     3.59     4.818155     20.41839     84.81264        16     1.175     0.941  79.12   0
       183    878.0071    542.9943 300.2740328 +22.8023455     1628.874     72.22456      1.606     3.15     4.851853     20.41839     144.5244        24     1.273     1.122 -89.41   0
       184    978.2590    542.2463 300.3055570 +22.8321327     210.6541     72.40905      1.247     4.94     4.880601     20.41839     35.72414         7     1.095     0.630 -56.16   0
       185    574.7822    534.9503 300.1821140 +22.7092505     205193.7     72.37219      1.424     2.65     5.392162     20.41839     26350.34       198     1.468     1.402  -3.53   0
       186    398.5924    540.9073 300.1253092 +22.6581868     339.6761     72.27996      1.507     3.81     4.963872     20.41839      43.1188         6     1.195     0.597  49.71   0
       187    758.5102    539.8718 300.2377785 +22.7656781     834.9777     72.53791      1.365     2.81     4.859908     20.41839     111.5754        16     1.063     0.895  11.34   0
       188    260.8603    534.8248 300.0844205 +22.6151713     3439.975     72.35375      1.482     2.80     4.725324     20.41839     413.4795        28     1.190     1.079  53.01   0
       189    826.8842    531.4008 300.2618516 +22.7837104     484.9548      72.2615      1.378     3.17     4.860032     20.41839     55.99992         9     0.878     0.775 -52.84   0
       190    606.3747    521.9198 300.1961890 +22.7149669     331.8286     72.35375      1.340     4.28     5.395064     20.41839     46.87598         7     1.017     0.663  79.44   0
       191    465.4134    515.1725 300.1544714 +22.6708111     2745.042     72.37219      1.468     2.59     5.309124     20.41839     306.5422        25     1.114     1.050  67.39   2
       192    310.1447    517.9550 300.1052337 +22.6250947     393.5075     72.40905      1.487     4.59     4.771287     20.41839     53.77741        11     1.066     0.867  67.21   0
       193    915.1761    516.0798 300.2943701 +22.8057300     276.8013     72.33531      1.343     3.15     4.862968     20.41839     34.52903         5     0.778     0.507 -35.44   0
       194    877.3074    511.8324 300.2839349 +22.7931756     414.3694     72.29842      1.455     4.02     4.804972     20.41839     44.64588         8     0.984     0.584  21.33   0
       195    695.9926    511.1104 300.2276289 +22.7386938     227.2445     72.27996      1.244     2.88     4.969483     20.41839     42.33575         6     0.768     0.660  -0.49   0
       196    783.1177    503.9800 300.2571075 +22.7627260     472.1498     72.33531      1.706     4.90     4.875211     20.41839     40.55055         9     1.054     0.781   3.56   0
       197    862.5672    501.7001 300.2826271 +22.7858505      1687.65     72.35375      1.485     2.78     4.773342     20.41839     189.1833        21     1.131     1.048  44.50   0
       198    733.5845    499.1901 300.2432186 +22.7465213     2511.717     72.29842      1.360     2.57     4.852826     20.41839     296.8234        24     1.084     1.048  24.36   0
       199    371.8993    499.6278 300.1304047 +22.6383326     188.3328     72.31686      1.118     3.43     4.975595     20.41839     31.96736         5     0.801     0.425  19.78   0
       200    977.8096    496.6730 300.3202172 +22.8188906     687.8358     72.37219      1.889     4.15     4.935825     20.41839     71.94411        11     1.207     0.847  88.59   3
       201    976.5491    492.4851 300.3211838 +22.8173089     753.5709     72.35375      1.727     3.22     4.940613     20.41839     81.06566        10     1.089     0.686 -21.98   2
       202    943.0936    496.4492 300.3094560 +22.8084385     296.2387     72.40905      1.280     3.73     4.894101     20.41839     44.77161         7     0.960     0.609  23.21   0
       203    638.3370    495.7607 300.2146435 +22.7170194     404.0855     72.37219      1.212     2.88     5.207989     20.41839     75.18971         8     0.864     0.650  85.58   0
       204    520.5986    494.8797 300.1782475 +22.6815091     719.2137      72.2615      1.352     3.40     5.414034     20.41839      95.6256        15     1.154     0.825  34.25   0
       205    990.9913    493.3867 300.3253985 +22.8218894     1308.936      72.2615      1.525     2.96     4.957872     20.41839     141.6625        21     1.090     1.077  65.17   0
       206    862.6434    491.6964 300.2858993 +22.7829966     2249.338     72.39062      1.690     3.76     4.756176     20.41839     219.2795        29     1.531     1.056  71.49   0
       207    615.8434    489.6503 300.2096181 +22.7085281      603.028     72.40905      1.624     3.09     5.347042     20.41839     64.20032        12     0.975     0.816  54.13   0
       208    401.7542    489.4583 300.1430003 +22.6443549      205.318     72.40905      1.234     4.17     5.198992     20.41839     43.36662         6     0.726     0.682  34.15   0
       209    900.8395    486.7218 300.2994305 +22.7929968     4374.838     72.35375      1.519     2.84     4.817055     20.41839      491.257        35     1.230     1.210 -73.92   0
       210    454.5332    488.2759 300.1598170 +22.6598247     329.5024      72.4643      1.315     3.30     5.346995     20.41839     56.19174         5     0.772     0.410  64.20   0
       211    561.3059    482.6737 300.1948913 +22.6901923     468.8568     72.51952      1.508     3.46     5.439718     20.41839     54.91904         9     0.926     0.840   3.44   0
       212    992.5501    476.9648 300.3312175 +22.8176320     753.0444     72.39062      1.705     4.54     4.980585     20.41839     73.26476        13     1.203     0.922  66.31   0
       213    132.7437    476.7614 300.0634252 +22.5601043     1056.649     72.37219      1.654     2.77     4.596784     20.41839     128.8706        18     1.160     1.036   5.10   0
       214    733.2217    461.3939 300.2553778 +22.7355467     512.7372     72.35375      1.565     4.05     4.820544     20.41839      49.9231         9     0.947     0.770 -40.55   0
       215    621.9857    459.0322 300.2214733 +22.7015669     266.5601     72.37219      1.232     2.40      5.16686     20.41839      50.9312         5     0.611     0.588  89.06   0
       216    674.3940    457.1635 300.2384131 +22.7167202     779.2997     72.40905      1.377     2.95      4.86116     20.41839     94.23366        14     0.993     0.891  83.17   0
       217    462.8787    455.3866 300.1730939 +22.6528744     141.9377     72.37219      0.936     3.45     5.360227     20.41839     29.71857         5     0.777     0.443 -18.37   0
       218    988.8192    449.9945 300.3388099 +22.8087576     587.9492     72.33531      1.455     5.01     4.973114     20.41839     61.44125        13     1.266     0.784  24.18   0
       219    735.2160    449.2170 300.2599529 +22.7326428     862.6072     72.33531      1.376     3.73     4.801038     20.41839     106.4044        14     1.095     0.860 -81.24   0
       220    892.2050    445.7319 300.3100455 +22.7786243     1078.487     72.33531      1.441     2.86     4.827615     20.41839     136.2906        16     1.033     0.906  32.63   0
       221    876.7100    442.2699 300.3063355 +22.7729919     674.1101     72.53791      1.442     3.25     4.814973     20.41839     67.36958        11     0.993     0.744  19.17   0
       222    850.7115    443.2356 300.2979119 +22.7654897     314.3178     72.35375      1.624     4.29      4.82404     20.41839     35.62547         5     0.740     0.709 -46.58   0
       223    857.1271    442.0473 300.3002989 +22.7670679     352.1165     72.37219      1.543     3.29     4.815284     20.41839     39.36241         7     0.852     0.650  32.82   0
       224    620.8286    439.8809 300.2273302 +22.6957157     3289.578     72.39062      1.362     2.42     5.056911     20.41839     481.8013        27     1.120     1.024 -79.34   0
       225     97.2729    430.9795 300.0672583 +22.5363288     266.1213     72.39062      1.209     3.27      4.97945     20.41839     48.78567         6     0.881     0.493 -52.83   0
       226    981.0117    439.0890 300.3399137 +22.8032845      367.637     72.31686      1.378     3.20     4.959502     20.41839     73.19837         9     1.095     0.660  38.61   0
       227    460.8718    426.6303 300.1818041 +22.6440104     367.1454     72.37219      1.288     2.96     5.350523     20.41839     61.94694         7     0.997     0.467  49.22   0
       228   1007.9749    425.6786 300.3526831 +22.8074929     373.2526     72.37219      1.827     3.79     5.003942     20.41839     37.22933         5     0.827     0.498  52.18   0
       229    990.5663    418.0765 300.3497173 +22.8000981     882.9258     72.37219      1.411     3.10     4.975537     20.41839     105.8357        13     1.061     0.827  21.91   0
       230    904.0471    418.9910 300.3224213 +22.7744763     601.4829     72.39062      1.443     3.62     4.861024     20.41839     59.54688        11     1.072     0.698  24.98   0
       231    640.5372    415.9293 300.2412472 +22.6947309     277.0278     72.40905      1.204     2.99     4.853822     20.41839     43.30591         8     0.813     0.670  -2.21   0
       232    527.0087    414.5399 300.2063266 +22.6603411     407.5099     72.33531      1.335     4.18      5.34244     20.41839     52.89101        10     1.076     0.716  12.22   0
       233    731.4341    413.8495 300.2702552 +22.7213419     1114.864     72.40905      1.386     2.66     4.759902     20.41839     149.3544        14     0.972     0.866  35.49   0
       234    235.4534    411.9242 300.1164172 +22.5722629     622.5853     72.40905      1.386     3.32     4.946325     20.41839     78.11036        13     1.059     0.819  29.93   0
       235    297.7776    407.6628 300.1371916 +22.5897103     3742.615     72.35375      1.428     2.49     4.910288     20.41839     515.8318        28     1.168     1.021  51.82   0
       236    244.9837    402.4101 300.1224701 +22.5723854      7614.75     72.29842      1.458     2.73      4.93725     20.41839     816.5905        42     1.314     1.149  49.25   0
       237    623.4582    402.1840 300.2403864 +22.6856666     307.3611     72.35375      1.277     2.60     4.894564     20.41839     45.56076         5     0.783     0.657  42.07   0
       238   1010.9098    397.5119 300.3627426 +22.8002671     1806.815     72.53791      1.515     2.81     5.048076     20.41839     203.8708        24     1.161     1.083  -6.23   0
       239    385.8379    396.6774 300.1681648 +22.6129316     4740.062     72.35375      1.404     2.48     5.291952     20.41839     670.7641        33     1.198     1.098  63.97   0
       240    630.0417    393.4647 300.2452681 +22.6851309     18581.72     72.35375      1.357     2.47     4.871323     20.41839     2543.964        50     1.248     1.103  62.73   0
       241    647.8112    393.5244 300.2507865 +22.6904674     846.0004     72.39062      1.948     5.62     4.835882     20.41839     69.21569        15     1.490     0.802 -46.95   0
       242    873.9007    389.6570 300.3225381 +22.7570188     303.9028      72.4643      1.287     4.65     4.838106     20.41839     46.46082         7     1.049     0.585  76.69   0
       243    250.5287    380.9330 300.1311656 +22.5678775     429.7739     72.40905      2.214     4.08     4.943114     20.41839     36.90406         5     0.745     0.639  14.43   0
       244    963.6196    375.9887 300.3549686 +22.7799285     876.1221     72.33531      1.732     4.31     4.793534     20.41839     75.76173        15     1.275     0.868 -35.60   0
       245    674.0750    374.8749 300.2650250 +22.6929672     251.0974      72.4643      1.418     3.95     4.812601     20.41839     35.54238         6     0.785     0.569 -40.32   0
       246    500.4395    375.3264 300.2107785 +22.6411153     314.7377     72.35375      1.486     3.48     5.262697     20.41839     37.52509         5     0.747     0.469  73.76   0
       247    184.5318    373.3871 300.1130847 +22.5459378     2042.756     72.39062      1.582     2.98     4.941222     20.41839     246.0636        27     1.307     1.126  59.60   0
       248    840.5371    365.1240 300.3200932 +22.7399796     383.9646     72.42747      1.753     4.39     4.911492     20.41839     32.78698         7     0.882     0.623 -13.31   0
       249    984.3742    363.4113 300.3655282 +22.7825182     1256.865     72.37219      1.513     3.42       4.9078     20.41839     121.7985        17     1.086     0.989 -24.86   0
       250    570.6762    362.8807 300.2366965 +22.6585668     6538.925     72.48271      1.357     2.41     5.063659     20.41839     921.4875        34     1.137     1.086  52.59   0
       251    285.4212    362.0782 300.1481408 +22.5729136     660.1659     72.37219      1.393     2.79     4.947489     20.41839     75.88985        12     0.960     0.781  36.91   0
       252    143.2020    355.5348 300.1060245 +22.5284273     519.2638     72.39062      1.609     4.36     4.973286     20.41839     67.39397         9     1.193     0.640  29.81   0
       253    774.9449    351.9648 300.3039074 +22.7165678     1214.945     72.39062      1.442     3.02     4.936119     20.41839      132.098        17     1.107     0.875  66.67   0
       254    684.3427    353.0485 300.2753089 +22.6897647     471.0133     72.42747      1.387     2.80      4.85107     20.41839     70.26527         7     0.740     0.654  48.71   0
       255    566.0226    350.9106 300.2391312 +22.6537327     1160.239     72.29842      0.468     1.97     5.059167     20.41839     904.6573         5     0.364     0.334  84.31   0
       256    477.3731    349.1232 300.2120982 +22.6266775     6128.248     72.37219      1.362     2.53      5.25054     20.41839     679.1867        33     1.157     1.064  65.75   0
       257    869.2607    343.5305 300.3360608 +22.7423623     1399.536     72.40905      1.551     2.87     4.864287     20.41839     168.1206        20     1.241     0.975  72.42   0
       258    966.8487    344.2398 300.3662803 +22.7717599      661.994     72.40905      1.401     3.30     4.753978     20.41839     74.29318        10     1.054     0.622   1.11   0
       259    461.6848    337.9199 300.2108481 +22.6187602     509.4831     72.51952      1.532     4.06     5.310587     20.41839     61.79456        10     1.034     0.721  42.37   0
       260    544.2841    335.9162 300.2372247 +22.6429144     465.0027     72.50111      1.424     2.70     5.090346     20.41839     62.28478         8     0.840     0.616  38.57   0
       261    822.4230    334.6531 300.3243318 +22.7257952      175.883     72.39062      1.127     3.45     4.942012     20.41839     35.98162         5     1.016     0.339  67.97   0
       262    525.1599    333.4171 300.2320784 +22.6364706     294.0993     72.39062      1.199     2.99     5.123651     20.41839     35.85751         5     0.731     0.450  20.51   0
       263    842.0800    331.2856 300.3315557 +22.7307079     574.7201     72.53791      1.308     4.07     4.918441     20.41839      67.3839        12     1.181     0.759 -12.83   0
       264    364.9080    328.2655 300.1838504 +22.5870057     2432.988     72.50111      1.378     2.56     5.554963     20.41839     284.5811        23     1.066     1.032  50.27   0
       265     83.4487    325.5893 300.0971618 +22.5019232     959.6174     72.39062      1.444     3.26     5.048221     20.41839     112.9199        14     0.994     0.916 -19.95   0
       266    334.2113    317.6801 300.1777305 +22.5747709     30235.55     72.35375      1.452     2.67     5.485918     20.41839     3546.191        68     1.364     1.204  60.51   0
       267    868.9356    315.3511 300.3451035 +22.7341586     1414.728     72.39062      1.340     2.49     4.876106     20.41839     188.0968        19     1.007     0.987 -79.90   0
       268    824.4036    313.1614 300.3319233 +22.7202058     199.4946     72.40905      1.122     3.12     4.939655     20.41839     53.40708         6     0.923     0.635  -7.14   0
       269     30.5891    305.4254 300.0872721 +22.4802934     4988.982     72.37219      1.699     3.11     5.018613     20.41839     562.4048        40     1.406     1.305  56.47   0
       270    784.2454    304.1645 300.3223184 +22.7056025     497.9657     72.40905      1.276     3.23     4.946726     20.41839     65.76273        10     0.979     0.723  -2.65   0
       271    208.7464    304.1280 300.1430893 +22.5332978     442.8644     72.37219      1.353     2.86     5.003544     20.41839     59.08362         8     0.840     0.725  14.86   0
       272    432.7537    303.0758 300.2131450 +22.6000829      385.542     72.37219      1.235     2.44     5.475537     20.41839     82.84027         8     0.829     0.683  21.21   0
       273    744.6755    297.5874 300.3121138 +22.6918708     1946.733     72.39062      1.338     2.34     4.900763     20.41839     279.0792        21     1.111     0.933  80.71   0
       274    874.3592    293.7011 300.3538201 +22.7295526     -1140.87     72.35375      1.015     5.12     4.876327     20.41839     30.41538         6     0.978     0.759 -16.30   0
       275    553.0318    292.3684 300.2540794 +22.6330139      333.825     72.40905      1.258     3.33     4.850576     20.41839     47.86005         5     0.767     0.419  21.81   0
       276    960.0928    290.7569 300.3815262 +22.7543500     586.6378     72.39062      1.389     2.93     4.812939     20.41839     79.01643         9     0.898     0.673   0.43   0
       277    406.4539    282.0441 300.2117798 +22.5861633     2136.211     72.39062      1.570     3.20     5.581595     20.41839     225.0271        24     1.372     0.961  70.34   0
       278    845.6020    275.1664 300.3508627 +22.7156175     564.5411     72.33531      1.258     2.85     4.913472     20.41839     79.16118        10     0.962     0.638  24.18   0
       279    727.9964    272.8099 300.3149522 +22.6797535     460.8552     72.18761      1.249     2.30     4.899858     20.41839      72.0099         7     0.748     0.599  -8.19   0
       280    696.1625    272.1596 300.3052390 +22.6700407     330.0571     72.44589      1.159     3.58     4.867012     20.41839     45.49772         6     0.731     0.587  29.77   0
       281    482.4478    261.5278 300.2420986 +22.6030182      1242.49     72.35375      1.346     2.59     5.340718     20.41839     146.6071        17     1.029     0.929  85.63   0
       282    994.1680    257.9669 300.4027992 +22.7551047     409.3882     72.42747      1.746     3.75     4.817217     20.41839     36.44698         5     0.824     0.490 -26.44   0
       283    727.1454    253.4881 300.3209548 +22.6739414     2212.635     72.40905      1.363     2.41     4.917672     20.41839     312.1908        23     1.134     0.971  44.86   0
       284    988.3991    247.9874 300.4042359 +22.7505075     3100.265     72.18761      1.494     2.98     4.817217     20.41839     325.9777        29     1.225     1.097  34.39   0
       285    435.3499    237.3481 300.2352751 +22.5819675     569.2417     72.40905      1.296     2.53     5.545038     20.41839     76.23293        12     0.900     0.803   8.60   0
       286    110.3835    231.5680 300.1360355 +22.4829883     1272.894     72.35375      1.644     3.58     5.516412     20.41839     132.1516        22     1.321     1.008  -5.84   0
       287    141.1189    231.4729 300.1456236 +22.4921680     679.8113     72.50111      1.517     3.16     5.511696     20.41839     58.87141        11     0.921     0.814 -45.09   0
       288   1004.3610    228.0148 300.4156968 +22.7495323     483.3617     72.39062      1.449     4.00     4.817217     20.41839     62.18798        12     1.107     0.859 -59.09   0
       289    847.9966    225.4732 300.3677295 +22.7020366      404.066     72.29842      1.409     3.70     4.910326     20.41839     38.80814         6     0.790     0.497   4.35   0
       290    195.0837    223.2216 300.1650834 +22.5059614     308.5993     72.33531      1.307     3.35     5.427942     20.41839     40.41497         8     0.844     0.639 -43.54   0
       291    989.4079    220.8902 300.4133403 +22.7430103     475.8441     72.27996      1.708     4.95     4.854492     20.41839     44.18695         9     1.266     0.548  41.07   0
       292     50.6474    220.2614 300.1211309 +22.4618448     361.6599     72.40905      2.377     3.46     5.573427     20.41839      35.6513         5     0.755     0.457 -76.58   0
       293    870.2196    217.4234 300.3772729 +22.7063675     256.9703     72.37219      0.997     3.07     4.869981     20.41839     49.55864         5     0.726     0.455  19.88   0
       294    798.7135    214.9450 300.3557729 +22.6842654     695.3912     72.42747      1.373     3.18     4.965025     20.41839     91.68371        13     1.041     0.833 -67.51   0
       295    389.1840    214.6407 300.2282665 +22.5616189      348.017     72.39062      1.446     3.39     5.554813     20.41839     44.35033         5     0.745     0.447 -16.96   0
       296    889.3326    207.5902 300.3864249 +22.7092545     368.4464     72.37219      1.647     5.29      4.84112     20.41839     42.99943         7     1.154     0.686  53.82   0
       297    896.9188    204.0225 300.3899489 +22.7104967     2111.027     72.33531      1.442     2.82     4.832119     20.41839     227.5938        24     1.195     1.002  53.38   0
       298    315.5659    201.1245 300.2097353 +22.5356922     2192.449     72.37219      1.387     2.52     5.524012     20.41839     278.4838        21     1.122     0.943  65.03   0
       299    393.3609    196.5181 300.2354441 +22.5576601     1054.202     72.33531      1.434     2.93     5.548429     20.41839     103.5627        14     1.007     0.841  -6.31   0
       300    795.6824    195.4330 300.3611558 +22.6777449      730.467     72.33531      1.515     4.13     4.979273     20.41839     73.90282        13     1.147     0.961  83.47   0
       301    145.1908    196.6111 300.1581957 +22.4833722     190.7445      72.2615      1.268     3.52     5.578915     20.41839     31.39743         5     0.797     0.449 -16.72   0
       302    835.3685    195.3335 300.3735658 +22.6895872     223.2293     72.37219      1.272     3.97     4.891218     20.41839     35.24089         6     0.959     0.470   2.15   0
       303    551.7117    195.7086 300.2850212 +22.6048263     188.4642     72.53791      0.889     2.04     4.781994     20.41839     47.89685         5     0.689     0.442  11.35   0
       304    902.4344    193.0687 300.3952223 +22.7089941     317.7625     72.37219      1.137     2.93     4.819998     20.41839       60.637         7     0.851     0.668  24.40   0
       305    210.5031    188.2964 300.1812058 +22.5005443     797.7702      72.5563      1.715     4.07     5.485434     20.41839     70.25574        14     1.062     0.983  44.20   0
       306    328.4192    188.2456 300.2179120 +22.5358391     236.7747     72.40905      1.057     2.43     5.525522     20.41839     42.56403         5     0.694     0.464  71.15   0
       307    748.1885    185.3873 300.3496036 +22.6606472     1728.377     72.27996      1.373     2.38     5.195179     20.41839      229.641        18     1.125     0.861  82.70   0
       308    812.8663    184.9042 300.3699295 +22.6798557     612.5521     72.50111      1.370     2.95     4.933601     20.41839     102.5824        12     1.039     0.858  25.85   0
       309    231.7491    181.6824 300.1899598 +22.5050063      495.303     72.39062      1.421     3.03     5.485028     20.41839     60.91242        10     0.897     0.759 -45.33   0
       310   1019.6039    178.0417 300.4366627 +22.7397055     827.3868     72.35375      1.590     3.36     5.481476     20.41839     81.43417        12     1.053     0.744  33.10  16
       311    752.0986    176.8174 300.3536018 +22.6593514     864.8066     72.27996      1.613     2.71     5.220605     20.41839     108.6862        12     0.919     0.850  73.89   0
       312    672.5629    176.0148 300.3290667 +22.6353257     1233.193     72.37219      1.351     2.64     4.963234     20.41839     159.9505        18     1.080     0.910  85.46   0
       313    521.6142    177.4021 300.2815819 +22.5905545     404.7207     72.20609      1.554     3.82     5.048926     20.41839     45.81704         6     1.000     0.466 -36.57   0
       314    494.2513    172.5605 300.2746290 +22.5809727     255.0839     72.37219      1.259     3.39     5.375535     20.41839     33.94947         5     0.750     0.442 -21.81   0
       315    868.2609    167.7048 300.3927860 +22.6914747     1434.008      72.4643      1.399     2.61     4.773217     20.41839     198.4866        18     1.042     0.982 -34.13   0
       316    599.0451    167.7897 300.3088222 +22.6109623     841.4871     72.39062      1.346     2.91     4.781624     20.41839      126.902        13     0.980     0.848  26.21   0
       317    880.0731    166.8807 300.3967383 +22.6947702     907.3312     72.48271      1.550     3.24     4.780257     20.41839       91.379        15     1.068     0.902 -21.05   0
       318    926.8930    165.8459 300.4116822 +22.7084737     301.2235     72.39062      1.327     2.26     4.815643     20.41839     53.48569         5     0.738     0.487 -49.48   0
       319    996.7265    157.0849 300.4363173 +22.7268328     1221.376     72.48271      1.574     3.74     5.493752     20.41839     115.0954        17     1.185     0.978  41.05   0
       320     20.8686    154.0739 300.1333365 +22.4339121     440.9082     72.44588      1.416     2.11     5.558304     20.41839     68.62582         6     0.729     0.530 -45.77   0
       321    230.9062    150.0848 300.1999428 +22.4956735     678.9346      72.5563      1.334     3.39      5.54458     20.41839      82.1522        13     1.026     0.876 -11.83   0
       322     92.7354    144.5695 300.1587588 +22.4527090     2216.446     72.39062      1.652     3.04     5.612874     20.41839     247.0083        29     1.333     1.142  56.30   0
       323    915.9915    142.0066 300.4160106 +22.6983525     763.4432     72.22456      1.353     2.73     4.947795     20.41839     101.6253        12     0.988     0.767 -25.35   0
       324     42.0703    141.5696 300.1439807 +22.4366712     569.1411     72.37219      1.572     4.57     5.566354     20.41839     60.19153         9     1.218     0.650  20.64   0
       325    250.2091    137.9446 300.2098843 +22.4979644     5635.152     72.37219      1.516     2.92     5.521922     20.41839     575.0723        36     1.263     1.181  51.00   0
       326    232.2910    139.3379 300.2038579 +22.4929996     258.9275      72.4643      1.162     2.21     5.530805     20.41839     54.83376         5     0.723     0.423  21.17   0
       327     34.3157    132.4370 300.1445309 +22.4317248     1187.157     72.35375      1.564     3.27     5.551537     20.41839     139.6877        21     1.224     1.063 -15.13   0
       328    233.8656    129.0780 300.2076741 +22.4905224     566.8646      72.4643      1.268     2.10     5.518116     20.41839     75.56846         9     0.745     0.701 -24.01   0
       329    894.3546    119.7087 300.4164891 +22.6854646     3621.266     72.35375      1.503     2.69     5.016385     20.41839     452.3876        31     1.252     1.107 -79.92   0
       330    998.0698    118.4468 300.4492646 +22.7161114     2754.092     72.35375      1.545     3.03     5.504465     20.41839     342.8173        29     1.283     1.174 -80.74   0
       331    443.7666    114.8670 300.2776125 +22.5492736     566.3254     72.37219      1.372     2.63     5.521586     20.41839     68.44435        10     0.876     0.728  71.19   0
       332    196.8479    115.3577 300.2006064 +22.4754949     335.1041     72.40905      1.363     4.05     5.540867     20.41839     35.92528         6     0.738     0.651  61.26   0
       333    558.4797    112.1243 300.3142312 +22.5828138     334.0104     72.48271      1.594     5.39     5.021467     20.41839     35.34661         8     1.282     0.640 -57.48   0
       334    369.4422    106.0775 300.2573216 +22.5245000     857.3374     72.35375      2.164     7.34     5.527676     20.41839     74.84161        17     1.986     0.760 -16.56   0
       335    133.9034    103.5952 300.1848427 +22.4532656     611.9885     72.27996      1.531     3.62     5.600595     20.41839     64.50011        13     1.187     0.748  52.98   0
       336    495.1671    102.0899 300.2977620 +22.5609823     1623.941     72.33531      1.342     2.67     5.410561     20.41839     202.4862        22     1.134     0.965  60.96   0
       337    423.1234    102.7105 300.2751255 +22.5395996     492.3179     72.53791      1.449     3.75      5.52592     20.41839      66.9705         8     0.958     0.646  55.33   0
       338    556.4858    101.2298 300.3171418 +22.5790838     331.2343     72.37219      1.287     3.38     5.075313     20.41839     49.41476         5     0.743     0.445  67.50   0
       339    238.5616     97.7605 300.2192872 +22.4829275      421.309     72.44589      1.428     3.66     5.481441     20.41839     51.42619         8     1.095     0.496 -21.82   0
       340    783.1708     91.4883 300.3909568 +22.6440934     452.1945     72.37219      1.463     4.12     5.480016     20.41839     47.76048         9     1.120     0.710  50.58   0
       341    140.3711     88.2509 300.1918277 +22.4507931     169.6769     72.39062      1.166     4.06     5.698303     20.41839     40.68385         6     0.945     0.497 -43.25   0
       342    269.1873     81.8331 300.2339787 +22.4875184     5921.168     72.35375      1.518     2.78     5.465944     20.41839     633.2447        39     1.347     1.167  64.14   0
       343    119.9986     81.1462 300.1877954 +22.4426507     687.7163     72.31686      1.531     3.91     5.789546     20.41839     68.89754         9     1.056     0.642  41.18   0
       344    898.0553     79.6727 300.4306227 +22.6750473     372.9282     72.37219      1.487     3.98     5.237843     20.41839     51.45112         6     1.006     0.449  -8.60   0
       345    240.8570     75.6159 300.2271792 +22.4772496     343.3006     72.35375      1.653     4.81     5.460197     20.41839     31.49506         6     0.992     0.661  76.34   0
       346    284.6646     73.4948 300.2414973 +22.4897549     346.1579      72.4643      1.144     2.73     5.457324     20.41839     55.95891         5     0.709     0.439 -25.49   0
       347    515.2478     67.2704 300.3153032 +22.5569771     6356.187     72.35375      1.404     2.55      5.19666     20.41839     768.4706        39     1.295     1.099  60.36   0
       348    400.6828     67.3341 300.2796056 +22.5227110     491.4613     72.48271      1.193     2.21     5.592039     20.41839     95.59448         8     0.754     0.704 -50.31   0
       349    572.2007     61.7785 300.3348257 +22.5724379     368.7872     72.29842      1.645     3.93     5.094893     20.41839     39.35598         6     0.751     0.588 -36.75   0
       350    767.6486     57.5933 300.3971032 +22.6296969     935.4432     72.37219      1.857     6.13     5.765448     20.41839     86.17505        17     1.816     0.824 -79.96   0
       351    859.2791     56.0629 300.4261781 +22.6566572     655.4885      72.4643      1.347     3.66     5.304752     20.41839     181.2032         8     1.188     0.498   9.09   0
       352     79.7204     53.0354 300.1843824 +22.4225109     289.7643     72.31686      1.452     4.93     5.954745     20.41839     33.42391         6     1.029     0.669 -35.42   0
       353    208.8017     51.3616 300.2250677 +22.4606809      331.819     72.39062      1.290     3.03     5.607142     20.41839     46.14675         7     0.828     0.613 -73.34   0
       354    643.6598     47.3950 300.3617553 +22.5896776     6356.954     72.33531      1.420     2.38     5.335912     20.41839     871.5895        37     1.299     1.052  70.74   0
       355    567.1588     49.6154 300.3371970 +22.5674306     454.1206     72.39062      1.296     2.52     5.094893     20.41839     66.96442         8     0.810     0.660 -54.88   0
       356    418.5965     46.1982 300.2920331 +22.5219944     1467.866     72.15064      1.435     3.00     5.622857     20.41839     187.0998        22     1.128     1.101 -54.74   0
       357    684.7747     44.8852 300.3753839 +22.6012537     961.1423     72.33531      1.464     2.78     5.603817     20.41839     123.7015        12     0.884     0.853  37.66   0
       358    754.7716     42.4937 300.3979818 +22.6215005     405.7439     72.29842      1.324     2.65     5.903839     20.41839     40.70283         5     0.716     0.449 -23.29   0
       359    700.5681     41.0897 300.3815373 +22.6048853     639.7936     72.33531      1.560     3.72     5.708858     20.41839     63.41303         7     0.886     0.625  29.57   0
       360    167.3041     39.1397 300.2161208 +22.4447436     584.0905     72.44589      1.504     3.52     6.182329     20.41839     78.35977        13     1.131     0.786  26.05   0
       361    970.2817     39.0494 300.4663285 +22.6849454     602.9223     72.39062      1.330     2.97     5.466293     20.41839     79.16132        10     1.017     0.628 -10.10   0
       362    739.1274     36.5474 300.3950310 +22.6151106     407.0271     72.37219      1.181     2.17     5.947086     20.41839     71.28602         6     0.750     0.498   0.66   0
       363    702.8827     31.4153 300.3853942 +22.6027938     861.0876     72.33531      1.751     3.71     5.773877     20.41839     108.9467        15     1.372     0.839  58.88   0
       364    687.8217     32.1828 300.3804505 +22.5985100     2693.115     72.35375      1.452     2.68     5.670641     20.41839     364.7008        26     1.263     1.026  77.30   0
       365    328.7634     33.2340 300.2682695 +22.4913805     349.9429     72.44589      1.280     3.25     5.572862     20.41839      53.4716         7     0.949     0.596   5.07   0
       366    774.3414     23.9512 300.4100935 +22.6220163     1467.079     72.42747      1.403     2.56     6.059529     20.41839      181.967        18     1.198     0.841  77.70   0
       367    934.8445     22.5672 300.4606110 +22.6696065     266.3606     72.42747      1.410     5.01     5.433644     20.41839     31.37505         7     0.901     0.788 -66.84   0
       368    174.2122   1016.3935 299.9009270 +22.7273861     678.8262     72.24303      3.307     5.28     94.07893     20.41839     34.59679         5     1.114     0.708 -76.48  16
       369    316.9924   1013.1520 299.9463958 +22.7692874      1759.62     72.39062      5.912     5.54     6.062418     20.41839     86.36458        32     1.704     1.365  38.94  16
       370     91.4390     16.3176 300.1999245 +22.4154685      540.351     72.33531      1.908     3.62     6.425339     20.41839     50.79535         8     0.908     0.737  68.13   0
       371    153.7063   1008.6856 299.8970586 +22.7190233     1984.595      72.5563      3.520    16.17     89.02402     20.41839     58.55046        61     3.339     2.178  10.12  18
       372    803.7902     13.2075 300.4227592 +22.6277300     483.4059     72.24303      1.309     2.52     6.126894     20.41839     55.91283         8     0.785     0.651  53.31   0
       373    158.0231   1005.0000 299.8996001 +22.7192615     323.5746     72.27996      1.766     3.84     86.27764     20.41839     38.69302         5     1.353     0.313  10.01   3
       374    222.3446    986.8289 299.9255157 +22.7333464     4485.421     72.37219      8.995    23.55     64.68003     20.41839     93.57806       333     5.390     5.046  55.38   3
       375    169.5167   1007.2520 299.9024413 +22.7233557     571.9249     72.40905      2.031     6.58      87.2964     20.41839     41.30969        11     1.400     0.869 -41.55   0
       376    183.5084    998.8774 299.9095172 +22.7251516     592.1071     72.51952      2.278     8.34     79.56268     20.41839     45.09988        13     1.760     1.105 -65.14   3
