#   1 NUMBER                 Running object number                                     
#   2 X_IMAGE                Object position along x                                    [pixel]
#   3 Y_IMAGE                Object position along y                                    [pixel]
#   4 ALPHA_J2000            Right ascension of barycenter (J2000)                      [deg]
#   5 DELTA_J2000            Declination of barycenter (J2000)                          [deg]
#   6 FLUX_APER              Flux vector within fixed circular aperture(s)              [count]
#   7 FLUXERR_APER           RMS error vector for aperture flux(es)                     [count]
#   8 FLUX_RADIUS            Fraction-of-light radii                                    [pixel]
#   9 FWHM_IMAGE             FWHM assuming a gaussian core                              [pixel]
#  10 BACKGROUND             Background at centroid position                            [count]
#  11 THRESHOLD              Detection threshold above background                       [count]
#  12 FLUX_MAX               Peak flux above background                                 [count]
#  13 ISOAREA_IMAGE          Isophotal area above Analysis threshold                    [pixel**2]
#  14 A_IMAGE                Profile RMS along major axis                               [pixel]
#  15 B_IMAGE                Profile RMS along minor axis                               [pixel]
#  16 THETA_IMAGE            Position angle (CCW/x)                                     [deg]
#  17 FLAGS                  Extraction flags                                          
         1    802.8378     18.7071 300.4314033 +22.6044817      813.153     72.42997      1.713     3.32     4.250923     20.43469     94.50014        16     1.131     0.970  70.79   0
         2    611.2642     17.1149 300.3722348 +22.5466794     2065.041     72.54058      1.376     2.65     4.280859     20.43469     244.1292        20     1.041     0.944  84.82   0
         3    334.0946     14.2012 300.2869149 +22.4628372     624.4809     72.33767      1.356     3.05     4.420609     20.43469     99.31069        11     1.068     0.705  74.84   0
         4     48.9940     13.1733 300.1986235 +22.3771148     650.0864     72.42997      1.470     3.75     4.349436     20.43469     65.32761        12     1.019     0.945 -66.83   0
         5    568.4969     10.9451 300.3609171 +22.5321018     1461.939     72.52216      1.357     2.62     4.411561     20.43469     188.0328        19     1.233     0.862  53.43   0
         6    674.1285      7.6937 300.3948682 +22.5627915     1327.587     72.54057      1.333     2.44     4.495453     20.43469      197.123        14     0.923     0.843 -46.40   0
         7    269.1017      6.7930 300.2691028 +22.4412396     645.2579     72.31919      1.642     3.18     4.324891     20.43469     66.43756        12     1.035     0.774 -32.28  16
         8    318.2226      4.5158 300.2851171 +22.4553010      502.574     70.50414      1.397     3.40     4.384592     20.43469     68.80521        10     1.029     0.689 -85.99  16
         9    494.4478      1.8344 300.3408175 +22.5073112     1763.531     59.21409      1.162     2.33     4.678971     20.43469      248.824        14     0.947     0.766   8.80  24
        10    433.1640    998.2875 299.9981309 +22.7748887     6343.847     72.41151      1.863     3.90     3.217038     20.43469     469.1904        44     1.466     1.375  -5.20   0
        11    278.5920   1017.7009 299.9437389 +22.7340544     3584.137     72.30071     10.433    34.14     12.18034     20.43469     108.6686       412     7.454     4.716  14.51  26
        12    194.4629   1016.8063 299.9178785 +22.7085389     3149.586     72.39306     23.166    52.78     23.41579     20.43469     69.03246       522    13.082     5.909  -5.49  27
        13    175.2937   1015.3528 299.9123942 +22.7023665     3317.653     72.44842     14.935    39.51     23.63227     20.43469     68.90656       426     8.558     5.064  55.65  27
        14    130.0419   1011.3475 299.8996364 +22.6876306     5965.385     72.42997     18.355    72.76     24.16961     20.43469     109.6013      2196    17.597    11.568 -17.77  27
        15    979.6044    977.0775 300.1752473 +22.9327060     2263.541     72.33767      2.142     5.02     2.944234     20.43469     109.5117        33     1.566     1.314   7.92   0
        16    629.7872    973.6520 300.0673483 +22.8268222     331.6309     72.46686      1.700     6.27     2.732791     20.43469     34.21629         9     1.333     0.828 -50.92   0
        17    662.3851    971.0225 300.0783554 +22.8358466     320.4948     72.42997      1.584     3.93      2.58276     20.43469     27.26661         5     0.907     0.487  89.59   0
        18    768.4845    965.3027 300.1132676 +22.8660279     854.6782     72.59582      2.343     7.60     2.450774     20.43469     48.04851        15     1.467     1.103  84.95   0
        19    802.9966    960.0489 300.1257315 +22.8748702     1028.379     72.42997      1.694     4.29      2.45835     20.43469     83.26111        21     1.261     1.140 -31.47   0
        20    125.3905    977.5443 299.9091912 +22.6765515     3484.329     72.42997     13.610    57.07     16.93018     20.43469     74.07275       917    12.069     7.487 -24.44  19
        21     13.2221    956.8189 299.8810925 +22.6369301     868.8866     72.42997      3.003     5.91    0.7918282     20.43469     46.16323        10     1.336     0.755  44.68   0
        22    825.3871    953.7585 300.1347563 +22.8797795     11157.62     72.42997      1.868     3.97      2.51786     20.43469     641.9534        59     1.518     1.476 -47.25   0
        23    870.8983    953.4104 300.1490551 +22.8933255     613.0461     72.31919      2.138     5.72      2.57226     20.43469     38.61522         9     1.182     0.780 -19.03   0
        24    137.2243    945.8667 299.9231750 +22.6710307     598.5844     72.41151      1.708     5.14     10.60824     20.43469     55.71897         9     1.115     0.707  -8.94   0
        25    530.2219    941.9152 300.0466782 +22.7878525      383.253      72.3746      1.373     4.95     3.129304     20.43469     42.32681         8     1.026     0.676 -72.98   0
        26     20.5698    998.9551 299.8696640 +22.6512036     560.6162     72.46686      3.638     4.87  -0.07055066     20.43469     28.93956         5     1.444     0.465  82.83   0
        27    833.8237    935.9757 300.1431722 +22.8772072     1424.826     72.39306      1.757     3.77     2.656094     20.43469     102.8161        23     1.231     1.155 -89.23   0
        28   1017.0396    934.4183 300.2008053 +22.9316838      535.527     72.44842      2.419     7.72     3.035088     20.43469     41.79159        13     1.461     1.141  36.49  16
        29    686.7965    932.8643 300.0983749 +22.8322247     408.7742     72.42997      1.939     4.36     2.964811     20.43469     33.61738         5     0.856     0.631  51.60   0
        30    872.1926    929.3484 300.1572881 +22.8868094     682.8173     72.42997      2.002     7.36      2.75386     20.43469     53.31519        14     1.413     1.074   9.63   0
        31    920.3967    920.7128 300.1751260 +22.8987823     559.2872     72.35613      1.791     6.12     2.831754     20.43469     51.85099        15     1.222     1.011  58.38   0
        32    771.7155    919.7466 300.1290978 +22.8539283     773.5362     72.48529      1.696     4.33     2.749958     20.43469     48.97918        15     1.171     0.893 -58.98   0
        33     32.3244    918.0051 299.8996521 +22.6315505     391.4465     72.33767      1.718     4.30     3.008034     20.43469      43.7769         5     1.309     0.447  83.46   0
        34    484.4012    915.9661 300.0408601 +22.7666651     4081.501     72.39306      1.667     3.46     3.108825     20.43469     367.5976        37     1.351     1.266 -77.65   0
        35    783.0535    916.7567 300.1336035 +22.8564703     579.5033     72.44842      1.531     4.33     2.732776     20.43469     46.47065        11     1.031     0.729 -64.43   0
        36    262.9773    904.7054 299.9756506 +22.6969891     455.7553     72.33767      1.758     6.71      4.77897     20.43469     37.89116        10     1.462     0.865 -65.11   0
        37    126.8726    904.7702 299.9333281 +22.6561493     458.1672     72.42997      2.444     4.52     5.022427     20.43469     30.51049         5     0.933     0.622  29.26   0
        38    527.7900    904.1276 300.0582152 +22.7762881     182.1597     72.42997      1.489     4.62     3.111135     20.43469     34.00244         6     0.964     0.628  65.66   0
        39    209.5188    901.7562 299.9599920 +22.6800972     834.5476     72.41151      1.957     5.88     6.262917     20.43469     59.12347        16     1.298     1.048 -28.96   0
        40    186.6352    898.6829 299.9538793 +22.6723470     1427.265     72.39306      1.772     4.44     6.224591     20.43469     118.5209        25     1.365     1.240 -68.85   0
        41   1012.6521    886.3013 300.2150920 +22.9165573     2177.042     72.52216      1.926     4.32     2.976439     20.43469     119.7388        31     1.486     1.240 -25.76   0
        42    712.5333    886.0810 300.1216121 +22.8265236     1988.912     72.54057      0.765     1.98     3.024009     20.43469     678.7097         9     0.815     0.366   8.01   0
        43    796.2635    879.9310 300.1497004 +22.8498655     504.4672     72.48529      1.691     5.12     2.780085     20.43469      43.3879         9     1.156     0.641  86.73   0
        44    218.9798    880.0314 299.9699993 +22.6767118     437.9146     72.42997      1.580     5.50     4.246146     20.43469     38.70011         8     1.128     0.757  31.32   0
        45    664.2991    874.0585 300.1104991 +22.8086101     4778.369     72.52216      1.638     3.28     3.099971     20.43469      418.474        38     1.291     1.255 -44.35   0
        46    154.7079    873.9507 299.9520020 +22.6556760     469.6093     72.46686      1.702     4.01     3.988243     20.43469     41.19201         6     1.180     0.390  58.97   2
        47    466.5278    870.8006 300.0499906 +22.7483530     572.7546     72.31919      1.523     5.08     3.106564     20.43469     56.72277        11     1.143     0.909 -62.94   0
        48    214.3376    867.9451 299.9724876 +22.6718549     1395.785     72.50372      1.831     4.43     3.223841     20.43469     113.3528        23     1.341     1.150  -9.75   0
        49    684.7744    866.4669 300.1193458 +22.8125727     804.0392     72.41151      1.688     4.26     3.096185     20.43469     59.87607        14     1.135     0.950 -59.71   0
        50    483.3499    865.5251 300.0569414 +22.7518871     295.4767     72.42997      1.442     3.31     3.089281     20.43469     36.27681         5     1.038     0.305  68.33   0
        51    233.4608    865.1122 299.9793533 +22.6767830     528.3206     72.52216      1.773     6.36     2.968965     20.43469     42.17057        10     1.268     0.897 -12.64   0
        52    840.3925    853.7707 300.1719630 +22.8555887     4168.868     72.42997      1.746     3.64     2.872775     20.43469     287.2832        36     1.349     1.290  75.08   0
        53    248.8167    847.7238 299.9897823 +22.6764085     465.9772     72.42997      1.516     3.71     3.099458     20.43469     57.84117         8     1.012     0.796  57.04   0
        54    557.4290    846.2292 300.0862745 +22.7685754     566.0479     72.39306      1.307     3.09     3.167466     20.43469     74.52164        10     0.900     0.821  54.83   0
        55    203.8669    844.2441 299.9769413 +22.6619199     1047.318     72.41151      1.744     3.75      3.00674     20.43469     81.09321        19     1.166     1.098 -20.85   0
        56    353.4152    836.3633 300.0260019 +22.7045417     52610.38     72.42997      1.682     3.18     3.056364     20.43469     4793.937       103     1.493     1.452  -6.02   0
        57    619.1418    839.5143 300.1076724 +22.7851586     487.1093     72.54057      1.526     4.63     3.263536     20.43469     47.40462        11     1.060     0.814  39.95   0
        58    611.1941    835.3884 300.1065395 +22.7815916     1597.077     72.30071      1.571     3.33     3.312952     20.43469     143.0568        20     1.222     0.997  26.60   0
        59   1023.3660    834.7354 300.2352079 +22.9049646      510.625      58.1438      1.375     4.60     3.070024     20.43469       65.171        12     1.365     0.667 -79.83  24
        60    281.6995    834.5895 300.0042770 +22.6825126     395.3394     72.33767      1.503     3.45     3.371141     20.43469     39.38391         5     0.734     0.468  15.47   0
        61    640.2346    831.4642 300.1168588 +22.7891750     834.6757     72.42997      1.485     3.86     3.261755     20.43469     83.73653        17     1.154     1.009  17.20   0
        62      6.7118    831.3380 299.9198857 +22.5990344     804.3712     72.50372      2.224     5.50     3.003169     20.43469     56.04748        12     1.313     1.054 -89.39  16
        63     39.5216    830.6313 299.9303053 +22.6086831     922.0925     72.41151      2.199     6.52     3.003169     20.43469     70.32233        15     1.496     0.876  40.04   0
        64    651.3067    829.6074 300.1209108 +22.7919627     613.3583     72.33767      1.554     3.73     3.235952     20.43469     57.97002        11     0.945     0.806  58.98   0
        65    971.1951    827.3929 300.2213238 +22.8872229     346.5113     72.28223      1.421     4.16     3.104034     20.43469     25.24999         5     1.174     0.420 -13.16   0
        66    756.8665    826.1568 300.1549152 +22.8226242     455.1142     72.41151      1.683     4.05     3.050793     20.43469     45.24767         6     0.819     0.653  -7.83   0
        67    794.1682    816.0225 300.1698343 +22.8308991     850.8701     72.42997      1.718     4.48     3.028379     20.43469     68.11699        16     1.215     0.993  14.44   0
        68    403.1328    813.6105 300.0488662 +22.7129357     31248.85     72.42997      1.599     3.00     3.150449     20.43469     3160.478        79     1.481     1.349  30.83   0
        69    417.4965    814.1379 300.0531632 +22.7173962     2068.536     72.52216      1.696     3.34     3.158769     20.43469     186.2494        27     1.288     1.195   1.53   0
        70    926.2805    809.4243 300.2131617 +22.8686045     2776.665     72.41151      1.737     3.49     3.176625     20.43469     208.6471        34     1.422     1.224 -36.74   0
        71    414.2776    808.3277 300.0540512 +22.7147645     696.1056     72.54058      1.735     3.89     3.157809     20.43469     57.35125        13     0.979     0.950 -13.10   0
        72    684.2471    805.5930 300.1389800 +22.7949508     865.8267     72.44842      1.620     3.52     3.202276     20.43469     79.17937        14     1.174     0.795  -9.85   0
        73    520.6805    805.3496 300.0881302 +22.7458286     405.4244     72.44842      1.526     4.28     3.175689     20.43469     37.44419         9     1.049     0.680  40.57   0
        74    285.6960    805.4656 300.0149905 +22.6753638     683.1658     72.54058      1.682     3.65     3.413956     20.43469     79.25507        12     1.013     0.863  33.63   0
        75     90.7114    801.0546 299.9558237 +22.6155772     513.1708     72.46686      1.383     3.57     3.003169     20.43469     68.12213         9     1.015     0.667  87.20   0
        76    531.2708    800.1833 300.0931065 +22.7475233     640.8275     72.44842      1.488     4.36     3.208795     20.43469     74.44336        16     1.163     1.028  54.18   0
        77    932.1412    797.4862 300.2188715 +22.8669340     567.3838     72.54057      1.525     4.85     3.227864     20.43469     49.95503        10     1.097     0.714  -8.49   0
        78    433.7133    796.9166 300.0638087 +22.7173231     345.1326     72.54058      1.540     2.14     3.155448     20.43469     49.60596         5     0.819     0.452 -88.63   0
        79    389.5146    796.4410 300.0502129 +22.7039271     361.1124     72.39306      1.312     4.50     3.181588     20.43469     34.83332         8     1.252     0.460 -34.91   0
        80    476.7757    795.5024 300.0776681 +22.7298352     534.3446     72.33767      1.689     4.44     3.101458     20.43469     47.73042         8     0.974     0.650  -1.26   0
        81    685.3865    794.9749 300.1427878 +22.7922460     424.3075     72.42997      1.738     5.31     3.242509     20.43469     34.02031         9     1.208     0.659  35.34   0
        82    119.4539    794.6937 299.9668218 +22.6223825     547.6464     72.48529      1.679     2.99     3.103115     20.43469     56.43168         6     0.835     0.513  45.32   0
        83    909.4813    792.0870 300.2135619 +22.8585931     353.9324       72.559      1.840     4.28     3.243611     20.43469      38.0929         7     1.026     0.726 -46.29   0
        84    283.1778    789.9496 300.0192527 +22.6701602     610.7581     72.42997      1.888     6.27     3.411134     20.43469     37.02671        13     1.263     0.874   6.37   0
        85    606.6478    780.0167 300.1231305 +22.7643445     331.3606     72.46686      1.557     4.95     3.590792     20.43469     32.68964         9     1.048     0.661  36.99   0
        86    614.0371    779.1714 300.1257061 +22.7663178     181.7895     72.44842      1.173     3.82     3.582633     20.43469     31.55442         5     0.819     0.511 -51.04   0
        87    576.0591    778.2368 300.1141854 +22.7546608     723.2905     72.44842      1.573     4.06     3.487857     20.43469     63.28241        14     1.187     0.896  -4.74   0
        88    485.6137    777.7933 300.0861767 +22.7274074     321.3718     72.31919      1.222     3.42     3.144769     20.43469      41.3236         5     0.757     0.447  71.54   0
        89    992.6744    774.7510 300.2451424 +22.8785462     4422.731     72.42997      1.715     3.69       3.3331     20.43469     319.9108        37     1.323     1.297 -85.42   0
        90    598.0165    775.9047 300.1217800 +22.7605765     1189.223     72.35613      1.446     3.00     3.570435     20.43469     120.2974        20     1.095     1.029  -5.17   0
        91    517.7689    775.3751 300.0969706 +22.7363583     365.3533     72.42997      1.262     4.54     3.285239     20.43469     42.84319         7     1.024     0.573  21.86   0
        92    981.1409    766.2502 300.2443093 +22.8726496      1707.32     72.48529      1.843     4.08     3.381154     20.43469     104.1889        24     1.291     1.176 -19.49   0
        93    344.3190    760.1829 300.0479440 +22.6799715     718.2312     72.44842      1.363     2.85     3.360043     20.43469      98.7793        11     0.906     0.812  66.65   0
        94    807.4474    757.4678 300.1930133 +22.8180750     2413.571     72.41151      1.592     3.05     3.181339     20.43469     199.5989        29     1.339     1.106   9.99   0
        95   1012.2939    756.4288 300.2572196 +22.8791637     1610.865     72.35613      1.780     3.88     3.431576     20.43469     116.2328        24     1.262     1.185  89.74   0
        96     29.9602    747.8818 299.9542399 +22.5821041     811.3849     72.39306      1.878     6.13     3.301695     20.43469     54.78436        17     1.324     1.140 -79.76   0
        97    889.7172    743.4146 300.2232262 +22.8386980     590.4806     72.41151      1.699     4.01     3.375398     20.43469     65.69667        11     1.284     0.874  79.10   0
        98    192.7339    744.0489 300.0060594 +22.6298618     743.4229     72.41151      1.801     3.67     3.445961     20.43469     76.04594        14     1.165     0.908  22.45   0
        99    925.9186    734.4351 300.2374327 +22.8469683     145900.1      72.3746      1.639     3.17     3.546328     20.43469     12327.72       158     1.539     1.509 -70.32   0
       100    687.9780    738.3019 300.1620218 +22.7767616     377.5887     72.35613      1.624     3.30     3.544791     20.43469     44.70494         7     0.860     0.570  29.79   0
       101    778.2402    734.7242 300.1913059 +22.8027927     745.6129     72.39306      1.510     2.99     3.230876     20.43469     86.96654        14     1.081     0.841  -8.92   0
       102    958.7712    727.0865 300.2500663 +22.8547022     543.6685     72.42997      1.580     5.29     3.628685     20.43469      45.3901        11     1.137     0.769 -59.60   0
       103    612.1317    723.1697 300.1433200 +22.7496798     1656.661     72.41151      1.456     2.98     3.704098     20.43469     161.3987        21     1.085     1.041  72.31   0
       104    793.3883    720.5299 300.2006409 +22.8032591     9341.274     72.44842      1.544     2.87     3.229454     20.43469     897.5115        47     1.294     1.237  80.13   0
       105    294.7754    715.6910 300.0470002 +22.6523507     4865.873      72.3746      1.566     2.99     3.565107     20.43469     484.1781        35     1.226     1.218 -45.37   0
       106      8.6019    714.0240 299.9586121 +22.5659910     1723.191      72.3746      1.936     4.55     3.389448     20.43469     131.8481        30     1.522     1.273  82.56  16
       107    376.9820    713.6325 300.0732362 +22.6764220     1181.503     72.41151      1.566     3.12     3.411044     20.43469     124.5464        19     1.174     1.030  18.43   0
       108    252.5885    711.4213 300.0352712 +22.6384691     547.2644     72.41151      1.603     3.11     3.623679     20.43469     55.12484         9     0.979     0.611   9.10   0
       109    585.1550    709.2004 300.1394614 +22.7375831     635.5837     72.42997      1.314     2.99     3.705036     20.43469     74.69105        11     0.971     0.721  70.52   0
       110    947.7937    707.0031 300.2531719 +22.8456465     409.0339     72.24525      1.641     3.93     3.811992     20.43469     27.05914         5     0.850     0.521 -35.73   0
       111    576.8632    701.4670 300.1393936 +22.7328781     3187.086     72.48529      1.416     2.67     3.710102     20.43469      343.618        26     1.135     1.054 -61.08   0
       112    567.0885    695.1757 300.1383954 +22.7281423     1336.581      72.3746      1.345     2.88     3.713841     20.43469      154.326        16     1.049     0.836  39.66   0
       113    960.4522    693.1716 300.2616157 +22.8454675     508.6457     72.44842      1.789     5.83     3.958715     20.43469     47.80243        12     1.332     1.228  60.62   0
       114    495.6407    694.5649 300.1163540 +22.7065422     323.5507     72.48529      1.447     3.88     3.477212     20.43469     35.58467         5     0.983     0.439  15.16   0
       115    230.3800    691.2308 300.0349295 +22.6260170     726.2148     72.42997      1.516     3.05     3.756481     20.43469     68.36566        12     0.990     0.773  33.54   0
       116    244.8903    689.8401 300.0398923 +22.6299720     570.4928     72.42997      1.464     3.73     3.735526     20.43469     65.51732        12     1.097     0.771  34.57   0
       117   1013.8510    686.3073 300.2805018 +22.8594937       388.23     72.50372      1.614     4.93     4.110395     20.43469      43.2798         9     0.950     0.724  68.19   0
       118    776.1566    686.7216 300.2062610 +22.7883903     171.6078     72.41151      1.215     4.65     3.269628     20.43469     27.94416         6     0.954     0.643  63.01   0
       119    301.8792    686.6127 300.0586605 +22.6461442     319.9897     72.41151      1.366     4.04     3.620648     20.43469     39.39468         8     0.890     0.681  48.93   0
       120    270.5172    686.3354 300.0489989 +22.6366559     508.3749     72.54058      1.538     4.59     3.704787     20.43469     63.68153        11     1.142     0.774 -33.54   0
       121    491.8785    684.9739 300.1183004 +22.7026627      1707.33     72.42997      1.375     2.64     3.504062     20.43469     226.4973        18     1.028     0.916  22.98   0
       122    590.9955    685.2397 300.1490681 +22.7324596     489.0764     72.44842      1.390     3.96     3.731448     20.43469     50.57185         8     0.856     0.704  14.32   0
       123    145.8141    679.8264 300.0123523 +22.5973725     19687.16     72.44842      1.634     3.22     3.637556     20.43469     1833.985        66     1.449     1.374  22.97   0
       124     66.7237    681.5693 299.9872127 +22.5741363     688.5934     72.42997      1.789     4.26     3.458606     20.43469     58.40565        16     1.295     1.070  -5.25   0
       125    576.7109    680.3356 300.1462146 +22.7267696     969.8041     72.54058      1.496     2.93     3.734796     20.43469     107.1644        14     1.016     0.860 -46.65   0
       126    611.8486    679.5112 300.1574231 +22.7370680      259.758     72.41151      1.048     3.42     3.729749     20.43469     48.17173         5     0.792     0.428  22.79   0
       127    330.1583    671.8984 300.0722370 +22.6504080     155.1944     72.41151      1.413     5.69     3.535806     20.43469     36.24373         9     1.247     0.730  49.65   0
       128    995.0049    666.5252 300.2810533 +22.8481668     1118.825     72.35613      1.660     3.42     4.221108     20.43469     93.72849        17     1.191     0.896  -9.84   0
       129    660.0251    667.5386 300.1763174 +22.7480751     311.3844     72.42997      1.597     3.96     3.612054     20.43469     33.08348         5     0.902     0.498   2.32   0
       130     92.1273    664.3013 300.0007163 +22.5768112     1354.161       72.559      1.921     5.19     3.577262     20.43469     94.55726        28     1.613     1.127  89.15   0
       131    861.9349    664.4249 300.2402424 +22.8076953     506.4899     72.41151      1.410     3.72     3.378487     20.43469     60.19249         8     1.080     0.631  16.23   0
       132    157.8290    664.3802 300.0211057 +22.5965501     393.1668     72.42997      1.697     4.29      3.72495     20.43469       42.549         7     0.991     0.669  15.62   0
       133    540.4178    660.6115 300.1413265 +22.7102285     340.8888     72.39306      1.116     3.09     3.828563     20.43469      55.3974         8     0.917     0.633  80.60   0
       134    935.2596    658.9943 300.2648683 +22.8281057     709.4283     72.39306      1.789     3.88     4.085041     20.43469     68.16156        15     1.188     0.930 -29.36   0
       135    679.3688    657.5638 300.1855841 +22.7510109     373.2055     72.44842      1.489     4.08     3.585194     20.43469     36.89671         7     0.984     0.484   7.22   0
       136    497.1324    653.0228 300.1303196 +22.6950722     942.4459     72.41151      1.655     3.43     3.677334     20.43469     105.7596        15     1.169     0.907 -50.69   0
       137    644.7802    651.6539 300.1767320 +22.7389465     497.9397     72.41151      1.434     3.06     3.751731     20.43469     60.73455         9     0.879     0.722  73.05   0
       138    691.9828    650.0278 300.1919624 +22.7526290     459.9225     72.42997      1.402     3.44      3.56494     20.43469     55.97337        10     0.929     0.814 -30.22   0
       139    662.5028    649.6517 300.1829023 +22.7436845      492.336     72.50372      1.342     3.62     3.684544     20.43469     66.49971        11     1.018     0.792   2.43   0
       140    541.2842    649.0335 300.1453588 +22.7071664     1004.592     72.39306      1.519     3.05     3.936924     20.43469     98.04267        13     1.089     0.737  12.79   0
       141    974.9403    644.3203 300.2820120 +22.8357791     3174.398     72.48529      1.549     3.01     4.169701     20.43469     311.6774        31     1.252     1.226  72.29   0
       142    506.5875    644.4092 300.1360616 +22.6954361     1584.804     72.31919      1.289     2.46     3.781361     20.43469     212.2912        19     0.985     0.972  67.02   0
       143    871.6949    641.6105 300.2506996 +22.8040693     449.9182      72.3746      1.427     3.42     3.630269     20.43469      37.4549         5     0.740     0.456  17.17   0
       144     68.5871    638.0137 300.0019454 +22.5622118     4966.288     72.35613      1.704     3.46     3.834468     20.43469     462.8544        36     1.343     1.271  61.23   0
       145    856.7279    640.3800 300.2464338 +22.7992314     260.4651     72.46686      1.399     3.42     3.560302     20.43469     29.13533         5     0.753     0.450 -17.48   0
       146    482.2904    639.5736 300.1300711 +22.6867632     300.9558      72.3746      1.058     3.17     3.650476     20.43469     41.06324         5     0.800     0.668  48.41   0
       147   1014.4360    634.4843 300.2975276 +22.8447850     350.2093     72.41151      1.611     5.18     4.276938     20.43469     29.74254         6     1.126     0.674  42.57   0
       148    370.0710    631.1329 300.0978985 +22.6506883     9089.666     72.46686      1.434     2.68     3.313583     20.43469     959.6672        42     1.240     1.168  80.52   0
       149    626.8856    632.0599 300.1775267 +22.7279591     280.9322     72.54057      1.748     4.37     3.961097     20.43469      32.9742         5     1.084     0.501  51.65   0
       150    492.4794    628.1895 300.1369414 +22.6865524     8842.737     72.41151      1.401     2.47     3.768048     20.43469     1041.192        40     1.209     1.120  60.91   0
       151    257.3957    625.3369 300.0647417 +22.6152286      245.667     72.39306      1.450     4.14     3.804637     20.43469     33.63982         6     0.866     0.564 -46.50   0
       152    904.2128    622.0767 300.2671854 +22.8082028     1932.808     72.44842      1.502     2.93     3.914973     20.43469     203.6429        24     1.299     1.050 -73.17   0
       153    136.8148    624.6252 300.0274935 +22.5788477     455.4987     72.44842      2.055     3.45     3.874818     20.43469     29.64022         5     0.751     0.459  14.92   0
       154    988.8597    619.5411 300.2944060 +22.8328320     12177.76     72.50372      1.566     2.95     4.204197     20.43469     1200.313        52     1.317     1.302  -6.34   0
       155    553.1205    617.8306 300.1591830 +22.7017620        11535     72.42997      1.375     2.44     4.228302     20.43469     1455.315        49     1.231     1.165  55.96   0
       156    722.6797    613.4507 300.2134111 +22.7513306     530.7573     72.42997      1.393     3.91     3.578524     20.43469      61.7205        10     1.105     0.657  73.52   0
       157    280.4731    613.3066 300.0758258 +22.6187013     1349.391       72.559      1.504     3.14     3.737166     20.43469     145.4719        20     1.269     0.923   2.79   0
       158    438.5298    612.5831 300.1252238 +22.6658978     278.0795     72.44842      1.293     3.37     3.381207     20.43469     45.46509         7     0.855     0.664 -17.71   0
       159    527.1707    610.2160 300.1535792 +22.6917970     408.3918     72.42997      1.202     3.97     4.153796     20.43469     61.27415         7     0.935     0.483  47.08   0
       160    484.7956    605.9189 300.1417863 +22.6778588     4358.825     72.35613      1.382     2.43     3.799974     20.43469     582.2205        28     1.160     1.016  67.36   0
       161    827.6895    606.0054 300.2485527 +22.7806608     784.0382     72.33767      1.413     3.05     3.580308     20.43469     95.13608        14     1.035     0.843 -29.13   0
       162    463.1919    604.3575 300.1355705 +22.6709331     1336.627     72.44842      1.420     2.58     3.616485     20.43469     145.9266        16     1.005     0.923 -23.42   0
       163    217.1619    603.5132 300.0593245 +22.5969009      741.054     72.41151      1.727     5.11     3.898363     20.43469      78.6571        16     1.377     0.907  28.92   0
       164    904.5986    601.3917 300.2740272 +22.8023783     1642.472     72.24525      1.684     3.50     3.960547     20.43469     132.1782        24     1.221     1.137 -11.88   0
       165    151.2153    601.5395 300.0394691 +22.5765500     375.5072     72.39306      1.346     2.49      3.85669     20.43469     49.22401         5     0.701     0.484 -13.49   0
       166    784.9552    598.1796 300.2377772 +22.7656090     862.0014     72.48529      1.410     3.19     3.458542     20.43469     95.06732        13     0.984     0.894  63.84   0
       167    601.4061    593.5110 300.1821182 +22.7092581     198335.2     72.33767      1.379     2.39     4.320055     20.43469     24478.94       195     1.482     1.406 -23.04   0
       168    989.6408    595.3069 300.3025244 +22.8261052     288.8737     72.44842      1.574     4.63     4.155442     20.43469     31.05639         6     1.066     0.571 -37.30   0
       169    287.4689    593.4643 300.0844478 +22.6151092     3511.492      72.4853      1.504     2.76     3.665088     20.43469      396.904        31     1.186     1.148  64.67   0
       170    853.5654    589.7329 300.2619056 +22.7837412     581.1983     72.42997      1.711     2.59     3.858625     20.43469     69.32371         9     0.922     0.653 -51.62   0
       171    633.1013    580.0432 300.1963637 +22.7148933     293.1216     72.42997      1.185     1.92      4.23477     20.43469      60.1356         5     0.723     0.468 -30.51   0
       172    491.9898    573.9999 300.1543956 +22.6708575     2843.559     72.24525      1.502     2.54     3.918834     20.43469     334.1821        33     1.512     1.108 -83.06   0
       173    336.3812    576.2353 300.1052559 +22.6248378     388.8237     72.42997      1.345     2.75      3.54064     20.43469     48.11991         5     0.720     0.452  71.59   0
       174    722.7474    570.0015 300.2275492 +22.7388779      300.809     72.39306      1.413     5.60     3.775616     20.43469     32.69264         6     1.208     0.732 -77.40   0
       175    648.9353    571.3481 300.2041198 +22.7171434      262.718     72.46686      1.423     3.44     4.187603     20.43469      39.2352         6     0.827     0.620 -35.07   0
       176    903.8717    570.3589 300.2838834 +22.7932483     415.5094     72.41151      1.415     2.88     4.000569     20.43469      50.2442         6     0.799     0.597 -34.43   0
       177    623.3232    563.8192 300.1985894 +22.7073058     572.8373     72.42997      2.220     5.43     4.383113     20.43469     31.81393         8     1.000     0.831  71.76   0
       178    809.1089    562.3121 300.2569577 +22.7625478     405.8741     72.59582      1.379     4.21     3.725089     20.43469     48.86312         7     0.750     0.673  37.22   0
       179    889.0751    560.0375 300.2826233 +22.7858515      1606.88      72.3746      1.368     2.77     4.024311     20.43469     193.6933        20     1.031     1.023  69.70   0
       180     19.0670    558.9072 300.0122633 +22.5246760     794.6308     72.57741      1.619     4.07     4.300796     20.43469     85.85995        13     1.196     0.791 -48.13   0
       181    760.0967    557.5618 300.2432274 +22.7464984     2557.268     72.41151      1.404     2.54     3.735788     20.43469     333.9452        24     1.131     1.000  48.84   0
       182   1004.6658    555.0093 300.3203036 +22.8190297     461.1529     72.39306      1.384     4.50     4.012323     20.43469     62.59139         8     1.144     0.710 -39.91   2
       183   1003.0820    550.9445 300.3211301 +22.8173876     705.1871     72.46686      1.631     3.79     3.994178     20.43469     63.61539        10     1.109     0.591  60.99   3
       184    969.7977    554.3929 300.3096284 +22.8084096     261.8646     72.24525      1.285     3.33     4.002683     20.43469     36.61392         5     0.762     0.421 -22.98   0
       185    664.7802    554.1865 300.2146299 +22.7169659     466.1269     72.39306      1.281     2.78     4.194059     20.43469     59.13293        10     0.880     0.751 -22.24   0
       186    547.4330    553.4664 300.1783237 +22.6815865     671.4601     72.42997      1.202     2.56      4.53311     20.43469     98.37395        13     0.953     0.782  79.28   0
       187   1017.5212    551.8403 300.3253431 +22.8219692     1151.428     72.41151      1.473     2.96     3.998994     20.43469     124.4872        15     1.003     0.927  27.91  16
       188    889.2974    550.1354 300.2859095 +22.7830742     2080.543     72.54057      1.532     3.09     4.045745     20.43469     203.4087        23     1.388     0.969  73.60   0
       189    642.6411    548.2898 300.2096503 +22.7086382     475.2419     72.42997      1.108     3.32     4.355603     20.43469     87.49073         9     1.065     0.570  22.15   2
       190    642.3886    544.2712 300.2108770 +22.7074089     345.8267     72.44842      1.404     3.60     4.375904     20.43469     39.86457         6     0.894     0.476  87.57   3
       191    428.3465    548.3552 300.1429213 +22.6444175     301.6829     72.44842      1.396     3.13     3.712148     20.43469     54.32654         5     0.747     0.470   9.09   0
       192    480.8932    546.8297 300.1597683 +22.6597343      314.917      72.3746      1.235     3.90     3.844629     20.43469     54.48729         6     0.757     0.576  65.04   0
       193    927.3615    545.1131 300.2994092 +22.7930336     4161.555     72.41151      1.425     2.54     3.999711     20.43469     452.7013        32     1.162     1.142  59.52   0
       194    568.6046    544.7024 300.1877617 +22.6854176     251.4421     72.33767      1.220     3.37     4.564195     20.43469     34.82241         5     0.748     0.439  69.23   0
       195    665.2273    541.8491 300.2187769 +22.7135583     159.1005     72.44842      1.010     3.79     4.246969     20.43469     41.63597         6     1.058     0.391  81.12   0
       196    587.9872    541.4509 300.1948527 +22.6902942     366.9459     72.46686      1.166     2.95     4.535667     20.43469       64.303         6     0.779     0.626 -25.53   0
       197    159.4416    535.6195 300.0634391 +22.5601167     958.9741     72.44842      1.383     2.61     3.455352     20.43469     107.7025        17     1.050     0.914  39.38   0
       198   1019.3625    535.6570 300.3311748 +22.8178714     653.4385     72.42997      1.504     3.10     3.961272     20.43469     86.54985        15     1.040     0.913  29.82  16
       199    959.3195    532.8456 300.3133602 +22.7990818     244.7526     72.41151      1.412     3.57     3.984907     20.43469     36.85432         5     0.944     0.729   7.21   0
       200    152.1762    525.7626 300.0643826 +22.5551107     472.3756     72.44842      1.686     3.27     3.461743     20.43469     57.94299         8     1.006     0.640  46.65   0
       201   1015.2049    525.0410 300.3333263 +22.8135765     327.3968     72.44842      1.149     3.47     3.962848     20.43469     40.38308         6     0.747     0.575  48.20   0
       202    806.1693    519.7375 300.2698716 +22.7494414      116.823     72.44842      1.083     3.75     3.827077     20.43469     37.62664         5     0.753     0.695  28.29   0
       203    760.0363    519.6553 300.2555220 +22.7355962     496.3757     72.44842      1.699     2.88     3.805216     20.43469     60.07613         8     0.862     0.728  35.26   0
       204    700.8214    515.7051 300.2383562 +22.7167192     773.9657     72.33767      1.420     3.43     4.029451     20.43469     107.8338        13     1.153     0.777  11.36   0
       205   1015.2336    508.0320 300.3388602 +22.8086983     571.1982     72.44842      1.533     4.79     3.962848     20.43469     60.08738        12     1.257     0.796  74.20   0
       206    761.6216    507.7248 300.2598910 +22.7326454     962.2009     72.41151      1.372     2.65     3.805216     20.43469     133.2162        13     0.956     0.833  28.16   0
       207    918.7898    504.0708 300.3100681 +22.7786772     969.6396     72.41151      1.410     2.93     4.009796     20.43469     98.55409        16     1.100     0.854  54.04   0
       208    903.1187    500.2638 300.3064183 +22.7728899     745.1059     72.54058      1.473     3.05     4.030238     20.43469     75.09589        13     1.036     0.801 -64.49   0
       209    883.6221    500.7803 300.3001719 +22.7671986     281.9067     72.42997      1.380     2.35     4.054933     20.43469     41.86642         5     0.700     0.457  72.17   0
       210    647.4622    498.4041 300.2273551 +22.6957624     3284.467     72.42997      1.301     2.31     4.252008     20.43469     375.5683        27     1.110     1.022  64.11   0
       211   1007.8312    497.2947 300.3400385 +22.8033967      550.582     72.35613      1.464     3.13     3.965605     20.43469     53.98988         8     0.836     0.673  30.22   0
       212    123.6604    489.8584 300.0671815 +22.5362606     407.0385     72.50372      1.554     4.71     3.467518     20.43469     41.18629         8     1.050     0.600  68.97   0
       213    487.3104    485.5183 300.1816788 +22.6440635     435.4277     72.54058      1.580     5.05     3.635039     20.43469     42.66426         9     0.943     0.764 -20.29   0
       214    930.5783    477.2749 300.3224467 +22.7745104     519.9558     72.41151      1.296     3.17      4.00345     20.43469     68.66162        10     0.981     0.713  74.69   0
       215   1017.0947    476.2762 300.3497546 +22.8001315      859.609     72.57741      1.371     2.84     3.974098     20.43469      107.148        15     1.034     0.858  -9.91  16
       216    667.1213    474.3446 300.2412917 +22.6947460     218.7567     72.46686      1.096     2.03       4.1594     20.43469     54.24722         6     0.690     0.589 -71.17   0
       217    758.1718    472.4160 300.2702834 +22.7214725     927.5428     72.44842      1.313     2.62     3.794816     20.43469     120.7011        16     1.034     0.867 -33.68   0
       218    553.6415    472.6997 300.2064887 +22.6602662     415.0169     72.41151      1.246     3.58     3.887242     20.43469     67.73956         6     0.962     0.384  70.99   0
       219    261.9824    470.7840 300.1163697 +22.5722771     659.6324     72.41151      1.378     3.36     3.880119     20.43469     79.04634        13     0.999     0.914 -44.42   0
       220    324.3433    466.2758 300.1372256 +22.5896837     3686.527     72.46686      1.402     2.54     3.897816     20.43469     411.4456        28     1.152     1.055  41.18   0
       221    271.5685    461.0996 300.1224949 +22.5723737     7371.665     72.41151      1.456     2.57     3.890126     20.43469     904.6678        38     1.230     1.128  54.51   0
       222    412.3335    455.2533 300.1681756 +22.6129019     4832.876     72.46686      1.314     2.41      3.77711     20.43469     533.2501        28     1.126     0.987  50.87   0
       223    656.5444    451.9832 300.2452587 +22.6851564     18367.98     72.41151      1.335     2.27     4.014066     20.43469     2526.259        51     1.195     1.131  72.91   0
       224    674.3578    451.9789 300.2508085 +22.6904926     903.9272     72.46686      1.905     5.66     4.004431     20.43469     64.36833        16     1.652     0.692 -49.11   0
       225    503.7965    453.6024 300.1971740 +22.6398450     428.5465     72.20824      2.004     4.10     3.704133     20.43469      32.6653         7     1.013     0.474  -7.90   0
       226    900.1959    447.9954 300.3224815 +22.7569999     270.8314     72.26374      1.551     3.80     4.065279     20.43469     29.74939         5     0.821     0.505 -29.60   0
       227    853.4542    442.3811 300.3097324 +22.7413880     419.4506     72.41151      1.279     3.96     4.023846     20.43469     57.71248         8     0.954     0.745  58.10   0
       228    276.5495    439.0692 300.1311967 +22.5675472     277.7654     72.42997      1.220     2.05      3.91179     20.43469     52.74069         6     0.735     0.497  87.55   0
       229    990.2824    434.3082 300.3550195 +22.7800443     812.1623     72.57741      1.761     4.61     4.078049     20.43469     91.98951        17     1.373     0.920 -75.52   0
       230    527.0049    433.8871 300.2107995 +22.6411419     316.3238     72.35613      1.175     2.67      3.76648     20.43469     50.16238         8     0.822     0.634 -31.16   0
       231    211.2338    432.1363 300.1131410 +22.5459718     2069.293     72.42997      1.462     2.73     3.747731     20.43469     217.3236        22     1.113     1.010  18.05   0
       232   1010.8276    421.7585 300.3655030 +22.7825896      1161.16     72.44842      1.479     3.45     4.104301     20.43469     127.9405        18     1.177     0.966  44.14   0
       233    597.1802    421.4021 300.2367009 +22.6585879     6545.353     72.35613      1.329     2.39     3.808612     20.43469     819.8616        34     1.139     1.050  50.03   0
       234    312.0966    420.8568 300.1481636 +22.5729804     546.1135     72.52216      1.245     2.78     3.957142     20.43469     73.78111        10     0.863     0.742 -85.41   0
       235    169.5842    413.6869 300.1061846 +22.5281890     545.7473      72.3746      1.572     4.18     3.519868     20.43469     52.63075        11     1.112     0.827  46.65   0
       236     16.9712    411.5795 300.0594525 +22.4818086     1214.568     72.42997      1.629     3.46     3.460292     20.43469     136.6905        25     1.344     1.153  75.62   0
       237    801.5364    410.4461 300.3039189 +22.7166646     1097.079     72.46686      1.327     2.60     3.764085     20.43469     153.3642        17     1.204     0.839  72.97   0
       238    711.0027    411.8672 300.2752475 +22.6899532      489.192     72.41151      1.225     2.59     3.698596     20.43469     66.32731         9     0.783     0.708  -6.32   0
       239    503.7770    407.6729 300.2120801 +22.6266556      5965.46     72.46686      1.322     2.35     3.743317     20.43469     870.7768        34     1.137     1.049  59.58   0
       240    895.8572    402.0254 300.3360547 +22.7424939     1288.985     72.42997      1.329     2.51     4.057516     20.43469     190.1463        16     0.956     0.926  14.07   0
       241    992.9219    402.2537 300.3662504 +22.7716236     590.4868     72.46686      1.467     2.80     4.116156     20.43469     83.81796         8     0.869     0.685  20.96   0
       242    488.5266    396.1071 300.2110882 +22.6187650     416.3367       72.559      1.222     3.14     3.740487     20.43469     67.51912         9     0.882     0.752  81.01   0
       243   1007.3662    395.0461 300.3730960 +22.7738769     7793.315     72.46686      0.622     0.91     4.119349     20.43469     4268.998         9     0.502     0.375  -1.16   0
       244    571.2988    394.3115 300.2374374 +22.6430546     439.6649     72.59582      1.311     3.64     3.771604     20.43469     51.65054         7     1.015     0.476  30.06   0
       245     15.5041    392.8685 300.0650705 +22.4760031     933.0292       72.559      1.502     3.04     3.610717     20.43469     127.2634        17     1.127     0.965 -83.65   0
       246    849.2284    392.8045 300.3245115 +22.7258808     312.0005     72.39306      1.239     2.83     3.890586     20.43469     37.30528         6     0.730     0.567 -47.74   0
       247    551.8493    392.4305 300.2319927 +22.6366863     393.8347     72.46686      1.272     3.42     3.781106     20.43469     41.62056         5     0.746     0.452 -19.83   0
       248    868.6896    389.6564 300.3316003 +22.7308045     528.4896     72.46686      1.236     2.39     3.970747     20.43469     72.03806         8     0.844     0.592  18.04   0
       249    391.4282    386.9310 300.1838530 +22.5870279     2397.341     72.39306      1.340     2.46     3.914639     20.43469     307.6725        20     1.055     0.949  84.07   0
       250    109.7320    384.2753 300.0971323 +22.5018024      1041.84     72.50372      1.592     3.03     3.698568     20.43469     117.7355        17     1.221     0.882  52.84   0
       251    739.2456    381.5121 300.2939013 +22.6896957     303.9606     72.41151      1.668     3.43     3.508915     20.43469     29.80975         5     0.756     0.451 -20.85   0
       252    360.7092    376.3395 300.1777348 +22.5747798     29393.99     72.52216      1.389     2.43      3.96152     20.43469     3620.088        72     1.365     1.201  51.97   0
       253    895.4534    373.7482 300.3451086 +22.7342486     1295.282     72.46686      1.299     2.42     3.985934     20.43469      192.396        18     1.050     0.954  67.90   0
       254    850.5163    371.7404 300.3317509 +22.7202150     283.2015     72.54058      1.317     3.88     3.800629     20.43469     50.50815         7     0.982     0.684  40.03   0
       255     57.0452    364.1413 300.0872982 +22.4802254     5108.448     72.46686      1.604     2.97     3.843207     20.43469     462.1337        43     1.383     1.280  44.72   0
       256    810.7936    362.7481 300.3222883 +22.7057356     614.0984     72.42997      1.464     2.71     3.491212     20.43469     71.76217         9     0.827     0.736  74.29   0
       257    234.7401    362.4825 300.1430590 +22.5330379     566.1957     72.54058      1.709     3.46     3.835583     20.43469     62.48815        11     0.971     0.855  14.85   0
       258    459.0631    361.6608 300.2131001 +22.6000467       536.28     72.46686      1.251     2.46     3.816963     20.43469     80.06448         9     0.821     0.739 -88.90   0
       259    771.0939    355.9882 300.3121103 +22.6919037     1948.035      72.3746      1.397     2.51     3.372168     20.43469     254.6599        21     1.037     0.974  51.67   0
       260    899.9104    351.6827 300.3536608 +22.7292431     121.5982     72.54057      0.892     3.06     3.947704     20.43469     39.68847         5     0.768     0.414  19.22   0
       261    579.5372    350.6425 300.2541774 +22.6329848     482.8363     72.42997      1.441     2.80     3.738483     20.43469     54.40723         7     0.904     0.493  84.28   0
       262    986.0078    349.0244 300.3813734 +22.7542566      518.667     72.42997      1.267     2.68     4.058064     20.43469     89.76193        10     0.963     0.647  83.45   0
       263    432.9448    340.7033 300.2117747 +22.5862031     2081.573     72.52216      1.553     3.03     3.896171     20.43469     254.7646        22     1.293     0.878  56.70   0
       264    645.2990    339.5103 300.2782691 +22.6494901     301.5046     72.59582      1.127     3.04     3.555035     20.43469     51.94165         5     0.726     0.444  23.60   0
       265    872.0884    333.2557 300.3509675 +22.7156176     543.3854     72.46686      1.278     3.31     3.813267     20.43469     81.79726        10     1.019     0.665 -80.04   0
       266    864.5540    334.3072 300.3482774 +22.7136636     208.8611     72.44842      1.068     3.47     3.809524     20.43469       36.403         5     0.738     0.472 -74.02   0
       267      4.4459    332.0641 300.0813703 +22.4552490     914.0911     70.40931      2.392     7.27      3.93187     20.43469     62.75216        17     2.077     0.712 -36.70  24
       268    771.4862    331.0340 300.3203320 +22.6848527     335.2359     72.39306      1.278     3.74      3.39786     20.43469     34.88523         6     0.806     0.497 -85.44   0
       269    754.2219    330.9882 300.3149671 +22.6796690     495.0361     72.41151      1.352     3.87      3.39786     20.43469     60.97433         8     0.967     0.613  63.87   0
       270    722.5521    330.0822 300.3053936 +22.6699232     376.8737     72.44842      1.343     2.88      3.40582     20.43469     48.17865         6     0.775     0.497  87.88   0
       271    508.8144    320.1164 300.2420676 +22.6030290     1085.942     72.39306      1.295     2.37     3.866641     20.43469     164.3932        15     0.944     0.864 -81.40   0
       272     81.5370    320.6391 300.1090248 +22.4750935     291.6684     72.42997      1.553     4.06     3.918272     20.43469     31.07388         5     0.956     0.492  84.51   0
       273    316.2736    320.2605 300.1821145 +22.5453656     327.7585     72.46686      1.325     4.77     3.886666     20.43469     40.22377         8     0.966     0.668  -4.83   0
       274    892.0573    313.9890 300.3634463 +22.7160605     369.3576     72.39306      1.587     4.82     3.731808     20.43469     46.78905         8     0.995     0.662 -84.68   0
       275    753.5848    311.9868 300.3209353 +22.6740197     2192.684      72.3746      1.275     2.38     3.436306     20.43469     299.8804        20     0.990     0.948 -78.30   0
       276   1014.8225    306.2141 300.4042561 +22.7505778     3178.973     72.41151      1.498     2.88     3.458154     20.43469     371.3902        33     1.323     1.191  56.43   0
       277    947.9801    299.7441 300.3855072 +22.7287093     212.1624     72.41151      1.348     5.83      3.44401     20.43469      30.5267         8     1.548     0.617  75.38   0
       278    462.1752    295.7332 300.2354644 +22.5820530     559.2592     72.41151      1.540     3.22     3.965036     20.43469     71.64407         9     1.038     0.689  49.91   0
       279    136.7819    289.8611 300.1361777 +22.4828305     1482.123      72.3746      1.679     4.08     3.894237     20.43469     132.7713        22     1.307     1.108 -35.67   0
       280    167.6143    290.0118 300.1457110 +22.4921184     563.5615     72.35613      1.413     3.11     3.872446     20.43469     91.24554        11     1.094     0.669  -2.48   0
       281    874.0499    283.9686 300.3675741 +22.7020423     268.3428     72.46686      1.422     1.86     3.731753     20.43469     52.48259         5     0.587     0.563  86.69   0
       282    221.0821    282.0128 300.1649264 +22.5058534     558.4723     72.41151      1.500     4.26     3.764078     20.43469     50.92913        11     1.088     0.712  63.85   0
       283   1015.7992    279.1827 300.4133328 +22.7431000     215.0623     72.33767      1.333     4.02     3.213444     20.43469     37.43369         6     1.153     0.400  61.51   0
       284    896.7909    275.3894 300.3774481 +22.7063852     382.0732     72.31919      1.497     4.23     3.555055     20.43469     36.78053         8     1.000     0.642 -59.30   0
       285    825.1556    273.2849 300.3557991 +22.6843327     582.0497     72.41151      1.366     3.40     3.617478     20.43469      71.6121        14     1.102     0.856  60.24   0
       286    415.6901    272.9869 300.2283801 +22.5615928      307.002      72.3746      1.228     2.83     3.980112     20.43469     54.24369         7     0.740     0.647 -72.53   0
       287    923.2683    262.4303 300.3899090 +22.7105873     2078.395     72.41151      1.489     2.48     3.375355     20.43469     252.9369        25     1.194     1.100 -52.23   0
       288    341.8874    259.7090 300.2097285 +22.5356633     2158.747     72.59582      1.364     2.39     3.823432     20.43469     296.9725        21     1.025     0.973  43.74   0
       289    419.8485    254.8480 300.2355590 +22.5576314     987.7714     72.46686      1.429     2.62     3.982709     20.43469     133.7702        17     1.008     0.978  24.61   0
       290    171.8885    254.8291 300.1584543 +22.4833049     374.9045     72.41151      1.733     3.92     3.925163     20.43469     42.78258         6     1.002     0.608  78.04   0
       291    821.6716    254.3684 300.3608509 +22.6778539     514.9344     72.42997      1.274     2.53      3.62555     20.43469     71.53567         8     0.824     0.634 -20.64   0
       292    928.9178    250.9826 300.3953850 +22.7089882     292.9965     72.39306      1.202     3.69     3.337881     20.43469     54.10521         5     0.652     0.601  -1.26   0
       293     18.1422    248.2374 300.1128223 +22.4353136     404.1764     72.42997      1.864     5.06     3.930221     20.43469     41.66319         7     1.023     0.707  57.80   0
       294    236.6076    247.0649 300.1810914 +22.5004784     802.2391     72.41151      1.546     3.23     3.854959     20.43469      91.9546        14     1.059     0.870  27.77   0
       295    839.3655    243.5091 300.3698894 +22.6800310     588.5319     72.41151      1.235     3.56     3.657027     20.43469     79.05946        13     1.143     0.834  42.63   0
       296    774.5019    243.8909 300.3495492 +22.6607195     1715.464     72.61422      1.379     2.14     3.609346     20.43469     239.7248        20     1.062     0.971 -39.95   0
       297    205.6934    242.4542 300.1729766 +22.4898882     415.6859     72.48529      1.661     4.21      3.89432     20.43469     32.71373         7     0.963     0.710  -2.90   0
       298    258.1336    239.9760 300.1900839 +22.5048964     472.8127     72.41151      1.503     3.84     3.878298     20.43469     56.55869         8     0.954     0.727 -84.32   0
       299    778.6644    235.0563 300.3537126 +22.6594274     814.7117     72.48529      1.498     3.12     3.634646     20.43469     87.09714        14     1.063     0.839  60.82   0
       300    548.0359    236.4812 300.2814142 +22.5907639     272.0114      72.3746      1.089     2.36     3.901091     20.43469     46.80262         6     0.749     0.500   1.11   0
       301    699.2146    234.5233 300.3291304 +22.6354829     1150.413     72.44842      1.222     2.34     3.676898     20.43469     173.6371        15     0.953     0.836 -45.65   0
       302    625.4064    226.3513 300.3087918 +22.6110301     868.9865     72.42997      1.123     2.13     3.818622     20.43469     131.1346        12     0.915     0.740 -74.10   0
       303    906.6896    224.8090 300.3969454 +22.6948114     944.0793     72.35613      1.614     4.98     3.441404     20.43469     93.49692        17     1.423     0.896 -79.93   0
       304    894.6146    225.9201 300.3928199 +22.6915161     1383.298     72.41151      1.415     2.72     3.499285     20.43469     161.6591        16     1.015     0.921 -20.38   0
       305    952.6442    224.2632 300.4114529 +22.7084100     294.9778     72.42997      1.166     3.68     3.313717     20.43469     56.21997         6     0.767     0.615  52.20   0
       306   1023.1256    215.2878 300.4363491 +22.7269241     948.6238     59.52918      1.280     3.36     3.303978     20.43469     114.1549        12     1.047     0.725  83.38  24
       307     47.1402    212.3052 300.1334854 +22.4337013     556.4925     72.50372      1.705     4.73     4.055512     20.43469     41.89967        11     1.065     0.865 -30.43   0
       308    257.3203    208.7145 300.1999717 +22.4956800     631.3339     72.59582      1.169     2.33     4.037017     20.43469      92.7618         9     0.783     0.725 -82.23   0
       309    119.3042    203.2477 300.1588442 +22.4527391     2089.086     72.46686      1.489     2.85     4.137112     20.43469     203.5413        25     1.168     1.085  57.40   0
       310    942.3068    200.2391 300.4160225 +22.6984100     728.9188     72.42997      1.335     3.16     3.573804     20.43469     86.56712        15     1.111     0.826  70.37   0
       311     68.9024    199.8396 300.1442892 +22.4366500     601.9464     72.41151      1.611     3.19     4.162195     20.43469     56.48275        10     0.927     0.736  62.82   0
       312    276.6060    196.5979 300.2098985 +22.4979823     5385.769     72.24525      1.430     2.44     4.132519     20.43469     728.1595        34     1.215     1.086  57.97   0
       313     60.8683    191.2115 300.1445916 +22.4317656     1260.444     72.44842      1.555     2.90     4.251902     20.43469      150.588        18     1.094     0.943  68.60   0
       314    259.8872    187.2313 300.2077378 +22.4902829       591.79     72.41151      1.421     3.47     4.212104     20.43469     72.85045        11     1.090     0.724  -4.37   0
       315    920.8083    178.1062 300.4164975 +22.6856130     3530.865     72.33767      1.414     2.57     3.830263     20.43469     436.7679        31     1.194     1.153  79.21   0
       316   1023.5369    176.8330 300.4489514 +22.7159908     1565.455     57.12365      1.170     2.90     3.684552     20.43469     312.3146        15     1.229     0.611  88.29  24
       317    469.9638    173.1258 300.2776631 +22.5491808     716.2394      72.3746      1.478     4.55     4.012281     20.43469     82.70856        15     1.286     0.899  44.37   0
       318    584.3270    171.3361 300.3138446 +22.5829232     215.4091     72.46686      0.962     2.61     4.021054     20.43469     51.68777         5     0.735     0.429  19.32   0
       319    394.2490    164.8456 300.2567882 +22.5241192     768.5227     72.44842      1.741     5.50     3.841226     20.43469     63.04029        13     1.223     0.821  58.55   0
       320    398.4326    163.7593 300.2584421 +22.5250608     512.1178     72.48529      1.437     2.20     3.846343     20.43469     50.27633         5     0.672     0.477 -73.54   0
       321    160.4516    162.0855 300.1849814 +22.4532618     608.3754     72.44842      1.412     3.26     4.483966     20.43469     60.17919         8     0.777     0.716  10.88   0
       322    521.5672    160.5411 300.2978064 +22.5610245     1624.933     72.44842      1.317     2.44     4.049652     20.43469     211.3299        19     1.003     0.981  83.47   0
       323    449.8015    161.1944 300.2752579 +22.5397142     349.9937     72.24525      1.083     2.85     3.963567     20.43469     64.36245         7     0.850     0.511 -49.01   0
       324     58.4437    161.1978 300.1535720 +22.4224270     357.7039     72.42997      1.705     5.16     4.541464     20.43469     30.71676         6     1.138     0.660 -40.97   0
       325    583.3619    159.5626 300.3173625 +22.5792521     416.3115     72.50372      1.316     2.99     4.056662     20.43469      68.4551         8     0.887     0.683  64.24   0
       326    265.5180    156.0866 300.2195892 +22.4830302     382.6672       72.559      1.321     3.39     4.425012     20.43469     46.39719         7     0.835     0.618 -19.90   0
       327    809.7024    149.8062 300.3910381 +22.6442211     342.0585     72.33767      0.965     2.47     4.031368     20.43469     48.71601         5     0.734     0.430  74.81   0
       328    394.1830    145.6415 300.2629955 +22.5185851     137.2027     72.44842      1.138     3.61     3.976623     20.43469     29.37326         5     0.990     0.380  85.49   0
       329    955.5572    144.6062 300.4381991 +22.6863819     321.4331     72.44842      1.179     4.72     4.047009     20.43469     40.63868         6     0.986     0.642 -19.28   0
       330    706.2260    142.5169 300.3611575 +22.6111471     316.6038     72.41151      1.722     3.99       4.1052     20.43469     37.86395         5     0.886     0.555  51.35   0
       331    295.5722    140.4663 300.2340004 +22.4875523     5905.224     72.41151      1.462     2.51     4.392251     20.43469      763.937        37     1.268     1.126  66.68   0
       332    801.7460    140.8681 300.3914569 +22.6392704      385.955     72.46686      1.004     2.39     4.042143     20.43469     65.33763         5     0.885     0.336  -2.87   0
       333    146.8639    140.0553 300.1879023 +22.4428662     764.5542     72.48529      1.564     2.71      4.49616     20.43469     81.19149        10     0.852     0.753 -17.80   0
       334    267.5117    134.3185 300.2272680 +22.4773786     264.3995     72.54058      1.122     2.44     4.451155     20.43469     53.24363         5     0.689     0.479  73.19   0
       335     56.9485    130.8663 300.1629429 +22.4132754     396.4401     72.44842      1.358     4.71     4.545112     20.43469     69.39046         7     1.034     0.749  83.38   0
       336    771.8127    131.6536 300.3851163 +22.6276613     298.8769     72.44842      1.393     2.39     4.112672     20.43469      41.3571         5     0.721     0.440  18.43   0
       337    541.6532    125.7863 300.3153298 +22.5570576     6220.829     72.46686      1.379     2.35     4.278928     20.43469     845.4011        37     1.203     1.136  61.86   0
       338    427.0292    125.6372 300.2797022 +22.5226807     650.0793     72.44842      1.286     2.65     4.149704     20.43469     82.76309        10     0.889     0.697 -59.11   0
       339    735.5229    117.0850 300.3785323 +22.6126101     208.8675     72.54057      1.068     2.16      4.24417     20.43469     47.94093         6     0.729     0.495  83.01   0
       340    794.1619    115.7150 300.3972498 +22.6297706     735.6452     72.41151      1.335     2.63     4.087055     20.43469     81.80031         9     0.876     0.641 -13.22   0
       341    886.6522    114.0142 300.4266328 +22.6569654     529.4207     72.46686      1.521     3.98     4.057004     20.43469     52.64848        11     0.997     0.811  46.46   0
       342    234.6527    109.6169 300.2250606 +22.4604404     502.7399     72.41151      1.286     2.77     4.485858     20.43469     60.00433         8     0.876     0.632  -1.92   0
       343    593.0452    108.2945 300.3370027 +22.5674235     436.1057     72.44842      1.157     2.32     4.421154     20.43469     77.13747         7     0.795     0.650  -4.15   0
       344    669.9836    105.8254 300.3617653 +22.5897523      6157.79     72.44842      1.394     2.52     4.414127     20.43469     835.7154        33     1.216     1.060  47.55   0
       345    444.8217    104.7252 300.2920194 +22.5220047     1521.577     72.41151      1.441     2.46     4.164519     20.43469     205.1086        19     1.176     0.902  49.13   0
       346    711.1256    103.2154 300.3754282 +22.6013201     830.5178     72.42997      1.308     3.22     4.355133     20.43469     101.5583        14     1.132     0.780  79.36   0
       347    780.6726    100.3415 300.3980307 +22.6213140     373.7692     72.46686      1.549     3.97      4.15333     20.43469     47.19987         5     0.984     0.637 -29.61   0
       348    726.7733     99.2008 300.3816051 +22.6048509     615.6926     72.39306      1.539     3.04     4.337445     20.43469     71.37167        11     0.965     0.797 -76.75   0
       349    194.0150     97.3542 300.2164029 +22.4447418     782.0215     72.44842      1.609     2.87      4.50523     20.43469     81.58789        11     0.960     0.735 -10.50   0
       350    996.7958     96.7112 300.4665928 +22.6849504     476.6186     72.33767      1.391     5.74     4.504666     20.43469     58.91137         9     1.125     0.824  26.52   0
       351    765.7476     95.0357 300.3950998 +22.6153213     483.5958     72.44842      1.380     2.44     4.215451     20.43469     69.99541         8     0.806     0.626  46.03   0
       352    728.9216     88.9874 300.3855859 +22.6025588     873.5839     72.42997      2.064     6.08      4.34117     20.43469     84.77667        11     1.567     0.662  43.24   2
       353    714.1487     90.6281 300.3804513 +22.5986078     2506.666     72.44842      1.364     2.45     4.383247     20.43469     398.0889        24     1.148     0.968  68.70   0
       354    355.4254     91.5897 300.2684642 +22.4914519     368.8522     72.42997      1.228     3.04     4.422733     20.43469     52.69649         7     0.829     0.649 -64.40   0
       355      7.5314     84.9545 300.1624775 +22.3852862      854.614     72.41151      1.645     4.23     4.562216     20.43469      79.1117        16     1.154     1.043 -65.00  16
       356    800.6714     82.2693 300.4101230 +22.6221056       1453.6     72.50372      1.285     2.38     4.120228     20.43469      195.785        17     0.988     0.882  80.79   0
       357    960.6271     80.8239 300.4604626 +22.6695598     209.4861     72.41151      1.156     3.48      4.35985     20.43469     45.04081         5     0.947     0.373  -4.99   0
       358    738.5895     75.4874 300.3929751 +22.6015730     626.1302      72.3746      1.206     2.58      4.31302     20.43469     99.00372         9     0.961     0.584  59.08   0
       359    544.2553     74.7419 300.3326899 +22.5431731     960.4496     72.48529      1.299     2.71     4.491559     20.43469     136.9382        16     1.186     0.781  77.77   0
       360    116.9911     74.6674 300.1998186 +22.4151452     603.6347     72.42997      1.710     6.38     4.468449     20.43469      55.6705        15     1.373     1.099 -81.19   0
       361    448.1417     72.8664 300.3033814 +22.5138486     723.9091     72.46686      1.376     3.14     4.332286     20.43469     110.1828        11     0.928     0.916  65.90   0
       362    830.5493     71.6724 300.4228713 +22.6280020     432.2773     72.42997      1.358     2.76     4.055285     20.43469     56.36314         7     0.798     0.667  71.60   0
       363    787.3649     63.3172 300.4121201 +22.6126749     622.3202     72.39306      1.481     3.25     4.197244     20.43469     74.33088        12     1.096     0.787  63.55   0
       364    219.4563     62.8496 300.2354976 +22.4424603     3857.943     72.46686      1.610     2.93     4.436679     20.43469     423.8886        39     1.396     1.233  54.98   0
       365     12.4154     63.0247 300.1711033 +22.3804575     341.8186     72.44842      1.666     4.47     4.491038     20.43469     44.24702         7     1.726     0.329 -40.85   0
       366    308.8900     62.7651 300.2633344 +22.4692329     11490.52     72.39306      0.620     1.13     4.430136     20.43469     6376.814        11     0.548     0.391  89.14   0
       367    642.2061     60.3236 300.3678653 +22.5683601     297.4733     72.33767      1.500     3.01     4.447985     20.43469     47.77236         6     0.871     0.643  71.98   0
       368    780.7781     55.4057 300.4126321 +22.6084292     894.7552     72.41151      1.378     2.44     4.224269     20.43469     118.2303        14     0.967     0.826 -70.90   0
       369    335.3603     55.1784 300.2740266 +22.4749845     1122.142     72.46686      1.340     2.90     4.430638     20.43469     138.5806        16     1.086     0.851  45.63   0
       370    746.3391     54.1811 300.4022971 +22.5977688     290.9174     72.39306      1.284     3.21     4.299726     20.43469     42.23878         5     0.929     0.378  -4.92   0
       371    818.5655     50.3738 300.4260406 +22.6182925     734.6353     72.44842      1.789     4.15     4.117512     20.43469     67.21776        16     1.372     0.783  60.71   0
       372    742.1054     50.0232 300.4023258 +22.5953064     598.5941     72.31919      1.380     3.41     4.308878     20.43469     61.27462         9     0.926     0.679 -79.52   0
       373    838.6105     46.6766 300.4334874 +22.6232287      2248.37     72.42997      1.459     2.47     4.034311     20.43469     297.6372        24     1.222     1.007  64.09   0
       374    544.0687     45.1833 300.3422139 +22.5346249     472.0881     72.44842      1.442     2.84     4.495768     20.43469     55.57531         8     0.822     0.639  38.21   0
       375    221.9178     42.0683 300.2429991 +22.4372315     951.8589     72.54057      1.523     3.33     4.393404     20.43469     92.95252        19     1.167     1.006  -2.66   0
       376   1013.5905     40.1295 300.4901760 +22.6737029     789.9684     72.41151      1.561     3.44     4.573052     20.43469     80.26167        14     1.069     0.913 -56.12   0
       377    787.0021     39.0538 300.4198726 +22.6055915     892.6486      72.3746      1.394     3.41     4.239679     20.43469     105.0524        14     1.119     0.908  11.74   0
       378    494.2880     37.5778 300.3291828 +22.5175324     316.3354     72.35613      1.621     3.47     4.421355     20.43469     33.04536         5     0.744     0.467 -16.17   0
       379    371.7948     29.0102 300.2938425 +22.4783835     457.4127     72.28223      1.421     3.18     4.545129     20.43469     55.12675         9     0.959     0.633  32.81   0
       380    639.6079     24.0794 300.3788048 +22.5571666     791.8938      72.3746      1.280     2.93     4.392671     20.43469     109.1629        13     0.978     0.871  82.70   0
       381    872.3148     23.5490 300.4514915 +22.6266653     292.2014     72.41151      1.449     4.10     3.926776     20.43469     41.80479         7     0.985     0.617 -19.41   0
       382    249.0244     21.6071 300.2580587 +22.4394784     422.7068     72.41151      1.309     3.86      4.35243     20.43469     59.08348        10     1.084     0.665  69.56   0
       383    373.6447     21.7224 300.2967801 +22.4768445     362.1071     72.41151      1.952     4.78     4.568409     20.43469     45.16501         6     1.070     0.606  69.43   0
       384      2.8011   1019.1024 299.8575897 +22.6516356     1277.251     64.02813      5.848     9.59    -7.585821     20.43469     57.24134        26     2.002     1.390 -85.96  26
       385    700.2570   1013.0529 300.0764723 +22.8592600     6846.333     72.48529      1.964     4.15     2.008153     20.43469      374.631        50     1.572     1.467 -28.31   0
       386    291.6586   1007.0065 299.9512820 +22.7349130     827.2087     72.39306      3.845     5.88     9.193066     20.43469     61.31451        16     1.514     0.965  40.15   0
       387    608.6098   1003.7104 300.0509719 +22.8290881     1478.871      72.3746      1.794     4.12     2.706449     20.43469     107.8085        24     1.339     1.160  30.08   0
       388    245.2553   1021.2587 299.9322171 +22.7250650     1561.988     68.05459     15.399    23.95     19.18395     20.43469     49.74448        96     7.516     2.119   9.71  27
       389    198.5660    997.4006 299.9254690 +22.7042118     827.9341     72.39306      5.187     4.37     19.98526     20.43469     30.15428         5     1.281     0.425 -35.34   0
       390    465.9566    985.1038 300.0126246 +22.7809508     564.5426     72.44842      1.790     5.26     3.204627     20.43469     49.38282         9     1.128     0.693  -4.00   0
       391    502.5867   1000.4326 300.0190350 +22.7963369     901.8199     72.41151      1.747     4.41     3.213007     20.43469     68.06355        20     1.363     1.058  54.09   0
