#   1 NUMBER                 Running object number                                     
#   2 X_IMAGE                Object position along x                                    [pixel]
#   3 Y_IMAGE                Object position along y                                    [pixel]
#   4 ALPHA_J2000            Right ascension of barycenter (J2000)                      [deg]
#   5 DELTA_J2000            Declination of barycenter (J2000)                          [deg]
#   6 FLUX_APER              Flux vector within fixed circular aperture(s)              [count]
#   7 FLUXERR_APER           RMS error vector for aperture flux(es)                     [count]
#   8 FLUX_RADIUS            Fraction-of-light radii                                    [pixel]
#   9 FWHM_IMAGE             FWHM assuming a gaussian core                              [pixel]
#  10 BACKGROUND             Background at centroid position                            [count]
#  11 THRESHOLD              Detection threshold above background                       [count]
#  12 FLUX_MAX               Peak flux above background                                 [count]
#  13 ISOAREA_IMAGE          Isophotal area above Analysis threshold                    [pixel**2]
#  14 A_IMAGE                Profile RMS along major axis                               [pixel]
#  15 B_IMAGE                Profile RMS along minor axis                               [pixel]
#  16 THETA_IMAGE            Position angle (CCW/x)                                     [deg]
#  17 FLAGS                  Extraction flags                                          
         1    231.5761     20.8321 300.2354406 +22.4423970     3893.569     72.18183      1.504     2.70     5.041177     20.36988      491.988        32     1.316     1.065  53.89   0
         2    793.0206     13.3940 300.4126045 +22.6083680     889.6777     72.16344      1.268     2.43     5.033041     20.36988     148.7521        13     0.986     0.813  81.86   0
         3    347.8238     13.0188 300.2741205 +22.4749747      1285.26     72.20023      1.437     2.62     4.883154     20.36988     160.5532        19     1.130     0.947  -3.47   0
         4    758.7127     12.2506 300.4022843 +22.5977721     394.3936     72.20023      1.553     2.97      5.33774     20.36988     57.01002         7     0.897     0.560  61.63   0
         5    830.9510      8.5415 300.4259985 +22.6183224     720.7849     72.25538      1.722     4.77     4.987949     20.36988     61.23811        12     1.213     0.782  86.90   0
         6    754.5726      8.3432 300.4022606 +22.5954093     496.2469     72.20023      1.358     3.01     5.407128     20.36988     58.25951         7     0.798     0.655  18.35   0
         7    850.7499      4.6208 300.4334404 +22.6231187     2187.552     70.67614      1.472     2.50     5.012582     20.36988     338.9122        27     1.194     1.115  56.37  16
         8    556.6191      3.2565 300.3422562 +22.5346932     436.2329     65.85239      1.140     2.67     4.447183     20.36988     66.25108         9     0.834     0.717  -5.67  16
         9    234.3163      1.1111 300.2426830 +22.4375525     290.6898     54.94886      1.100     2.69     5.047902     20.36988     68.39065         5     1.025     0.276  -8.73  24
        10    794.3140   1004.4090 300.0911745 +22.8934880     589.5145     72.12663      2.017     5.99     3.336972     20.36988     35.54054        10     1.083     0.933  -5.86   0
        11    259.3324   1019.8414 299.9196560 +22.7373994     2109.235     71.77601      5.627    19.23     74.93628     20.36988     61.70131        80     3.623     2.834  27.17  27
        12    260.9987   1003.5158 299.9254863 +22.7332200     3977.661      72.0898      6.946    19.57     63.54039     20.36988     94.54687       220     4.618     4.038 -56.93  19
        13    279.2214   1003.1563 299.9312682 +22.7385871     4716.656     72.25538      9.909    35.48     60.35049     20.36988     90.72281       457     7.941     5.023 -48.53  19
        14    222.0462   1015.8188 299.9093755 +22.7250526     1220.048       72.237      2.602    11.46     76.39603     20.36988     46.33662        30     2.245     1.629 -30.56  19
        15    232.6533   1015.4791 299.9127828 +22.7281397     3131.809       72.237      6.070    20.68     75.12519     20.36988     64.61988       136     4.129     3.128  36.78  27
        16    193.8268   1022.3618 299.8984763 +22.7184555     1330.186     63.11376      2.482    10.44     75.00162     20.36988     55.47198        32     2.218     1.370  -0.77  24
        17    137.3058    933.8035 299.9097260 +22.6761042     3596.989     72.10822     16.214    47.04     13.80005     20.36988      74.8588       779    10.242     6.418 -38.46   3
        18    140.7960   1014.1948 299.8846559 +22.7001921     5408.398     72.03452     13.435    54.97     52.18175     20.36988     121.5688      1197    13.395     7.521  20.26  27
        19    137.2061    971.8848 299.8973067 +22.6869888     5181.658     72.12663     24.110    78.89     30.91548     20.36988     115.9821      3392    18.009    15.974 -11.47  19
        20    205.5482    972.9001 299.9182127 +22.7077979     1638.829     72.29212      4.354    10.89     45.01115     20.36988     58.51986        38     2.199     1.877  67.02   2
        21     15.4741    976.5759 299.8579701 +22.6517791      583.761       72.237      2.394     4.73     0.567699     20.36988     39.13514         7     0.910     0.697 -73.74   0
        22    712.2601    970.9449 300.0765014 +22.8592780     6838.188     72.27375      1.848     4.07     3.076358     20.36988     450.3232        46     1.503     1.359  41.50   0
        23    304.3372    965.0984 299.9514593 +22.7352152    -373.1273     72.29212      1.033     3.43     26.05797     20.36988     40.45268         5     0.770     0.443  74.72   0
        24    226.5798    988.7628 299.9195882 +22.7186586     1256.975     72.21861      4.159     8.87     57.74635     20.36988     47.70898        18     2.027     1.083  45.62   3
        25    620.8795    961.6782 300.0510593 +22.8292117     1455.963     72.32884      1.692     4.11       2.8987     20.36988     115.2293        23     1.235     1.189  10.98   0
        26    514.6406    958.2634 300.0191004 +22.7963625     1056.642     72.18184      1.812     4.47     2.734702     20.36988     89.80054        19     1.267     1.140 -58.74   0
        27    445.1568    956.1710 299.9981607 +22.7749149     6715.287       72.237      1.804     3.68     2.991116     20.36988     546.3503        46     1.436     1.397  36.68   0
        28    986.9395    986.8878 300.1569211 +22.9462086     860.9708     72.27375      2.241     7.49     3.431912     20.36988     44.19394        13     1.568     1.001  46.97   2
        29    478.2728    942.6213 300.0128724 +22.7809647     593.8703     72.21861      1.711     5.54     2.883368     20.36988     56.82133        11     1.129     0.903 -88.89   0
        30    991.5375    934.9071 300.1752684 +22.9326612     2210.731     72.31049      2.161     4.67     3.116183     20.36988     377.9457        33     1.454     1.348   8.18   2
        31    227.5715    993.2171 299.9184471 +22.7202331     953.3443     72.20023      2.847     7.76     60.41333     20.36988     66.73669        18     2.578     0.653  21.60   3
        32    228.9798    996.0000 299.9179793 +22.7214535     1518.649     72.10822      3.791    10.67     62.37825     20.36988     54.87625        26     2.045     1.565 -56.24   3
        33    641.3126    931.7466 300.0671594 +22.8267523      396.427       72.237      1.964     5.51     2.894822     20.36988     34.60427         6     1.327     0.645  22.99   0
        34    780.5062    923.8340 300.1130891 +22.8662220     773.1385     72.16344      2.079     6.11     3.207619     20.36988     51.68717        20     1.545     1.037  54.98   0
        35    815.1552    918.0383 300.1257710 +22.8749467     883.3661     72.25538      1.675     4.30      3.25424     20.36988     74.96127        18     1.207     1.028  25.50   0
        36    592.7994    918.9141 300.0562294 +22.8085197     436.0879     72.07138      1.740     4.42     2.929682     20.36988     41.30422         5     0.911     0.663  70.36   0
        37    177.2392    917.0536 299.9275824 +22.6832913     742.8152     72.20023      6.437     6.71     13.80507     20.36988     38.94762         7     1.682     0.751  -3.53   0
        38     24.9831    915.2770 299.8808630 +22.6370699     551.3528     72.20023      1.620     6.04     3.738132     20.36988     45.39743         9     1.251     0.820 -53.15   0
        39    837.3843    911.7412 300.1347468 +22.8798032     10980.24     72.16344      1.759     3.89     3.172921     20.36988     686.5656        50     1.406     1.392   4.32   0
        40    882.5049    911.6535 300.1488386 +22.8933039     431.1938     72.27375      1.713     5.96     3.084291     20.36988     40.88781         9     1.370     0.729 -27.62   0
        41    199.1427    907.3651 299.9375404 +22.6870888     664.9447     72.21861      4.352     4.38     12.18038     20.36988     31.95194         5     1.502     0.364 -12.51   0
        42    148.9538    902.8887 299.9234005 +22.6707398     858.3423     72.18183      3.078     5.24      9.84064     20.36988     62.82121        14     1.360     1.001  56.51   0
        43    542.5971    899.8768 300.0467948 +22.7879996     455.2229     72.10822      1.659     4.74     3.001954     20.36988     48.49487        10     1.187     1.034  16.46   0
        44    888.4266    899.2260 300.1547271 +22.8915109     334.2203     72.16344      1.874     4.42      3.05483     20.36988     32.24677         6     1.079     0.722  77.96   2
        45    298.7075    991.3150 299.9411793 +22.7410417     7457.956      72.3839      8.316    33.16     43.44787     20.36988     159.2662       685    10.774     4.618  66.69  18
        46    191.8124    974.2383 299.9135086 +22.7040578     1417.767     72.20023      7.245    13.10     44.32578     20.36988     44.98431        28     2.717     1.757 -79.82   2
        47    845.8552    893.6471 300.1432727 +22.8771480     1379.333       72.237      1.767     4.88     3.098322     20.36988       94.351        20     1.360     1.014  24.09   0
        48    698.3926    890.8430 300.0982409 +22.8321318     539.7654     72.21861      1.887     2.85     3.021716     20.36988      56.2488         8     0.951     0.559  16.39   0
        49    883.9073    887.2117 300.1572264 +22.8867067     869.0129     72.14503      2.083     5.13     3.031866     20.36988     53.60117        19     1.341     1.173  74.47   0
        50    992.7915    884.1537 300.1921701 +22.9184620     476.7747     72.21861      2.385     6.16     3.078883     20.36988     29.46278         8     1.331     0.800 -36.03   0
        51    932.5574    878.5106 300.1752232 +22.8987899     509.7843     72.20023      1.873     6.97     3.011078     20.36988     37.90138        14     1.222     1.115 -13.23   0
        52    784.1139    877.5359 300.1292732 +22.8540138     768.9265     72.29212      1.807     5.41     3.121814     20.36988     57.34948        15     1.148     0.970  25.10   0
        53    496.3804    873.8732 300.0408691 +22.7666759     3979.324     72.20023      1.624     3.44     3.211272     20.36988     384.5269        32     1.280     1.199  25.31   0
        54     43.9923    876.0175 299.8995346 +22.6315264     302.8235     72.14503      1.586     3.53     3.757744     20.36988     37.48632         5     0.970     0.377  59.35   0
        55    795.3873    874.6354 300.1337293 +22.8565609     624.2955     72.18184      1.694     3.73     3.125382     20.36988     51.28091        11     1.024     0.796 -23.71   0
        56    274.6501    863.2995 299.9753418 +22.6971166     475.0103     72.29212      2.096     5.96     4.289847     20.36988     37.34897        10     1.261     0.793  21.67   0
        57    539.6041    861.9554 300.0581969 +22.7762218     374.3487     72.21861      1.739     5.01     3.148434     20.36988     34.90436         7     1.171     0.684 -15.00   0
        58    221.6589    859.6533 299.9600553 +22.6801679      896.746     72.25538      1.779     4.18     5.336522     20.36988     69.64156        16     1.210     0.933 -52.58   0
        59    198.9580    856.5388 299.9540128 +22.6724616     1485.023     72.18183      1.592     3.37     4.829275     20.36988     148.4025        23     1.225     1.120  39.12   0
        60    730.0096    845.0793 300.1229732 +22.8284762     510.4475     72.16344      2.377     6.12     3.170213     20.36988     40.61253         8     1.362     0.772 -40.71   0
        61   1023.5499    844.0573 300.2148045 +22.9161625     1003.183     56.96577      1.300     4.21     3.421836     20.36988     139.2923        12     1.317     0.550  89.35  24
        62    808.4303    838.0752 300.1496839 +22.8499747     632.7937     72.20023      1.726     5.15     3.201702     20.36988     53.07607        13     1.235     0.840 -35.91   0
        63    230.9079    837.9294 299.9699942 +22.6767146     467.4214     72.32884      1.861     4.84     4.687187     20.36988     52.64505         8     1.193     0.583  26.36   0
        64    676.5070    831.9952 300.1105635 +22.8086792      4831.08      72.0898      1.573     3.08     3.117067     20.36988      453.507        35     1.253     1.235   9.99   0
        65    186.9295    971.6275 299.9128406 +22.7018435     1159.939     72.18183      2.397     3.59      42.6048     20.36988     39.51203         5     1.229     0.302  33.03   3
        66    478.7421    829.1818 300.0499140 +22.7485633     553.8579     72.16344      1.581     4.71     3.338933     20.36988     61.31048         9     1.146     0.610   2.06   0
        67    226.6436    825.6511 299.9726611 +22.6719141     1301.876       72.237      1.660     4.01     4.422568     20.36988     116.2281        21     1.264     1.079 -25.09   0
        68    697.1538    824.4402 300.1194507 +22.8127011      797.748     72.25538      1.633     3.59     3.171399     20.36988     64.94197        13     0.970     0.900 -62.55   0
        69    531.7962    824.7449 300.0678673 +22.7632030     565.4489     72.16344      0.579    -1.33     3.287934     20.36988     388.6035         5     0.666     0.285  47.20   0
        70    245.9236    822.5716 299.9796553 +22.6768168     434.6912     72.18183      1.652     5.50     4.138834     20.36988     53.10312         8     1.220     0.700  80.80   0
        71    852.4830    811.8228 300.1719496 +22.8556411     4210.384     72.16344      1.652     3.45     3.305097     20.36988     331.9705        36     1.291     1.261 -83.33   0
        72    260.9480    805.7122 299.9898073 +22.6764905     381.9483       72.237      1.442     5.15     3.706005     20.36988      45.1032         9     1.064     0.704  53.23   0
        73    569.4304    804.2544 300.0862441 +22.7686096     533.8577     72.21861      1.415     3.97      3.35275     20.36988     67.50345        11     1.078     0.776  -4.22   0
        74    215.8517    802.1290 299.9769546 +22.6619304     1080.874     72.20023      1.630     3.71     3.726445     20.36988     96.48598        16     1.191     0.897  70.93   0
        75    631.0762    797.8381 300.1075227 +22.7852533     398.3231     72.18183      1.287     3.27     3.296483     20.36988     59.31776         8     0.857     0.784  54.05   0
        76    365.4812    794.2476 300.0260383 +22.7045657     53975.47     72.20023      1.605     3.09     3.584799     20.36988      5414.26        98     1.448     1.381  20.42   0
        77    623.4086    793.4662 300.1065566 +22.7816994     1677.285     72.20023      1.554     3.13     3.348971     20.36988     149.1959        21     1.141     1.047  48.15   0
        78    293.6870    792.4520 300.0042967 +22.6825110     489.7974       72.237      1.576     3.94     3.537694     20.36988     49.56145        10     1.079     0.715  18.25   0
        79    652.3824    789.4261 300.1168922 +22.7892271     906.1131     72.21861      1.508     3.17     3.270483     20.36988     90.05025        16     1.095     0.905 -25.10   0
        80     51.3271    788.7597 299.9301838 +22.6087173     881.9143     72.18184      2.000     5.80     3.640383     20.36988     66.83414        20     1.396     1.288  76.38   0
        81     18.7214    788.9192 299.9200060 +22.5989751     791.5256     72.32884      1.820     4.89     3.700478     20.36988     51.16471        16     1.294     1.061 -89.53   0
        82    663.5355    787.6124 300.1209551 +22.7920504     635.5728     72.14503      1.446     3.64     3.236275     20.36988     77.04522        14     1.136     0.858  55.99   0
        83    982.6821    784.7411 300.2213470 +22.8868794     391.2003     72.27375      1.665     4.99     3.659805     20.36988     32.83105         7     1.011     0.698  -3.98   0
        84    768.6149    784.0482 300.1548454 +22.8225281     458.4766       72.237      1.446     3.22     3.381358     20.36988     48.09433         8     0.914     0.656 -16.45   0
        85    806.2598    774.2241 300.1697692 +22.8309908     708.6337     72.18183      1.541     4.61     3.372975     20.36988     71.37222        13     1.141     0.863  50.49   0
        86    415.2019    771.5032 300.0488981 +22.7129558     31753.12     72.10822      1.527     2.93     3.415801     20.36988     3343.759        66     1.357     1.290  36.88   0
        87    429.4791    771.9332 300.0531998 +22.7173616     1899.554     72.31049      1.500     2.98     3.408894     20.36988     213.2092        22     1.133     1.058  54.71   0
        88    304.7657    770.7240 300.0148049 +22.6796027     369.7895     72.20023      1.413     3.81     3.547723     20.36988      44.2023         5     0.944     0.440  -5.34   0
        89    938.3578    767.5361 300.2131193 +22.8686567     2668.241     72.20023      1.667     3.87     3.364691     20.36988     198.2822        30     1.288     1.194  31.12   0
        90    426.3353    765.9886 300.0541542 +22.7147130      679.816     72.14503      1.590     3.48     3.415489     20.36988     62.76174         8     0.947     0.731 -68.88   0
        91    696.2659    763.5987 300.1389559 +22.7949693     978.8411     72.18184      1.570     3.55     3.381325     20.36988      95.1966        18     1.180     0.957  52.19   0
        92    297.4807    763.4791 300.0148949 +22.6753390      753.115     72.32884      1.642     3.66     3.537594     20.36988     75.63503        17     1.149     1.028 -22.92   0
        93    532.4764    763.4410 300.0880104 +22.7458151     371.4292     72.16344      1.369     3.57     3.451719     20.36988     45.49916         9     0.998     0.715  65.33   0
        94    543.4589    758.2305 300.0931226 +22.7476131     842.6663     72.21861      1.455     3.14     3.472049     20.36988     86.44535        16     1.056     0.974  81.47   0
        95    102.2373    758.9946 299.9556732 +22.6154650     492.9188       72.237      1.648     5.99     3.466819     20.36988     51.71372        11     1.482     0.680  -9.98   0
        96    944.3835    755.4858 300.2189158 +22.8670009     503.8984     72.16344      1.607     4.20     3.564291     20.36988      52.4762        13     1.145     0.848  33.44   0
        97    445.0540    754.5964 300.0636811 +22.7170588     392.5323     72.16344      1.260     3.74     3.426436     20.36988      49.4766         9     0.973     0.679  50.73   0
        98    489.1938    753.2933 300.0778390 +22.7299229     561.1757      72.0898      1.982     5.43     3.434786     20.36988     42.93752         8     1.065     0.783  48.49   0
        99    131.0296    752.6906 299.9666673 +22.6222986      609.042     72.16344      1.900     5.15     3.430463     20.36988     48.28103        12     1.207     1.078  47.92   0
       100    922.1042    749.9201 300.2137786 +22.8587266     385.7181     72.31049      1.568     4.58     3.488546     20.36988     33.15231         7     0.883     0.676  28.94   0
       101    295.6230    747.3710 300.0195534 +22.6701612      590.182     72.20023      1.717     4.57     3.534388     20.36988      66.0477        13     1.243     0.971 -19.32   0
       102    618.2934    737.9918 300.1229982 +22.7642425     481.9268     72.10822      1.427     4.56     3.614292     20.36988     47.53664         8     0.844     0.700  57.54   0
       103    588.3901    736.2742 300.1142464 +22.7547839     677.9542     72.20023      1.470     3.01     3.599373     20.36988     99.99294        14     1.160     0.801 -79.88   0
       104    497.2493    735.6584 300.0860781 +22.7272780     327.3597     72.25538      1.256     4.12     3.468122     20.36988     35.71755         6     0.738     0.658  52.85   0
       105    610.2751    733.9204 300.1218251 +22.7606698     1241.756     72.31049      1.403     2.98     3.632193     20.36988     158.6801        18     1.038     0.985  81.31   0
       106   1004.7692    732.7556 300.2451360 +22.8785624     4360.856       72.237      1.674     3.41     4.194111     20.36988     352.7096        37     1.323     1.279 -21.57   0
       107    691.6609    728.5589 300.1489119 +22.7835291     289.5617     72.18184      1.550     3.92     3.524759     20.36988      40.9756         5     0.989     0.445  14.43   0
       108    993.1989    724.4600 300.2442241 +22.8727130     1549.216     72.16344      1.614     3.30     4.124848     20.36988     134.5705        24     1.261     1.093  -4.93   0
       109    356.0688    717.9000 300.0479287 +22.6798395     829.5131     72.29212      1.496     3.33     3.553149     20.36988     98.70611        17     1.118     0.997 -19.50   0
       110    221.9324    718.8151 300.0059264 +22.6398614     307.6726     72.18183      1.173     3.92     3.583028     20.36988     39.14396         6     0.782     0.563  39.91   0
       111    819.7129    715.5248 300.1930432 +22.8181658     2624.603     72.32884      1.604     3.01     3.424064     20.36988     246.9787        29     1.510     1.037   8.52   0
       112   1023.4533    714.2092 300.2569922 +22.8788308     889.1768     57.36065      1.199     3.33     4.300157     20.36988     130.0941        13     1.233     0.613 -88.82  24
       113     41.9001    705.7957 299.9542216 +22.5821028     908.7719     72.07138      1.685     3.81       3.4109     20.36988       93.325        18     1.290     0.919   5.47   0
       114    902.1372    701.7099 300.2232246 +22.8388959     625.5686     72.29212      1.567     3.07     3.728377     20.36988     52.96832        10     0.885     0.772 -33.30   0
       115    204.8458    702.0659 300.0060590 +22.6299308     592.0464     72.20023      1.473     4.60     3.575774     20.36988     60.22998        11     1.152     0.702 -24.63   0
       116    938.0197    692.4457 300.2374228 +22.8469850     148329.8       72.237      1.584     3.08     3.957993     20.36988     13336.28       167     1.509     1.472  43.22   0
       117    700.3375    696.2071 300.1621295 +22.7768410     419.3332     72.16344      1.422     3.34     3.587401     20.36988     48.80666         8     0.862     0.670  -4.36   0
       118    790.5982    692.6350 300.1914101 +22.8028670     812.0689     72.16344      1.455     3.21     3.438293     20.36988     89.41824        12     0.981     0.793 -54.11   0
       119    971.1010    685.1758 300.2501011 +22.8548067     281.9812     72.14503      1.260     4.50     4.104169     20.36988     41.35748         8     0.878     0.657 -48.98   0
       120    624.3261    681.2025 300.1433340 +22.7497482     1685.206     72.10822      1.411     2.76     3.630659     20.36988     190.6996        21     1.083     1.013  63.76   0
       121    805.5172    678.5402 300.2006397 +22.8032897      9519.56     72.29212      1.478     2.75     3.437275     20.36988     1028.868        40     1.205     1.175 -87.56   0
       122    287.4063    680.3557 300.0387786 +22.6484718     386.5416     72.21861      1.794     4.80     3.483192     20.36988     30.31387         7     0.908     0.720  29.72   0
       123    307.0264    673.5856 300.0470790 +22.6524149     4969.701     72.21861      1.497     2.84      3.49416     20.36988     525.6662        36     1.242     1.178  61.32   0
       124     20.8309    672.0137 299.9586557 +22.5660933      1742.68     72.20023      1.821     4.02     3.409905     20.36988     133.4198        27     1.371     1.235 -18.95   0
       125    389.1541    671.6695 300.0732431 +22.6764979     1088.854     72.18183      1.353     2.81      3.56371     20.36988     128.7994        17     1.071     0.856  12.60   0
       126    264.7334    669.4958 300.0352585 +22.6385549     526.2501     72.32884      1.636     4.70     3.567055     20.36988     46.53191        10     1.064     0.925  -9.22   0
       127    597.1915    667.3684 300.1393811 +22.7376423     762.1161     72.20023      1.304     2.94     3.687318     20.36988     91.86581        13     0.961     0.855 -49.21   0
       128    588.9775    659.3565 300.1394273 +22.7328798     3224.317     72.25538      1.347     2.48     3.754808     20.36988     385.0513        24     1.104     0.983  44.39   0
       129    579.3403    653.2184 300.1384216 +22.7282286       1385.6     72.16344      1.326     2.54     3.799722     20.36988     167.1804        17     1.043     0.907  23.98   0
       130    972.7562    650.9344 300.2617450 +22.8454642     597.8317     72.18183      1.808     5.11     4.142167     20.36988     44.31363        13     1.242     0.849  45.04   0
       131    507.5536    652.0964 300.1164414 +22.7063845     394.9379     72.21861      1.506     4.74     3.738357     20.36988      40.0445         8     1.040     0.612  46.96   0
       132    242.6011    649.1907 300.0349759 +22.6260905     599.0762     72.01609      1.308     2.96     3.594378     20.36988     68.09219        13     0.933     0.903  78.36   0
       133    256.7785    647.6877 300.0398715 +22.6299123      655.101     72.12663      1.569     3.15      3.55394     20.36988     71.39562        13     1.046     0.883  20.01   0
       134    314.0306    644.5775 300.0586825 +22.6461929     372.3789     72.20023      1.236     2.78     3.572062     20.36988     48.71862         5     0.740     0.580 -85.19   0
       135    282.6923    644.5812 300.0489372 +22.6367942      582.371     72.12663      1.515     4.10     3.483448     20.36988     61.93882         9     0.919     0.776  15.97   0
       136    603.1631    643.3671 300.1490393 +22.7325417     575.2111       72.237      1.481     3.14     3.907732     20.36988     55.58086         9     0.883     0.687 -68.01   0
       137    504.1001    642.8192 300.1183811 +22.7026861     1856.583     72.10822      1.413     2.67      3.80003     20.36988     228.3415        22     1.105     0.987  53.06   0
       138    157.9067    637.6955 300.0123878 +22.5973846     19855.26      72.3839      1.569     3.08     3.383684     20.36988     2097.832        65     1.410     1.332  41.62   0
       139     78.6058    639.2901 299.9872321 +22.5740479     586.2064     72.10822      1.538     3.83     3.411275     20.36988     60.87944        11     1.037     0.900   3.22   0
       140    588.7638    638.0932 300.1462699 +22.7267111     1013.644     72.16344      1.287     2.47     3.936351     20.36988     138.2501        14     0.969     0.876 -46.12   0
       141    624.1198    636.8375 300.1576860 +22.7369487     370.6283     72.16344      1.495     2.90     3.969634     20.36988     54.27848         6     0.752     0.620  72.38   0
       142    342.1645    629.7826 300.0722382 +22.6503857     271.3069     72.20023      1.475     3.44     3.766149     20.36988     32.51447         6     0.752     0.568 -50.31   0
       143   1006.7368    624.5519 300.2809153 +22.8480610     975.0871     72.21861      1.574     4.07     4.229947     20.36988     91.61797        20     1.237     1.056  38.74   0
       144    672.4811    625.5287 300.1764206 +22.7481967     220.9582     72.32884      1.206     4.55      4.07059     20.36988     36.30114         7     0.905     0.652  69.89   0
       145    103.8748    621.9357 300.0007199 +22.5766529     1654.788       72.237      2.105     5.52     3.406492     20.36988     111.9301        27     1.702     1.127  86.37   0
       146    873.7938    622.4719 300.2401387 +22.8076412     478.6547     72.14503      1.426     3.12      3.82585     20.36988     57.09387        10     0.912     0.804  24.05   0
       147    170.5200    622.2281 300.0213324 +22.5967321     528.0101     72.21861      1.654     2.00     3.391031     20.36988     55.33608         5     0.679     0.469  69.39   0
       148    552.3040    618.7661 300.1411992 +22.7102327      401.297     72.20023      1.165     3.06     4.031125     20.36988     59.46803         7     0.926     0.547 -21.82   0
       149    947.1934    617.1259 300.2647591 +22.8280927     711.6081     72.14503      1.437     2.54     4.069335     20.36988     75.35877         9     0.779     0.712  51.53   0
       150    816.9670    617.3719 300.2240840 +22.7891509     226.1835     72.21861      1.471     4.74     3.612691     20.36988     31.41535         5     1.398     0.455  -7.09   0
       151    345.1662    617.6417 300.0771160 +22.6478020     354.1078     72.25538      1.368     3.48     3.849183     20.36988     40.49677         5     0.774     0.452 -14.84   0
       152    943.1971    616.5653 300.2636952 +22.8267346     436.3115     72.20023      1.627     3.44     4.058595     20.36988     36.57777         5     0.735     0.465 -17.61   1
       153    701.2540    615.4160 300.1886678 +22.7539157     197.3768     72.16344      1.735     4.48     4.062555     20.36988     25.85931         5     1.175     0.486  -4.33   0
       154    509.2186    611.2075 300.1302445 +22.6951463     682.9965     72.16344      1.265     2.55     4.041222     20.36988     89.06654        10     0.838     0.734 -31.91   0
       155    656.9996    609.6509 300.1767577 +22.7389972     409.3892     72.16344      1.510     3.79      4.21999     20.36988     53.20222         9     0.989     0.746  42.04   0
       156    704.3540    608.3695 300.1919227 +22.7528210     413.5033       72.237      1.412     3.52     4.095996     20.36988     50.09889         9     0.859     0.786  32.52   0
       157    674.8005    607.6769 300.1829428 +22.7437653     500.6273     72.07138      1.313     2.18     4.220963     20.36988     78.55157         9     0.826     0.647 -73.89   0
       158    553.5087    606.9647 300.1454083 +22.7072057     977.9326     72.16344      1.449     3.84     4.113796     20.36988     110.6965        15     1.391     0.798  39.71   0
       159    987.1291    602.4741 300.2819732 +22.8358438      3363.38     72.27375      1.531     2.95     4.157691     20.36988     318.3113        30     1.234     1.113  35.19   0
       160    518.8112    602.3710 300.1361007 +22.6954853     1632.826     72.20023      1.272     2.45     4.075694     20.36988     216.4944        18     1.017     0.903  42.41   0
       161    884.2786    600.3792 300.2505848 +22.8044349     370.2213     72.20023      1.198     3.43     3.885034     20.36988     45.00681         7     0.954     0.511  59.09   0
       162     80.7164    595.8552 300.0019978 +22.5622242     5110.556     72.29212      1.654     3.20     3.510258     20.36988     542.8087        39     1.335     1.272  17.54   0
       163    494.1791    597.6526 300.1299676 +22.6867463     235.0728     72.20023      1.160     2.68     4.047771     20.36988     42.13749         5     0.743     0.430 -19.69   0
       164    547.6680    593.4465 300.1479817 +22.7015737     198.6474     72.18184      1.075     3.06     4.135213     20.36988     51.13614         5     0.998     0.306 -67.85   0
       165    382.1912    589.0460 300.0979212 +22.6506985     9032.285     72.21861      1.390     2.64     3.987478     20.36988     1075.596        41     1.195     1.150  46.20   0
       166    504.6035    586.1089 300.1369617 +22.6865575     8868.107     72.10822      1.332     2.39     4.074115     20.36988     1211.301        36     1.159     1.045  59.58   0
       167    269.5341    582.8869 300.0648885 +22.6151461     183.1696     72.29212      1.159     5.24     3.583657     20.36988     33.58622         6     1.277     0.607  51.59   0
       168    916.3377    580.2354 300.2671235 +22.8082502     1850.386     72.21861      1.447     2.90     3.928401     20.36988     185.9288        21     1.073     1.015  43.15   0
       169   1000.9844    577.5457 300.2943930 +22.8328292     12330.82     72.18183      1.521     2.88     4.129052     20.36988     1253.734        51     1.313     1.246  49.48   0
       170    565.2147    575.6917 300.1592113 +22.7017357      11548.2     72.12663      1.323     2.41     4.201422     20.36988      1505.35        42     1.151     1.101  63.81   0
       171    734.6986    571.7086 300.2132849 +22.7513844     502.2379      72.3839      1.297     3.50      4.09376     20.36988     62.98351        11     0.948     0.873  32.17   0
       172    292.5512    571.1346 300.0758621 +22.6186769     1430.098     72.21861      1.546     3.13      3.62276     20.36988     150.3444        22     1.218     1.042  18.91   0
       173    539.5104    568.5716 300.1535228 +22.6919865     471.1657     72.18184      1.445     3.57     4.178002     20.36988     68.12848         7     0.943     0.614  43.53   0
       174    839.7811    564.1323 300.2484898 +22.7806909     888.2905     72.20023      1.616     3.25     3.832742     20.36988     87.12463        14     1.162     0.748  24.24   0
       175    496.9190    563.9167 300.1417788 +22.6778827     4367.431      72.3472      1.341     2.26     4.073393     20.36988     630.5719        30     1.112     1.070  40.14   0
       176    475.1995    562.4506 300.1354960 +22.6709506     1241.956     72.16344      1.259     2.51     4.030121     20.36988     152.5094        17     0.950     0.939  41.84   0
       177    229.3584    561.5253 300.0593375 +22.5969669      768.413     72.18184      1.467     3.48      3.77107     20.36988     102.8758        15     1.115     0.970  -8.48   0
       178    916.8284    559.4437 300.2740304 +22.8024227     1588.714       72.237      1.516     2.98     3.890902     20.36988     152.7872        20     1.140     0.977 -27.61   0
       179    163.0992    559.5240 300.0393943 +22.5765181     286.1789     72.32884      1.113     2.93     3.767279     20.36988     41.11168         6     0.776     0.499   0.50   0
       180    613.5084    551.4515 300.1821203 +22.7092497     200451.8     72.25538      1.318     2.30     4.289282     20.36988     27072.41       198     1.432     1.373   3.89   0
       181    437.2253    557.7475 300.1252079 +22.6582159     360.7959     72.21861      1.435     3.52     4.030121     20.36988     48.17318         9     0.899     0.734  -0.03   0
       182    797.1599    556.2500 300.2377675 +22.7656579     809.3593     72.21861      1.305     2.77     3.857981     20.36988     102.0527        14     0.968     0.879  39.12   0
       183    299.5290    551.3917 300.0844441 +22.6151039     3565.135     72.18184      1.421     2.50     3.716728     20.36988     427.9524        27     1.100     1.084  20.23   0
       184    865.7300    547.7994 300.2618831 +22.7837712     604.6206     72.14503      1.618     2.27     3.863503     20.36988     78.44562         9     0.853     0.641 -24.45   0
       185    644.8373    537.9399 300.1962642 +22.7147581     324.6631     72.21861      1.376     2.39     4.290476     20.36988     45.86053         5     0.755     0.488 -35.47   0
       186    504.2627    536.2019 300.1530658 +22.6721270     401.4148     72.20023      1.558     2.19     4.128243     20.36988     55.56313         5     0.777     0.469  31.07   3
       187    504.0684    531.7267 300.1544587 +22.6707839     2570.465     72.27375      1.339     2.55     4.136513     20.36988     328.7815        21     1.024     0.951  29.59   2
       188    348.1869    534.1368 300.1051793 +22.6247426     391.7997     72.16344      1.402     5.29     3.883172     20.36988     48.28963         8     0.969     0.845  48.09   0
       189    953.8189    531.9681 300.2944886 +22.8056053     291.3127     72.20023      1.407     4.60     3.928757     20.36988     30.61554         7     0.852     0.706 -25.41   0
       190    915.8467    527.8602 300.2839829 +22.7930525     477.0966       72.237      1.723     3.47     3.874164     20.36988     46.82513         9     0.975     0.751  55.09   0
       191    734.8195    527.6818 300.2276227 +22.7387738     306.1052     72.18183      1.161     2.54     4.147332     20.36988     49.95313         5     0.724     0.442  14.76   0
       192    933.0178    523.5275 300.2907438 +22.7969499     250.2275     72.20023      1.132     3.94     3.883908     20.36988     40.19515         5     0.892     0.499   0.10   0
       193    901.1613    517.9517 300.2826225 +22.7858067     1715.922     72.21861      1.397     2.61     3.881776     20.36988     222.7023        21     1.120     0.994 -73.11   0
       194    821.3984    520.3492 300.2569814 +22.7626046     396.9348     72.18184      1.163     2.64     3.908004     20.36988     61.06209         7     0.810     0.616  21.52   0
       195    926.3358    518.6340 300.2902497 +22.7935424     5746.218     72.20023      0.867     2.67     3.877728     20.36988     2302.392        11     0.855     0.455  36.46   0
       196    787.9092    517.7852 300.2473779 +22.7518358     345.7858     72.12663      1.314     2.84     3.959919     20.36988     41.33118         5     0.771     0.489 -48.33   0
       197    772.3713    515.6517 300.2432292 +22.7465681       2445.8     72.21861      1.340     2.52      4.00739     20.36988     319.4906        22     1.036     1.017  45.15   0
       198     31.1478    516.3854 300.0124110 +22.5245584     867.4797     72.21861      1.664     3.63     3.945152     20.36988     98.35629        14     1.094     0.937   3.00   0
       199   1016.8268    513.1758 300.3202424 +22.8190717     463.7586     72.16344      1.583     3.94     4.070681     20.36988     47.87341         8     0.910     0.730 -76.16   1
       200    677.3555    512.0565 300.2147975 +22.7170679     465.7141     72.21861      1.327     3.51     4.261828     20.36988     60.24926        10     1.024     0.716  83.00   0
       201    559.5587    511.4736 300.1783077 +22.6816004     737.2925     72.18184      1.256     2.60     4.285509     20.36988      109.769        13     0.969     0.818 -19.29   0
       202   1015.4487    508.6884 300.3212699 +22.8173691     857.6732     72.20023      1.688     3.24     4.065692     20.36988      81.5309        13     1.086     0.783  66.31   0
       203    901.4192    507.8448 300.2859852 +22.7829794     2227.283       72.237      1.621     3.75     3.888046     20.36988     251.7261        28     1.680     0.953  77.44   0
       204    654.6344    506.2356 300.2096115 +22.7085878     706.5731     72.27375      1.512     3.07     4.268526     20.36988      73.4063        11     0.941     0.822  82.96   0
       205    493.1251    504.8545 300.1597797 +22.6597880     380.4722       72.237      1.203     3.42     4.164412     20.36988     58.88505         8     0.859     0.601  40.66   0
       206    939.5440    503.1700 300.2993901 +22.7930536     4268.759     72.21861      1.405     2.60     3.907979     20.36988     437.7354        29     1.158     1.091  11.41   0
       207    580.2963    502.6698 300.1876225 +22.6852871     240.4816     72.32884      1.060     3.17     4.281057     20.36988     41.79667         5     0.737     0.453 -12.53   0
       208    677.2357    499.8867 300.2187122 +22.7135363     262.4319     72.18183      1.244     4.00     4.252082     20.36988     36.16005         6     0.778     0.589 -48.80   0
       209    736.3082    498.5441 300.2375490 +22.7308492     301.0069     72.25538      1.228     4.56     4.067558     20.36988     46.57421         6     0.926     0.638 -66.07   0
       210    600.0932    498.8614 300.1950227 +22.6901261     442.7059     72.29212      1.592     4.80     4.269271     20.36988     51.95227         9     1.206     0.834 -80.88   0
       211    171.5980    493.2487 300.0635575 +22.5600521     996.9315     72.18184      1.565     2.99     3.906791     20.36988     122.9755        17     1.077     0.939 -65.48   0
       212    832.5049    487.5161 300.2711053 +22.7564971     263.0496      72.3839      1.229     2.86     3.929455     20.36988     44.49784         6     0.845     0.455  73.11   0
       213    219.1424    485.9746 300.0806962 +22.5722238     289.6621     72.20023      1.411     3.88     3.950617     20.36988     29.79963         5     0.845     0.510 -29.47   0
       214    164.6060    483.3565 300.0645965 +22.5551166     519.3854     72.21861      1.680     2.76     3.902874     20.36988     56.43822         8     0.867     0.650  82.00   0
       215    771.9713    477.5469 300.2554785 +22.7355004     374.5271     72.21861      1.160     2.05     3.981919     20.36988     69.25801         6     0.729     0.490  -9.25   0
       216    380.9924    475.9573 300.1342750 +22.6178779     294.9797     72.21861      1.353     2.48     3.737153     20.36988     40.40477         5     0.645     0.548 -89.84   0
       217    660.8246    475.3678 300.2215627 +22.7015761     209.6205     72.20023      1.046     2.55     4.251378     20.36988     63.78815         5     0.878     0.352  45.38   0
       218    713.1902    473.6861 300.2384191 +22.7167820     830.2979     72.12663      1.280     2.55     4.104095     20.36988      112.494        10     0.870     0.727  42.99   0
       219    773.5469    465.8135 300.2597793 +22.7326010     828.5282       72.237      1.306     2.93     3.979987     20.36988     126.6208        14     1.139     0.851  30.83   0
       220    931.1436    462.1998 300.3100748 +22.7787623     1034.365     72.10822      1.355     2.82     3.890343     20.36988     126.9156        11     0.900     0.774  22.67   0
       221    915.2832    458.4123 300.3063594 +22.7729243     638.8073     72.16344      1.345     3.27     3.887534     20.36988      74.5782        12     1.032     0.770  43.94   0
       222    896.0110    458.6603 300.3002704 +22.7672243     285.8626     72.16344      1.302     3.69     3.892287     20.36988     37.79574         7     0.745     0.666  15.04   0
       223    659.5551    456.4402 300.2273129 +22.6957585     3222.784     72.27375      1.272     2.35     4.251378     20.36988     435.9399        23     1.058     0.950  63.49   0
       224   1020.1738    455.0533 300.3401604 +22.8033652     433.8085     71.20023      1.322     3.60     4.062052     20.36988     52.84554         8     0.937     0.608  27.11  16
       225    135.8329    447.6596 300.0672447 +22.5362441     270.6157       72.237      1.103     2.34     3.943399     20.36988     54.77434         6     0.736     0.531  50.60   0
       226    499.1968    443.3522 300.1816383 +22.6439473     246.4895     72.18183      1.214     3.11     4.280894     20.36988     42.01012         6     0.721     0.631 -63.02   0
       227    942.8493    435.3497 300.3224424 +22.7745495     539.6247       72.237      1.402     4.08     3.901468     20.36988     61.30182        10     0.985     0.851   7.04   0
       228    679.1996    432.1694 300.2413108 +22.6946715     295.3292     72.16344      1.243     2.40     4.229286     20.36988     44.34989         6     0.699     0.574  39.57   0
       229    770.2139    430.3240 300.2702630 +22.7214050     1107.957     72.21861      1.296     2.76     3.983851     20.36988     139.5254        16     1.154     0.766  39.80   0
       230    566.0590    430.8853 300.2064973 +22.6604037      430.568     72.31049      1.215     2.40     4.282809     20.36988     75.68748         8     0.819     0.605  35.12   0
       231    274.2767    428.1609 300.1166051 +22.5721633     686.5475     72.18183      1.456     3.26     3.952266     20.36988     70.37834        12     1.034     0.814  21.63   0
       232    114.1726    426.8209 300.0672792 +22.5237683     295.3412     72.20023      1.200     4.04     3.988896     20.36988     49.72366         6     1.104     0.423  59.29   0
       233    336.4819    424.1378 300.1372541 +22.5896578     3738.495     72.29212      1.329     2.49     3.770158     20.36988     477.7484        27     1.141     1.003  49.66   0
       234    283.7122    418.9153 300.1225400 +22.5723384      7587.83     72.32884      1.391     2.50     3.940915     20.36988     1031.358        37     1.201     1.101  60.39   0
       235    788.2991    419.4310 300.2794346 +22.7236916     224.1027     72.18184      1.017     3.67     3.966465     20.36988     46.65642         5     0.860     0.450  46.90   0
       236    662.1977    418.4436 300.2404714 +22.6856346     299.3285     72.20023      1.016     2.16     4.251378     20.36988      51.4944         5     0.687     0.459  21.87   0
       237    424.5474    413.1445 300.1682160 +22.6128995     4783.207       72.237      1.297     2.36     4.459767     20.36988      623.239        31     1.140     1.016  54.25   0
       238    668.6503    409.9234 300.2452468 +22.6851199     18605.93     72.20023      1.311     2.38     4.194706     20.36988     2757.825        58     1.310     1.131  35.43   0
       239    686.4044    409.8254 300.2508083 +22.6904103     928.2184     72.16344      2.213     5.99     4.150757     20.36988     57.38909        20     1.694     0.927 -42.81   0
       240    515.7608    411.6569 300.1970826 +22.6398087     488.9464     72.20023      1.791     4.05     4.298777     20.36988     46.35007         7     1.011     0.464  -6.45   0
       241    865.7960    400.5505 300.3097165 +22.7414741     290.8991     72.18183      1.074     2.79     3.833732     20.36988     65.19185         7     0.907     0.482   9.12   0
       242    288.6085    397.0816 300.1311493 +22.5675386      395.511     72.14503      1.359     4.78      3.93003     20.36988     46.91954         8     0.929     0.698 -25.68   0
       243   1002.1630    392.5677 300.3548283 +22.7800081     768.1295     72.21861      1.281     2.19     4.044193     20.36988     127.7876        13     0.993     0.812  82.29   0
       244    539.5461    391.6832 300.2109693 +22.6411993     422.7764       72.237      1.292     3.23     4.256948     20.36988     55.71096         8     0.927     0.715  17.13   0
       245    711.8760    391.0674 300.2648313 +22.6926507     359.9115     72.29212      1.366     2.76     3.942288     20.36988     48.72483         5     0.767     0.503  30.79   0
       246    223.2311    389.9325 300.1131445 +22.5458854     2037.657     72.20023      1.433     2.86     3.994535     20.36988     284.4315        25     1.236     1.018  53.80   0
       247    609.3739    379.3485 300.2367118 +22.6585776     6755.068     72.21861      1.251     2.23     3.958561     20.36988     846.3066        36     1.131     1.041  58.19   0
       248   1022.9564    379.7026 300.3654900 +22.7825335     1120.953     60.16256      1.336     2.73     4.108917     20.36988     156.3035        13     1.036     0.751  77.57  24
       249    324.0599    378.8307 300.1480967 +22.5729266     681.8916       72.237      1.372     2.75     3.999003     20.36988     87.44255        10     0.862     0.762  68.92   0
       250    181.7266    371.7780 300.1061361 +22.5282301     419.8355     72.20023      1.256     3.70     3.950533     20.36988     67.50982        10     0.900     0.817  84.31   0
       251    869.4226    371.1912 300.3203767 +22.7341209     434.0499     72.20023      1.720     4.48     3.781441     20.36988     44.95292         6     0.954     0.597  28.07   0
       252    723.3073    369.4305 300.2754151 +22.6898573     593.0208     72.12663      1.573     3.31     3.785543     20.36988     87.53407         9     1.004     0.751  61.17   0
       253     29.2057    369.4303 300.0595118 +22.4818174     1328.569     72.20023      1.599     3.13     4.431033     20.36988     133.3141        17     1.094     0.943  26.84   0
       254    813.5916    368.3728 300.3038897 +22.7165925     1144.708     72.20023      1.276     2.43       3.7658     20.36988     165.7982        16     1.020     0.834  57.05   0
       255    515.9865    365.6013 300.2121013 +22.6266482      6145.37     72.03452      1.305     2.40     4.234704     20.36988     897.2659        31     1.104     0.995  64.48   0
       256    221.8428    362.2553 300.1216953 +22.5375247     122.0608     72.20023      1.135     3.34     3.967955     20.36988     34.12767         5     0.931     0.348  45.75   0
       257   1005.3480    360.0013 300.3663921 +22.7715976     686.7122     72.16344      1.491     4.92     4.094437     20.36988     66.74707        15     1.274     1.003 -74.20   0
       258    907.9117    360.2289 300.3359335 +22.7424937     1378.678     72.18183      1.369     2.62     3.858924     20.36988     180.6411        16     0.979     0.874  59.31   0
       259    500.5414    354.2353 300.2109829 +22.6187555      471.337     72.20023      1.072     2.40      4.22847     20.36988     71.30699         8     0.821     0.608  43.36   0
       260      7.6788    354.2758 300.0577440 +22.4710126     380.4998     72.31049      1.400     3.71      4.71277     20.36988      37.5857         5     0.878     0.449 -44.08   0
       261    583.2949    352.2908 300.2373735 +22.6429913     463.2162      72.3839      1.273     2.71     3.940765     20.36988     64.20959         9     0.845     0.723  12.21   0
       262     27.4869    350.7185 300.0650501 +22.4759329     1045.838     72.32884      1.592     4.11     4.573788     20.36988     122.1553        16     1.237     0.924  65.22   0
       263    563.8015    350.2661 300.2319618 +22.6365695     337.8711     72.18184      1.340     3.85     4.073913     20.36988     43.92955         6     1.039     0.408  10.21   0
       264    880.8839    347.6258 300.3315977 +22.7307784     514.1831     72.18183      1.398     2.74     3.783978     20.36988     82.57823        11     0.987     0.703  72.03   0
       265    403.5743    344.8109 300.1838691 +22.5869908     2624.167     72.20023      1.326     2.25     4.438412     20.36988     383.1953        21     1.076     0.942  60.16   0
       266    121.9401    342.2646 300.0971348 +22.5018324     1104.296       72.237      1.429     3.00     4.043458     20.36988     110.1464        16     1.082     0.869   2.35   0
       267    751.4493    339.6479 300.2938481 +22.6897268     271.6353       72.237      1.319     4.17     3.685197     20.36988     35.79676         6     1.038     0.478  34.67   0
       268    351.1720    338.3341 300.1696707 +22.5694255     174.9969     72.18183      0.915     2.13     4.398142     20.36988     48.35814         5     0.705     0.442  17.41   0
       269    372.8918    334.2451 300.1777532 +22.5747611     29869.97     72.18183      1.351     2.40     4.448997     20.36988      3766.28        67     1.265     1.160  58.17   0
       270    907.5391    331.8347 300.3450323 +22.7342190      1447.14     72.21861      1.353     2.24     3.875294     20.36988     192.3262        17     0.957     0.879 -87.28   0
       271    863.0358    329.3262 300.3319726 +22.7201739     223.4244     72.14503      1.112     2.85     3.736331     20.36988     58.64691         6     0.848     0.719 -89.80   0
       272     69.2046    322.0109 300.0873229 +22.4802060      4819.82     72.05296      1.496     2.91     4.391693     20.36988     543.0285        33     1.269     1.118  54.31   0
       273    822.9382    320.6042 300.3223049 +22.7056607     667.9165     72.20023      1.445     2.57     3.709025     20.36988     84.33144        10     0.944     0.651  60.21   0
       274    246.8940    320.5635 300.1430114 +22.5330662     556.8881     72.20023      1.357     3.09     4.004342     20.36988     66.12278        10     0.897     0.755 -87.01   0
       275    471.3803    319.6531 300.2131297 +22.6000845     455.2515     72.18184      1.162     3.21     4.301504     20.36988      80.9148         8     0.902     0.700  58.23   0
       276    783.3782    314.0245 300.3121116 +22.6919237     1929.812     72.16344      1.343     2.38     3.688095     20.36988     261.2696        21     1.033     0.984  58.03   0
       277    591.4536    309.0168 300.2539559 +22.6330027      330.792     72.18183      1.254     3.10      4.12149     20.36988     50.96904         7     0.995     0.500 -23.02   0
       278    998.8410    307.2596 300.3814784 +22.7544835     654.7424     72.20023      1.467     3.14     4.089282     20.36988      93.4317        13     1.129     0.803   8.82   0
       279    445.0740    298.6404 300.2117618 +22.5861665     2200.746     72.18183      1.505     2.87     4.395908     20.36988     267.5261        25     1.339     0.936  67.00   0
       280    657.2736    297.4398 300.2782082 +22.6493916     264.0361     72.18184      1.159     3.05     3.859053     20.36988      46.7775         5     0.739     0.426  24.99   0
       281    884.2346    291.5049 300.3508533 +22.7156471     622.4874     72.20023      1.372     2.33     3.812822     20.36988     96.15596        10     0.904     0.662  87.41   0
       282     14.7977    291.5671 300.0803009 +22.4551538     390.2022     72.16344      1.564     3.43     4.601889     20.36988     38.24688         5     0.746     0.457  18.94   1
       283    766.6039    289.4497 300.3148585 +22.6798370     477.6847     72.20023      1.215     2.89      3.68045     20.36988     72.61404         8     0.858     0.687 -22.74   0
       284     17.7130    289.2256 300.0819659 +22.4553561     674.6005     72.14503      1.918     5.70     4.595984     20.36988     64.17173        11     1.349     0.679  21.53   0
       285    783.9807    289.1808 300.3203603 +22.6849630     324.2613     72.20023      1.451     3.30      3.68045     20.36988     34.53906         6     0.803     0.641   4.68   0
       286    734.7454    288.0415 300.3053894 +22.6698922     422.0928     72.16344      1.500     4.42     3.689727     20.36988     42.84622         7     0.790     0.738 -51.84   0
       287    521.0037    277.8836 300.2421256 +22.6029532     1213.312     72.12663      1.343     2.24     4.255042     20.36988     187.1243        15     0.967     0.858  86.26   0
       288    328.3467    278.7357 300.1819088 +22.5454702     204.0381       72.237      1.233     3.40     4.578111     20.36988      34.8987         5     0.755     0.442 -73.21   0
       289    235.3177    279.5786 300.1527097 +22.5178291     212.1017     72.16344      1.058     3.42     4.114708     20.36988     36.73407         5     0.769     0.440 -20.82   0
       290     93.2654    278.1310 300.1090334 +22.4748271     267.5325     72.25538      1.331     3.74     4.535099     20.36988     41.28403         5     0.899     0.448  41.17   0
       291    765.8988    269.9057 300.3209796 +22.6740080     2180.518      72.3839      1.264     2.24     3.813866     20.36988     359.9031        19     0.950     0.923 -61.87   0
       292      1.4420    255.2747 300.0879259 +22.4407336     8135.907     56.87247      1.207     2.78     4.776237     20.36988     1718.228        42     1.678     0.819  87.76  24
       293    474.1889    253.5650 300.2354448 +22.5819416     665.2393     72.20023      1.328     3.25     4.342611     20.36988     98.88736        13     1.025     0.847 -85.18   0
       294    149.1605    247.7056 300.1362702 +22.4828513     1409.971     72.21861      1.726     3.46     4.367402     20.36988     155.6187        25     1.371     1.072 -35.20   0
       295    179.4576    247.6256 300.1457117 +22.4919106     556.3472     72.20023      1.372     3.74     4.336189     20.36988     79.65675        14     1.064     0.989  81.26   0
       296    886.5933    241.4556 300.3678258 +22.7019624      338.331     72.18184      1.422     4.24     4.141356     20.36988      43.3074         7     0.874     0.770  68.57   0
       297    232.9420    239.5215 300.1649649 +22.5056156     485.8846       72.237      1.334     3.31     4.443525     20.36988     77.54801         9     1.058     0.713  43.54   0
       298     88.2624    237.2685 300.1207337 +22.4615981      416.509     72.25538      1.804     4.68     4.572452     20.36988      31.3568         7     1.099     0.566 -23.98   0
       299     18.4191    235.3533 300.0996598 +22.4401071     344.1678       72.237      2.002     5.32     4.814894     20.36988     34.63471         8     1.240     0.645 -34.62   0
       300    908.8644    233.3519 300.3773979 +22.7062985     444.1612     72.21861      1.535     3.57      4.22392     20.36988     51.77201         8     0.884     0.796  -3.50   0
       301    428.1067    231.1173 300.2283871 +22.5616866     474.9467     72.36555      1.450     3.16     4.759619     20.36988      56.8106        10     0.918     0.743  60.79   0
       302    837.5852    231.2768 300.3558509 +22.6843652     644.0058     72.21861      1.233     2.36     4.144639     20.36988     94.87569        11     0.902     0.704 -12.32   0
       303    973.7318    224.9318 300.4003566 +22.7232915     249.9601     72.25538      1.371     3.81     4.287838     20.36988      30.2352         5     0.843     0.493  37.29   0
       304    928.0411    224.1971 300.3863468 +22.7094056     438.7143     72.21861      1.510     3.62     4.288236     20.36988     55.73172         9     1.113     0.722  74.97   0
       305    935.5894    220.4189 300.3899259 +22.7105782      2119.97     72.16344      1.316     2.26     4.295522     20.36988     271.6678        22     1.079     0.967  86.71   0
       306    354.1865    217.5847 300.2097810 +22.5356510     2169.779     72.14503      1.373     2.36     4.904078     20.36988       285.77        24     1.095     1.032  55.98   0
       307    431.9932    212.6730 300.2355785 +22.5575525     1046.541     72.14503      1.409     2.28     4.755454     20.36988     149.3726        15     1.072     0.801 -77.91   0
       308    184.1514    213.3317 300.1582933 +22.4834714     259.2946     72.20023      1.178     4.73     4.540417     20.36988      41.9572         7     0.946     0.671   2.27   0
       309    833.9747    212.1701 300.3609230 +22.6777906     484.9286     72.20023      1.132     2.29     4.212069     20.36988     85.84319         8     0.753     0.640  57.62   0
       310    940.8044    208.9487 300.3952725 +22.7088402      291.012     72.20023      1.222     3.42     4.314298     20.36988     48.80162         5     0.811     0.478  28.12   0
       311    479.2025    209.2505 300.2513787 +22.5707121     313.1697     72.20023      1.223     3.76     4.323187     20.36988     29.90111         5     0.904     0.449  46.22   0
       312     30.5761    206.1884 300.1128943 +22.4353814     397.6891     72.20023      1.945     4.47     4.978088     20.36988     37.74688         7     1.155     0.491  87.14   0
       313    248.9920    204.8491 300.1811998 +22.5004696     665.5132     72.20023      1.362     3.18      4.67837     20.36988     88.52938        13     1.015     0.844  81.63   0
       314    786.8043    201.7245 300.3496102 +22.6606662      1714.29     72.10822      1.354     2.34      4.18652     20.36988      258.068        20     1.084     0.943  89.59   0
       315    851.6014    201.3977 300.3699111 +22.6799695     573.5827     71.97921      1.179     2.60     4.257168     20.36988     88.41331         8     0.844     0.621  37.84   0
       316    270.4379    198.1654 300.1900351 +22.5049774     681.4139     72.25538      1.569     5.28      4.77163     20.36988     64.04379        10     1.476     0.533  41.21   0
       317    790.8347    193.2988 300.3535989 +22.6594503     830.6432     72.18183      1.536     3.05     4.208861     20.36988     89.27702        14     1.175     0.696  82.65   0
       318    560.3893    194.1787 300.2815368 +22.5906996     364.2507     72.18183      1.040     1.84     4.258052     20.36988     58.34112         5     0.644     0.475  75.50   0
       319    711.2398    192.4253 300.3290827 +22.6353693     1235.459       72.237      1.279     2.56     4.212972     20.36988     185.9993        16     1.000     0.863 -84.79   0
       320    532.5422    188.8108 300.2746090 +22.5808165     511.6488     72.16344      1.405     4.14     4.287239     20.36988     53.54224         9     1.129     0.612  64.18   0
       321    906.6826    183.9056 300.3927554 +22.6914256     1514.501     72.36555      1.428     3.07     4.331166     20.36988     180.6121        19     1.193     0.866  59.78   0
       322    637.4487    184.2223 300.3087594 +22.6109159     1135.236     72.20023      1.394     2.51     4.266694     20.36988     132.6889        15     1.000     0.815  81.81   0
       323    918.7198    183.2918 300.3967075 +22.6948516     907.0768     72.31049      1.370     2.91     4.339717     20.36988     108.4982        15     1.061     0.852  43.06   0
       324    965.2600    182.1810 300.4115804 +22.7084600     246.6601     72.14503      1.244     4.36     4.383059     20.36988     33.68188         5     0.776     0.697 -59.95   0
       325      8.6157    172.2442 300.1170810 +22.4190540     293.9951     72.21861      1.290     2.82     5.356256     20.36988     39.86103         5     0.731     0.442 -69.62   0
       326     59.3479    170.1251 300.1335256 +22.4336553     550.2487     72.21861      1.358     2.40     5.221817     20.36988     84.64814         7     0.788     0.597 -59.77   0
       327    269.6709    166.5791 300.2000393 +22.4956760     758.3911     72.20023      1.427     2.64     4.887169     20.36988     86.04576        12     0.952     0.760  60.54   0
       328    131.3994    161.0308 300.1588598 +22.4526427     2335.706     72.16344      1.513     2.69     4.880432     20.36988     266.3873        26     1.228     1.029  70.52   0
       329    954.3322    158.3994 300.4158848 +22.6983494     847.8502     72.16344      1.362     2.34     4.432529     20.36988     105.4112        11     0.860     0.751  45.78   0
       330     80.8026    158.4034 300.1439912 +22.4367218     479.3592      71.9792      1.318     3.36     5.247761     20.36988     61.65173         7     0.913     0.490  -0.93   0
       331    288.8095    154.4504 300.2099229 +22.4979273     5669.264     72.20023      1.400     2.50        4.991     20.36988     802.7278        34     1.233     1.079  48.99   0
       332    270.4222    155.3132 300.2039259 +22.4926654     278.4812     72.12663      1.113     3.42     4.919478     20.36988     40.49545         5     0.764     0.443  69.46   0
       333     34.8310    150.7074 300.1322061 +22.4207312     336.3227     72.12663      1.949     5.48     5.422111     20.36988     26.75566         7     0.992     0.856  20.33   0
       334     72.8864    148.8486 300.1446299 +22.4316057      1282.02     72.18183      1.509     3.76     5.288178     20.36988     149.0982        20     1.148     1.052  41.50   0
       335    272.2222    145.5382 300.2076550 +22.4903972     532.6167     72.18183      1.251     2.64     4.940719     20.36988     74.67234         8     0.783     0.668  86.99   0
       336    932.9199    136.1217 300.4164315 +22.6855338      3729.32     72.32884      1.434     2.75     4.553317     20.36988      415.815        29     1.268     1.030  77.95   0
       337    482.2174    131.1658 300.2776378 +22.5491784     579.7763     72.20023      1.205     3.06     4.377524     20.36988     88.40246        10     0.966     0.687  65.20   0
       338    235.2672    132.0617 300.2005349 +22.4754529     395.6334     72.25538      1.296     2.91      4.87858     20.36988     52.25476         5     0.783     0.498 -28.99   0
       339    596.5477    129.4755 300.3137754 +22.5829321      254.013     72.20023      1.128     3.71     4.611805     20.36988     41.16716         6     0.929     0.427 -18.33   0
       340    406.5666    122.9379 300.2567658 +22.5241543      595.366     72.20023      1.437     4.58     4.689158     20.36988     68.98315        10     1.238     0.664  36.07   0
       341    410.6317    121.7516 300.2584151 +22.5250312      350.104       72.237      1.225     2.28     4.666166     20.36988     49.85545         5     0.701     0.451  71.55   0
       342    172.6830    120.2621 300.1849070 +22.4533092     694.0001     72.29212      1.692     2.78     4.902167     20.36988     84.01413         9     0.869     0.718 -19.44   0
       343    533.7039    118.4961 300.2977704 +22.5609572     1672.483     72.36555      1.288     2.38     4.423037     20.36988     263.3261        20     1.088     0.897  62.40   0
       344    462.0147    119.1002 300.2752626 +22.5396602     361.8442     72.10822      1.178     2.16     4.463975     20.36988     78.52454         9     0.775     0.689  48.10   0
       345     70.3785    119.1798 300.1534695 +22.4223359     363.8965     72.20023      1.478     2.93     5.357648     20.36988     45.82345         7     0.838     0.582  10.20   0
       346    595.3409    117.7400 300.3172045 +22.5791974     440.3013     72.27375      1.350     2.79     4.705682     20.36988     51.59781         5     0.698     0.470 -83.47   0
       347    357.5824    114.2231 300.2443533 +22.5069765     209.0296     72.18183      1.192     3.54     4.876568     20.36988     35.57968         5     0.780     0.464 -74.45   0
       348    277.1096    114.0596 300.2193802 +22.4828199     524.7949     72.29212      1.574     3.95      4.99512     20.36988     41.05426         8     0.832     0.675 -41.61   0
       349    822.1232    108.1903 300.3909473 +22.6443424     421.8873     72.16344      1.426     3.90     4.422772     20.36988     46.30283        10     0.948     0.828 -57.64   0
       350    178.8659    104.6951 300.1918751 +22.4506915     336.6652     72.32884      1.525     4.62     5.001265     20.36988     40.34164         7     1.072     0.566 -22.29   0
       351    967.9148    102.6520 300.4381962 +22.6863769     352.1031     72.21861      1.441     4.22     4.794181     20.36988     40.75679         6     0.916     0.554 -86.80   0
       352    307.7888     98.3077 300.2340265 +22.4874868     6079.038     72.14503      1.423     2.69     4.972499     20.36988     764.3971        36     1.274     1.075  57.07   0
       353    814.2120     99.0263 300.3914526 +22.6393391     315.4282     72.20023      1.226     2.15     4.441553     20.36988      52.7213         7     0.701     0.645 -89.27   0
       354    158.6459     97.7937 300.1878282 +22.4426500     653.7854     72.21861      1.296     3.55     5.065408     20.36988     108.6796        12     1.078     0.828  54.33   0
       355    937.3506     95.9132 300.4308495 +22.6752933     188.4549     72.20023      1.099     3.15     4.822479     20.36988     50.41065         5     0.891     0.654 -14.12   0
       356      2.7386     94.4014 300.1404922 +22.3949463      696.489     63.51222      1.559     4.97     5.904379     20.36988     69.71484        15     1.331     0.960  61.66  24
       357    279.6524     92.5564 300.2271416 +22.4774049     317.3012       72.237      1.063     3.03     5.016969     20.36988     48.16601         5     0.709     0.461  19.97   0
       358    323.1060     89.4771 300.2416525 +22.4895387     283.2654     72.32884      1.303     3.38     4.939275     20.36988     51.35529         6     0.755     0.640 -50.38   0
       359     69.6396     88.6080 300.1631501 +22.4133366     315.9707     72.21861      1.629     3.87     5.394075     20.36988     32.05231         5     0.967     0.443  13.78   0
       360    553.8882     83.7512 300.3153174 +22.5570151     6284.678     72.20023      1.358     2.42     4.534207     20.36988     903.2581        34     1.222     1.024  64.34   0
       361    439.3689     83.4811 300.2797627 +22.5226419     784.0211     72.20023      1.472     2.82     4.457118     20.36988     80.28587        13     0.982     0.813  51.16   0
       362    611.0098     78.3116 300.3348654 +22.5725548       164.62     72.14503      1.100     2.83     5.029811     20.36988     43.07185         7     0.709     0.684 -37.69   0
       363    806.3789     74.1825 300.3970651 +22.6298497     775.1536     72.18183      1.604     5.33     4.587661     20.36988     104.9886        14     1.612     0.750 -75.41   0
       364    747.7880     75.4901 300.3783836 +22.6126895      281.829     72.14503      1.111     2.28     4.870522     20.36988     55.15168         5     0.705     0.469  19.30   0
       365    898.8795     72.6118 300.4264079 +22.6570789     135.0073     72.18183      0.639     3.02     4.717932     20.36988     68.81448         7     0.927     0.480  -6.26   0
       366    246.5658     67.0727 300.2251146 +22.4601714     477.7927     72.20023      1.549     5.08     5.025711     20.36988     46.79515         9     1.224     0.597  40.66   0
       367    682.2296     63.8598 300.3617303 +22.5897214     6219.875       72.237      1.329     2.41     5.170766     20.36988     841.1565        30     1.135     1.012  72.91   0
       368    605.2405     65.9364 300.3370803 +22.5672699      436.565     72.18183      1.468     4.42     4.993411     20.36988     62.25589         7     1.075     0.517  63.37   0
       369    457.0452     62.7900 300.2919698 +22.5219897     1489.252     72.21861      1.328     2.45      4.44284     20.36988     212.8961        21     1.086     0.999  26.81   0
       370    723.3250     61.2057 300.3753923 +22.6012596     867.9747     72.12663      1.293     2.82     5.095017     20.36988     115.0503        13     0.975     0.822  72.55   0
       371    793.2005     58.6423 300.3979955 +22.6214362     386.8648     72.21861      1.771     2.91     4.730396     20.36988     47.90685         6     0.905     0.626  79.50   0
       372    739.2371     57.5079 300.3815483 +22.6049590     671.0914     72.20023      1.405     2.43     5.079752     20.36988      78.7578        10     0.879     0.704  71.34   0
       373     52.5876     56.2716 300.1683339 +22.3989407     303.0397     72.21861      1.354     3.63     5.510426     20.36988     42.16701         6     0.906     0.442  -3.36   0
       374   1009.2453     54.8053 300.4665975 +22.6849756     451.0545     72.20023      1.271     4.04     4.840315     20.36988     74.90818        10     1.167     0.716  59.86   0
       375    206.0525     54.9344 300.2164545 +22.4445461     673.9329       72.237      1.417     3.16     5.041235     20.36988     75.71474        10     0.905     0.720  79.58   0
       376    777.9580     52.4994 300.3952366 +22.6151077     482.1119     72.18183      1.206     2.49     4.876402     20.36988      88.8726         9     0.898     0.642  71.43   0
       377    726.3685     48.7567 300.3803755 +22.5985906     2696.579     72.25538      1.321     2.37     5.192165     20.36988     368.0005        23     1.051     0.997 -58.44   0
       378    741.7502     47.7720 300.3854869 +22.6029114     1030.727     72.21861      1.806     4.60     5.153337     20.36988     94.99072        18     1.568     0.786  48.05   0
       379    367.1716     49.2647 300.2683921 +22.4911851     304.8263     72.20023      1.149     3.67     4.776883     20.36988     50.77357         7     0.936     0.603   6.49   0
       380     19.8676     42.9711 300.1624811 +22.3853148      784.292     72.20023      1.524     4.03     5.789886     20.36988     80.93681        15     1.131     0.988 -83.04   0
       381    812.8131     40.3272 300.4100440 +22.6220379      1646.68     72.21861      1.420     2.47     4.797042     20.36988     217.7652        19     1.138     0.862  55.54   0
       382    750.7180     33.5252 300.3928985 +22.6014982     651.2962     72.31049      1.287     2.88     5.214522     20.36988       98.703        10     0.908     0.781 -26.05   0
       383    556.5204     32.7837 300.3326566 +22.5431523     1129.081     72.21861      1.365     2.50      4.48931     20.36988     147.8784        15     0.954     0.861 -66.47   0
       384    129.5948     32.5493 300.1999469 +22.4152065     655.7661     72.18184      1.793     2.48     5.089298     20.36988     76.94014         9     0.872     0.777 -84.55   0
       385    460.3484     30.8088 300.3033630 +22.5137874     729.4214     72.20023      1.294     2.63     4.434956     20.36988     98.81598        13     0.908     0.842 -65.43   0
       386    842.9169     29.7262 300.4228626 +22.6279969     425.1234     72.31049      1.256     2.81     4.858625     20.36988     61.09206         7     0.746     0.634  10.32   0
       387    291.1269   1017.5374 299.9302899 +22.7462835      1515.08       72.237      3.220     7.34     67.27844     20.36988     64.87886        30     1.809     1.570  -0.39  18
       388    799.9583     21.5629 300.4121192 +22.6127938     689.7112     72.29212      1.463     2.65     4.916133     20.36988     93.28129        11     0.904     0.804 -62.82   0
       389     24.0455     21.0470 300.1708835 +22.3802717     270.4931     72.21861      1.133     3.64     5.759527     20.36988     36.12038         5     0.625     0.612  -7.56   0
       390    653.9763     17.9594 300.3678069 +22.5680657     241.8674       72.237      1.400     2.70     5.294596     20.36988     47.19057         5     0.938     0.361  58.54   0
       391    557.4453     17.8336 300.3377896 +22.5391313     427.0898       72.237      1.430     4.04     4.468246     20.36988     40.53336         7     1.006     0.465  78.58   0
       392    233.8748   1009.8765 299.9149855 +22.7269005     1956.845     72.29212      7.330    12.88     71.48624     20.36988     60.28543        41     2.809     1.765 -77.99  19
       393    546.6714   1017.5573 300.0097758 +22.8229798     433.2436     72.16344      1.617     3.38     2.363645     20.36988     30.69969         5     1.071     0.309 -22.28  16
       394    415.9914   1015.1268 299.9699048 +22.7830698      546.317     72.18183      1.795     4.92     2.900777     20.36988     40.37607        11     1.276     0.756  77.17   0
       395    607.4527   1008.6545 300.0315935 +22.8386610     2382.084       72.237      1.899     4.33     2.878215     20.36988     149.3988        31     1.369     1.327  31.45   0
       396    182.7462    968.4568 299.9125721 +22.6996789     1400.351     72.25538     13.381    16.57     39.79102     20.36988     41.86237        32     3.328     2.293  65.27   3
       397    693.9836   1003.7642 300.0601296 +22.8632138     8491.996     72.20023      1.943     4.19     3.082072     20.36988     496.9981        50     1.598     1.426  52.94   3
       398    699.5557   1001.5533 300.0625846 +22.8642506     9275.125       72.237      1.906     4.31     3.112901     20.36988     510.3422        47     1.490     1.446 -75.39   3
