#   1 NUMBER                 Running object number                                     
#   2 X_IMAGE                Object position along x                                    [pixel]
#   3 Y_IMAGE                Object position along y                                    [pixel]
#   4 ALPHA_J2000            Right ascension of barycenter (J2000)                      [deg]
#   5 DELTA_J2000            Declination of barycenter (J2000)                          [deg]
#   6 FLUX_APER              Flux vector within fixed circular aperture(s)              [count]
#   7 FLUXERR_APER           RMS error vector for aperture flux(es)                     [count]
#   8 FLUX_RADIUS            Fraction-of-light radii                                    [pixel]
#   9 FWHM_IMAGE             FWHM assuming a gaussian core                              [pixel]
#  10 BACKGROUND             Background at centroid position                            [count]
#  11 THRESHOLD              Detection threshold above background                       [count]
#  12 FLUX_MAX               Peak flux above background                                 [count]
#  13 ISOAREA_IMAGE          Isophotal area above Analysis threshold                    [pixel**2]
#  14 A_IMAGE                Profile RMS along major axis                               [pixel]
#  15 B_IMAGE                Profile RMS along minor axis                               [pixel]
#  16 THETA_IMAGE            Position angle (CCW/x)                                     [deg]
#  17 FLAGS                  Extraction flags                                          
         1    216.8016     15.4729 300.2354388 +22.4424568     3961.912     72.13172      1.590     2.85     4.427886     20.38172     472.9149        35     1.353     1.184  62.16   0
         2    784.7616     15.9434 300.4121216 +22.6126062      542.454     72.24221      1.285     4.91     4.883515     20.38172     80.90763         9     1.237     0.634  65.10   0
         3    778.2848      8.2888 300.4125831 +22.6084663     852.1551      72.3709      1.244     2.38     4.898448     20.38172     102.4303        12     0.906     0.751  24.76   0
         4    264.6840      8.1929 300.2526893 +22.4547052     317.5413     72.16857      1.866     5.11     4.444767     20.38172     37.08906         6     1.053     0.702 -81.58   0
         5    332.7424      7.6624 300.2740327 +22.4749334     1170.373     72.29739      1.387     2.64     4.430142     20.38172     172.4537        17     1.053     0.954  35.52   0
         6    743.8472      7.3804 300.4021432 +22.5979019     291.0031     72.27901      1.422     3.40     4.900315     20.38172     36.75636         5     0.832     0.402 -21.95   0
         7    816.0401      3.2830 300.4259756 +22.6183208     695.5803     65.97133      1.543     3.77     4.782026     20.38172     69.37821        11     1.138     0.696  62.95  16
         8    739.4106      3.0510 300.4021634 +22.5953290     449.8766     64.99693      1.155     2.35     4.907782     20.38172     62.08813         6     0.732     0.488 -83.84  16
         9    401.0966   1009.8514 299.9698682 +22.7831697     648.0585     72.31578      2.483     5.77     3.336746     20.38172     39.87051         9     1.481     0.906  56.37   0
        10    341.2075   1023.2868 299.9468637 +22.7690531     432.7687     58.24467      1.255     3.76     13.58893     20.38172      90.5197        11     1.091     0.736  13.92  24
        11    276.2950   1011.9664 299.9303577 +22.7463277     2435.991     72.22381      6.477    25.42     56.65881     20.38172     68.35796       128     5.667     3.166  -7.84  19
        12    245.2817    998.0309 299.9252481 +22.7330247     4341.259     72.24221      8.259    36.82     63.10658     20.38172     86.82439       367     8.787     4.283 -88.81  19
        13    286.3636    987.7078 299.9413823 +22.7423932     8653.851     72.18699      7.667    32.34     38.77064     20.38172     176.3316       661    11.652     4.167  64.99  19
        14    278.8674    982.0891 299.9408791 +22.7385326     2266.683      72.3709      0.442     1.76     38.34101     20.38172     1799.626         6     0.611     0.162 -29.79   3
        15    176.8643   1019.5760 299.8969669 +22.7186668      1466.93     72.22381      3.074    13.39     90.66596     20.38172     52.74086        38     2.616     1.906 -13.53  24
        16    130.2087   1013.1476 299.8845573 +22.7028191     4837.991     72.24221     14.000    68.00     72.15391     20.38172     95.97315      1211    17.470     7.344  41.64  27
        17    123.5381    962.2576 299.8990414 +22.6862289     5155.956     72.29739     22.246    86.02     33.78982     20.38172     104.4306      3133    19.668    15.205 -12.94  19
        18    265.1171    996.4102 299.9319434 +22.7385127     5544.938      72.2054     11.950    46.81     52.52534     20.38172     97.58543       668    11.218     5.420 -61.12  27
        19      1.0000    990.0519 299.8519271 +22.6574087     714.1357     54.20159      4.152     4.90    -16.39445     20.38172     33.54876         7     2.097     0.324 -88.48  27
        20      2.4177    981.1428 299.8552659 +22.6552812     860.0893     62.11044      9.255     9.62    -13.08779     20.38172     40.66576        12     2.187     1.180  83.94  27
        21    212.0172    988.4667 299.9180173 +22.7202992     1611.709     72.22381      4.423    15.57     64.14532     20.38172     54.14385        50     3.683     1.831  67.81   1
        22     28.4078    984.4553 299.8622615 +22.6640338      583.566     72.24221      3.051     5.69     1.026562     20.38172     46.58808         9     1.241     0.736 -74.61   0
        23    973.0000    982.9224 300.1568077 +22.9469230     539.8132     72.11329      1.640     5.87     3.197161     20.38172     59.33819        12     1.371     0.770 -73.53   2
        24    970.3254    982.9794 300.1559548 +22.9461379     396.8492     72.24221      1.389     4.80      3.19852     20.38172     45.56931         8     1.526     0.429 -78.14   3
        25      1.2349    972.4437 299.8577286 +22.6524331     707.6534     55.70143      4.192     5.27     -10.8779     20.38172     54.06302        10     1.853     0.424 -89.64  25
        26    188.9522    965.6983 299.9182543 +22.7068490     1315.416     72.27901      5.248    13.17     45.91238     20.38172     52.77129        26     2.566     1.880  63.28   3
        27    679.0085    998.7017 300.0600238 +22.8633274     8439.252     72.11329      1.945     4.53     3.350688     20.38172     502.9863        44     1.513     1.395  11.32   3
        28    684.4986    996.3356 300.0625042 +22.8642946     9518.707     72.33416      1.931     4.51     3.352708     20.38172     526.8664        48     1.497     1.470 -50.16   3
        29    697.3145    965.5851 300.0765028 +22.8593115     6943.875     72.18699      1.882     4.05     3.365945     20.38172     433.5319        49     1.512     1.424  18.85   0
        30    605.7516    956.3717 300.0509782 +22.8292126     1589.205     72.26061      1.820     4.18     3.011619     20.38172     107.5784        24     1.306     1.173 -13.48   0
        31    499.5129    952.6344 300.0191146 +22.7962792     978.0353     72.22381      1.765     5.17     3.112646     20.38172     74.08656        22     1.356     1.229 -46.29   0
        32    192.7195    953.8017 299.9232957 +22.7045687     371.2197     72.15015      2.918     5.33     35.96713     20.38172     28.06123         5     1.244     0.646  16.51   0
        33    430.2267    950.7809 299.9981523 +22.7749650     6777.021     72.26061      1.826     3.93     3.238327     20.38172     548.0215        44     1.439     1.394  28.57   0
        34    779.2687    998.9917 300.0911714 +22.8934707     587.0578     72.22381      1.922     6.44     3.366432     20.38172     36.19224        12     1.399     0.833  -9.75   0
        35    154.4779    997.4365 299.8972122 +22.7056006     754.6057      72.2054      3.236     9.23     69.11179     20.38172     47.84048        14     2.099     1.133 -10.69   0
        36    463.1713    937.9921 300.0125659 +22.7811780     442.6228     72.24221      1.535     6.28     3.191713     20.38172     41.71005        11     1.097     1.010  10.28   0
        37    190.0589    969.3173 299.9174210 +22.7082187      1188.56     72.33416      5.670    10.17     48.39869     20.38172     50.61626        19     2.948     0.978  10.33   3
        38    976.5359    929.7806 300.1752013 +22.9327199     2207.902     72.22381      1.969     4.57     3.233755     20.38172     111.7284        33     1.533     1.311  12.92   0
        39     15.2457   1011.8314 299.8492658 +22.6679274     1205.725     72.29739     13.389    17.22    -11.30295     20.38172     34.11707        26     4.357     1.891  86.62  19
        40    626.7688    926.6942 300.0671789 +22.8269975     387.7365     72.16857      1.731     3.98     3.260589     20.38172     34.07766         6     1.139     0.397 -12.63   0
        41    765.5356    918.4048 300.1131107 +22.8662194     729.4717     72.22381      2.129     7.87     3.380801     20.38172     43.36255        14     1.539     1.125  43.95   0
        42    800.1860    912.6891 300.1257701 +22.8749643      992.033     72.18699      1.732     5.42     3.412195     20.38172     71.83911        20     1.311     1.156 -83.58   0
        43     15.9189   1003.0604 299.8523288 +22.6656160     1393.217     72.33416     10.239    11.74    -8.992329     20.38172      46.2775        30     2.246     1.710   3.78  19
        44     10.6242    909.6032 299.8810858 +22.6372413     612.4542      72.2054      1.837     4.23      3.15049     20.38172      50.8065         8     0.963     0.776 -68.01   0
        45    822.4257    906.3792 300.1347554 +22.8798180     11247.96     72.22381      1.806     3.96     3.424236     20.38172     711.3291        50     1.446     1.381 -24.40   0
        46    867.8663    906.2795 300.1489549 +22.8934076     349.7879     72.35253      1.616     4.76     3.420537     20.38172      32.7695         6     1.179     0.544  67.67   0
        47      9.7873    999.5007 299.8515823 +22.6627549     1442.269     72.15015     14.918    21.23    -12.88601     20.38172     39.86359        51     5.406     2.315  74.32  19
        48    403.8731    906.0816 300.0044919 +22.7542367     3035.214      72.3709      0.436     1.82     3.445745     20.38172     2525.588         6     0.367     0.288 -22.42   0
        49    150.6279    902.9425 299.9267549 +22.6773541     665.1232     72.24221      3.530     3.84     11.01696     20.38172     34.47532         5     1.281     0.329  25.10   0
        50      3.3403   1002.2882 299.8486728 +22.6616179     1461.541     66.29295      6.708    10.13    -18.57314     20.38172     39.98536        29     2.000     1.431  67.51  27
        51    134.0277    898.2955 299.9231067 +22.6710398     1091.951     72.16857      4.936     6.82     8.965889     20.38172     52.65548        18     1.601     1.039 -32.33   0
        52    527.9068    894.2383 300.0469500 +22.7880386     508.2373     72.24221      1.366     4.35     3.297726     20.38172     61.39807         7     1.064     0.506  57.04   0
        53    874.3359    893.8978 300.1549998 +22.8917906     358.6172     72.35253      1.539     4.31      3.44502     20.38172     38.84772         6     0.797     0.663  13.05   0
        54      4.3676   1013.0288 299.8454973 +22.6650043     2062.627     69.92327      9.606    21.14     -20.8788     20.38172     60.12386        89     4.647     2.673  34.11  27
        55    831.1061    888.4850 300.1432821 +22.8772812     1312.721     72.42599      1.751     4.64     3.458578     20.38172     81.12051        24     1.340     1.191  42.26   0
        56    124.6716    888.9742 299.9232304 +22.6655593     624.3358     72.24221      2.102     3.43     7.455081     20.38172     48.60855         5     0.820     0.414  71.72   0
        57   1013.5792    887.6631 300.2004589 +22.9317199     370.1209      72.2054      1.774     5.14     3.339781     20.38172     31.77687         7     0.983     0.760 -87.80   0
        58    683.3802    884.6035 300.0985053 +22.8318884     400.4918      72.2054      1.692     4.36     3.451141     20.38172     35.98747         7     1.078     0.564  43.63   0
        59    868.9949    881.9224 300.1572297 +22.8867509     697.0294     72.15015      1.647     4.82     3.469504     20.38172     63.46878        12     1.136     0.866  13.63   0
        60    978.8618    878.5284 300.1925990 +22.9186951     321.8369     72.27901      1.741     4.07     3.423162     20.38172     40.00137         5     0.764     0.620  66.49   0
        61    661.8903    875.2144 300.0948641 +22.8227508     252.5695     72.18699      1.631     5.62     3.469569     20.38172      30.3155         5     1.226     0.725 -78.48   0
        62    917.5800    873.4554 300.1751343 +22.8988773     576.3631     72.22381      1.759     6.66     3.487867     20.38172     43.92241        14     1.220     1.019   8.56   0
        63    768.5302    871.8820 300.1291766 +22.8537595     832.8237     72.35253      1.826     6.65     3.441536     20.38172     51.02768        15     1.325     0.937 -64.07   0
        64     27.9749    871.0833 299.8990029 +22.6314078      360.288      72.2054      1.973     3.99     3.993265     20.38172     38.01521         5     1.357     0.336 -32.00   0
        65    780.2674    869.3116 300.1336708 +22.8565392     624.6469     72.35253      1.736     6.14     3.462535     20.38172     63.44721        14     1.245     1.011  27.16   0
        66    481.4424    868.5428 300.0408423 +22.7667310     4176.717     72.18699      1.678     3.41     3.262192     20.38172     403.8186        35     1.321     1.255 -32.15   0
        67    592.5516   1003.2989 300.0315983 +22.8387201      2358.09     72.27901      1.889     4.29     2.693678     20.38172     168.9379        30     1.425     1.282 -52.60   0
        68    524.6002    856.5641 300.0581733 +22.7762353     392.5623      72.2054      1.699     5.61     3.425559     20.38172     30.12649         9     1.335     0.664  45.91   0
        69    206.8717    854.0309 299.9601454 +22.6802057     650.8314     72.24221      1.655     5.83      6.56346     20.38172     60.27209        16     1.266     1.057 -61.70   0
        70    183.7725    851.1624 299.9538970 +22.6724521     1608.822     72.26061      1.797     4.30     6.399951     20.38172     139.9437        27     1.361     1.303  65.51   0
        71    714.9003    839.8744 300.1228731 +22.8284951     464.1548      72.3709      1.832     6.66      3.45518     20.38172     36.20306         9     1.767     0.704 -68.02   0
        72     59.0081    840.6747 299.9185322 +22.6320043     337.9747     72.22381      1.516     4.24     4.066972     20.38172     36.77747         5     1.111     0.461  64.17   0
        73   1009.8904    838.8965 300.2151689 +22.9166048     2071.161     72.42599      1.834     4.36     3.467222     20.38172     120.3758        29     1.383     1.263  -5.41   0
        74    351.5215    840.1404 300.0096486 +22.7196158      1322.94     72.27901      0.695     0.92     3.770399     20.38172     641.3068         5     0.550     0.336 -11.53   0
        75    793.2537    832.8066 300.1495905 +22.8499484     665.1147     72.24221      1.644     4.48     3.495654     20.38172     54.31683        10     1.020     0.722  44.58   0
        76    216.5788    832.2719 299.9702387 +22.6768776      379.682     72.24221      1.460     4.27      5.42734     20.38172     36.81408         9     1.074     0.631  58.83   0
        77    541.2263    831.0444 300.0716485 +22.7738963     222.6555     72.26061      1.508     3.80     3.505513     20.38172     27.15745         5     0.810     0.510 -36.63   0
        78    661.4738    826.6035 300.1105429 +22.8086708     4939.554     72.15015      1.636     3.15     3.495924     20.38172     480.2877        35     1.266     1.237  35.97   0
        79    151.0276    827.5939 299.9513817 +22.6558678     488.8013     72.24221      1.497     4.12     4.990887     20.38172     34.62181         6     1.393     0.349 -28.83   0
        80    463.6110    823.7516 300.0498575 +22.7485302     573.3804     72.26061      1.434     2.53     3.493742     20.38172     89.22013        10     0.858     0.792  24.64   0
        81    211.6545    820.3356 299.9725886 +22.6719767     1412.786     72.29739      1.763     3.79     4.800972     20.38172     131.0245        23     1.296     1.149   8.31   0
        82    682.1105    818.9404 300.1194639 +22.8126564      712.118     72.33416      1.525     4.17     3.489415     20.38172     71.63647        14     1.134     0.913   2.11   0
        83    231.1598    817.1716 299.9796821 +22.6769210      346.603     72.26061      1.614     3.02     4.595249     20.38172     37.10152         8     0.805     0.673 -49.31   0
        84    599.2573    809.8356 300.0966157 +22.7852065     329.5653     72.24221      1.384     4.41     3.526499     20.38172     36.86379         7     0.850     0.650  64.32   0
        85    837.5424    806.4667 300.1719618 +22.8556551     4284.516     72.27901      1.637     3.38     3.503601     20.38172     339.9584        34     1.302     1.194 -15.92   0
        86    246.0696    800.3670 299.9897817 +22.6765736     562.7057     72.22381      1.947     4.52     3.805155     20.38172     42.01213         9     0.996     0.676 -51.07   0
        87    554.6542    798.8947 300.0862830 +22.7686942     611.1347     72.29739      1.630     4.04     3.545943     20.38172     61.52713        12     1.008     0.936  69.92   0
        88    200.7583    796.7400 299.9768723 +22.6619399     936.5136     72.22381      1.743     3.85     3.798868     20.38172     93.16846        19     1.182     1.117  56.54   0
        89    350.5214    788.8913 300.0260004 +22.7046120     54001.68     72.38927      1.653     3.23     3.822787     20.38172     5668.253       100     1.482     1.399  21.00   0
        90    608.6030    788.0761 300.1066010 +22.7817614     1734.461     72.15015      1.534     2.91     3.536343     20.38172     175.4044        24     1.160     1.082  -6.99   0
        91   1021.2281    787.1417 300.2355357 +22.9051302      864.762      67.9369      1.850     5.67     3.620442     20.38172     56.94235        20     1.385     1.110 -62.09  16
        92    616.4785    791.9956 300.1077796 +22.7852474     521.4276     72.15015      1.595     4.08     3.530907     20.38172     70.45499        10     1.037     0.757 -53.45   0
        93    279.1931    786.4488 300.0046074 +22.6825171     567.5096     72.24221      1.643     4.73      3.82327     20.38172     53.05042         9     1.204     0.691 -76.45   0
        94    637.3343    784.2439 300.1167961 +22.7892734     867.7349     72.22381      1.368     3.33     3.517907     20.38172     87.93768        14     1.049     0.852 -22.85   0
        95      3.8445    783.8572 299.9198667 +22.5991583     700.6317      68.2882      1.976     5.41     4.131316     20.38172     50.62234        13     1.296     1.117  -0.66  24
        96     36.6613    783.3322 299.9302319 +22.6088565     820.9406     72.29739      1.950     4.65     4.025788     20.38172     73.16927        15     1.335     1.038  44.31   0
        97    647.9716    782.3679 300.1207195 +22.7919232     525.6201     72.24221      1.439     4.11     3.510506     20.38172     59.56059        10     1.042     0.794 -36.14   0
        98    968.0272    779.0189 300.2215789 +22.8868614     251.2771     72.26061      1.427     3.80     3.664904     20.38172     34.67802         5     0.702     0.590  -0.20   0
        99    754.1569    778.7704 300.1549746 +22.8227141     472.9944     72.27901      1.425     5.16      3.50081     20.38172     45.89688        10     0.974     0.772 -16.64   0
       100    221.1443    777.7724 299.9893767 +22.6626150     243.9482     72.24221      1.506     3.95     3.828805     20.38172     31.41531         5     1.000     0.446 -46.87   0
       101    377.4695    776.9938 300.0382523 +22.7092800       998.17      72.2054      0.595     2.05     3.799952     20.38172     476.6528         5     0.545     0.238   0.70   0
       102    791.3541    769.0590 300.1697256 +22.8310713     745.7067     72.27901      1.575     4.34     3.514301     20.38172     77.80785        15     1.141     1.081  59.62   0
       103    400.2570    766.1463 300.0488691 +22.7130008      31467.2     72.29739      1.552     2.98     3.754491     20.38172     3265.606        78     1.396     1.336  10.10   0
       104    923.5228    762.1817 300.2131712 +22.8686929     2777.173     72.24221      1.616     3.43     3.728648     20.38172     230.7589        28     1.288     1.105 -12.70   0
       105    411.5661    760.6790 300.0541656 +22.7148231     639.6449     72.18699      1.606     2.79     3.720768     20.38172     71.49225         9     0.914     0.717 -46.05   0
       106    681.4224    758.0374 300.1390503 +22.7949628     978.6189     72.26061      1.460     3.14      3.49398     20.38172     103.1081        14     1.043     0.856  10.27   0
       107    517.9335    758.3074 300.0880445 +22.7460347     498.4008     72.38927      1.343     4.26     3.583092     20.38172     51.93559         7     0.770     0.672   0.70   0
       108    282.8274    757.7830 300.0150562 +22.6753831     852.2967     72.26061      1.580     3.77     3.961375     20.38172     91.90444        13     1.030     0.929 -36.32   0
       109    528.4655    752.7834 300.0931193 +22.7476064     842.5715     72.22381      1.478     3.26     3.585462     20.38172      94.8238        17     1.072     0.986  85.74   0
       110     87.6339    753.6607 299.9557144 +22.6156435     432.7459     72.26061      1.497     5.16     3.862096     20.38172     54.34062         9     1.256     0.598   4.16   0
       111    929.9170    750.1035 300.2190920 +22.8671381     499.5796     72.40763      1.423     4.29     3.810408     20.38172     44.72194         6     0.818     0.642 -10.95   0
       112    474.4116    747.7363 300.0779323 +22.7299521     419.3421      72.2054      1.331     2.57     3.607135     20.38172        69.81         8     0.788     0.746   7.11   0
       113    414.4944    766.7813 300.0530931 +22.7174524     2248.221     72.16857      1.751     3.50     3.696212     20.38172     205.3449        27     1.228     1.179  33.22   0
       114    116.3285    747.5145 299.9666295 +22.6224904     499.3777     72.35253      1.539     2.98     3.806352     20.38172      63.1939         8     0.869     0.717 -27.11   0
       115    682.8962    747.4525 300.1429504 +22.7923650     416.2286     72.31578      1.723     3.33     3.494441     20.38172     38.49018         6     0.782     0.498  -1.01   0
       116    906.7321    744.7107 300.2136141 +22.8586437     342.7778     72.38927      1.536     5.32     3.787365     20.38172       37.952         8     0.981     0.814 -77.61   0
       117    280.3869    742.0905 300.0193979 +22.6701488     491.9103     72.18699      1.437     4.40     4.030125     20.38172     52.67779         9     1.339     0.559  15.78   0
       118    603.6552    732.7226 300.1230542 +22.7643860     404.0617     72.27901      1.361     3.75     3.564131     20.38172     61.66966         9     1.197     0.678  12.78   0
       119    573.3714    730.9986 300.1141833 +22.7548138     585.9517      72.2054      1.409     3.68     3.606686     20.38172     65.27068        11     0.999     0.750 -21.40   0
       120    989.8226    727.4506 300.2451426 +22.8785716     4453.667     72.24221      1.712     3.50     4.065443     20.38172     347.7804        37     1.335     1.284   6.98   0
       121    595.2797    728.4192 300.1218445 +22.7606400     1296.615     72.24221      1.436     2.93     3.593249     20.38172     134.5663        17     1.045     0.941 -66.24   0
       122    676.2120    723.7054 300.1485868 +22.7835425     302.0822     72.16857      1.331     4.87     3.529608     20.38172     36.87733         8     1.039     0.646  -6.28   0
       123    978.1767    718.9666 300.2442671 +22.8726458     1761.148     72.26061      1.689     3.63     4.041532     20.38172     151.5456        26     1.291     1.160  20.40   0
       124    357.3785    713.1758 300.0527450 +22.6849415     213.8579     72.22381      1.280     3.42     3.927948     20.38172     26.88997         5     0.781     0.433  70.37   0
       125    341.2452    712.5936 300.0479150 +22.6799365     809.7462     72.26061      1.454     3.12     3.957941     20.38172     110.9048        15     1.033     0.917  20.79   0
       126   1009.3419    709.0338 300.2572187 +22.8791246     1623.688     72.26061      1.722     3.68      4.11221     20.38172     128.3083        23     1.264     1.110  80.38   0
       127    804.7083    710.0292 300.1930766 +22.8181167     2519.071      72.2054      1.647     4.03     3.663149     20.38172     212.7128        30     1.482     1.161   5.26   0
       128     27.5154    700.4095 299.9543417 +22.5823333     780.1682     72.18699      1.565     3.58     4.015272     20.38172     92.33919        14     1.179     0.853   4.79   0
       129    189.8190    696.6618 300.0060001 +22.6299501      683.798     72.22381      1.595     3.54     3.990695     20.38172     74.74598         9     0.886     0.795 -12.70   0
       130    887.2374    696.0497 300.2233515 +22.8388232     618.0747     72.24221      1.480     3.14     3.879251     20.38172     67.06173         7     0.718     0.687 -22.38   0
       131    923.0505    687.0817 300.2374350 +22.8469731     147848.3     72.26061      1.550     3.12     3.989187     20.38172      12529.8       160     1.505     1.468  11.42   0
       132    685.8263    690.8314 300.1622666 +22.7769825     303.3353     72.24221      1.044     2.53     3.605007     20.38172     50.19194         6     0.698     0.582  45.98   0
       133    775.4119    687.3155 300.1913267 +22.8028148     743.1108     72.18699      1.395     3.76     3.664458     20.38172     84.93299        15     1.199     0.829  35.04   0
       134    955.7228    679.7517 300.2500081 +22.8546519     388.5639     72.24221      1.520     5.15     4.050254     20.38172     38.22409         8     0.972     0.771  67.29   0
       135    609.2576    675.8614 300.1432792 +22.7497378     1617.488     72.29739      1.420     2.78     3.735981     20.38172     194.7729        21     1.159     0.952 -14.04   0
       136    790.5697    673.2084 300.2006359 +22.8033034     9297.003     72.24221      1.467     2.75     3.777753     20.38172     996.6551        40     1.241     1.158  45.98   0
       137    292.0108    668.1808 300.0470326 +22.6524271     4857.732      72.2054      1.482     2.96     3.937862     20.38172     470.4961        33     1.248     1.133 -12.40   0
       138      5.7077    666.6395 299.9585401 +22.5661051     1640.803     72.24221      1.725     3.74     3.990756     20.38172     195.5301        26     1.397     1.185 -10.18  16
       139    374.1426    666.3730 300.0731702 +22.6765357     1180.155     72.24221      1.415     2.93     3.704604     20.38172     137.9844        18     1.131     0.941   7.49   0
       140    249.7005    663.8093 300.0352944 +22.6384843     527.8626     72.15015      1.713     3.37     4.025813     20.38172     63.68948         9     0.939     0.829  51.86   0
       141    582.3466    661.8801 300.1394411 +22.7376578     731.0212     72.27901      1.188     2.44     3.931399     20.38172     106.8496        11     0.837     0.791  40.72   0
       142    573.9601    654.0412 300.1393765 +22.7328934     3163.279     72.33416      1.373     2.65     4.001393     20.38172     395.8463        25     1.062     1.051  13.90   0
       143     99.9216    651.2119 299.9928253 +22.5899454     333.4754     72.22381      1.695     3.82     4.031409     20.38172     31.50297         5     1.183     0.353  10.50   0
       144    564.2728    647.7833 300.1383931 +22.7281931     1334.895     72.24221      1.277     2.46     4.060588     20.38172     188.6077        16     0.974     0.867  -6.90   0
       145    760.0148    646.7785 300.1997006 +22.7865570     239.9052     72.22381      1.421     4.28     3.792028     20.38172     34.83475         5     1.092     0.479 -38.19   0
       146    492.9275    646.8648 300.1164778 +22.7065456     306.4164     72.27901      1.285     3.93     3.974591     20.38172     40.77416         5     0.801     0.551 -34.85   0
       147    957.8555    645.9659 300.2616526 +22.8455809     520.9744     72.26061      1.728     3.67     4.067545     20.38172     56.34057         8     1.036     0.639  -6.26   0
       148    227.5744    643.7462 300.0349328 +22.6260917      506.771     72.26061      1.542     4.44      4.11049     20.38172     68.93314        14     1.154     0.923  38.16   0
       149    241.6711    642.3677 300.0397641 +22.6299236     608.3345     72.24221      1.522     3.91     4.091293     20.38172     62.14481        10     0.969     0.859 -76.95   0
       150   1011.0908    638.9447 300.2805421 +22.8595036     467.7425     72.29739      1.500     4.76     4.095804     20.38172     49.62864        10     1.133     0.754  50.01   0
       151    267.3889    638.9026 300.0488876 +22.6366416      530.915     72.13172      1.418     3.52     4.055728     20.38172     74.47011        10     0.903     0.885 -15.03   0
       152    588.1266    638.0751 300.1489761 +22.7325540     497.9113     72.31578      1.415     2.99     4.043492     20.38172     51.15603         9     0.791     0.751  51.60   0
       153    489.0028    637.4384 300.1183188 +22.7026628      1686.66     72.27901      1.428     2.89     3.966769     20.38172     194.6845        19     1.044     1.017  32.04   0
       154    522.9876    637.1514 300.1289923 +22.7127666      175.762     72.27901      1.181     3.80      4.07794     20.38172     36.93237         5     0.824     0.503 -56.63   0
       155    142.9536    632.2852 300.0123487 +22.5974236     19742.47     72.22381      1.635     3.20     4.161586     20.38172     1889.568        63     1.420     1.369  35.78   0
       156     64.1061    633.9251 299.9873120 +22.5742425     733.3881     72.38927      1.736     4.60     4.011525     20.38172      55.7717        14     1.207     0.869  27.03   0
       157    573.9481    632.7325 300.1462963 +22.7267707     1032.768     72.26061      1.433     2.64      4.10091     20.38172     124.7894        14     0.935     0.862  56.06   0
       158    609.2230    632.1041 300.1574866 +22.7371613     281.4664     72.15015      1.110     2.25     4.035355     20.38172     59.02522         6     0.749     0.606   6.67   0
       159    629.0015    625.1987 300.1658908 +22.7411048     258.4391     72.02106      1.435     3.86      4.07959     20.38172     32.02065         6     0.908     0.470 -37.84   0
       160    327.8661    624.4116 300.0724064 +22.6506168     258.3066      72.2054      1.410     3.50     3.901924     20.38172     38.44735         5     0.778     0.456 -17.15   0
       161    657.1583    620.5546 300.1761709 +22.7482078     285.4507     72.29739      1.227     4.01     4.103658     20.38172     31.65662         6     0.919     0.674  73.92   0
       162    991.9972    619.3016 300.2809674 +22.8481404     945.9941     72.15015      1.493     3.27     4.081937     20.38172     94.91028        16     1.088     0.940   6.44   0
       163    858.6432    617.3651 300.2400038 +22.8076494     501.8071     72.29739      1.373     3.41      4.00179     20.38172     58.41081        11     0.990     0.786  38.51   0
       164     89.0854    616.5148 300.0007300 +22.5767413     1464.604      72.3709      1.913     4.64     4.020477     20.38172      126.773        24     1.451     1.079 -88.34   0
       165    631.3795    613.7870 300.1703390 +22.7385398     132.0751      72.2054      1.216     3.48     4.160881     20.38172     26.33372         5     1.258     0.277  35.18   0
       166    537.4453    613.2958 300.1412443 +22.7102496      413.133     72.26061      1.138     2.77     4.182591     20.38172     62.33654         6     0.683     0.622 -64.61   0
       167    932.3777    611.7336 300.2648281 +22.8281129     964.7979     72.22381      2.199     2.94     4.068318     20.38172     94.40513        13     1.024     0.901 -44.37   0
       168    494.0452    605.4183 300.1302913 +22.6949803     840.5665     72.26061      1.402     2.95     4.003988     20.38172     102.1232        13     1.046     0.749  76.33   0
       169    642.0205    604.3688 300.1767135 +22.7390230     627.8865     72.24221      1.455     2.53     4.198617     20.38172     69.41246         7     0.721     0.641  14.77   0
       170    689.1292    602.9607 300.1918474 +22.7527329      430.782     72.18699      1.175     2.25     4.158483     20.38172     68.53468         8     0.767     0.643  45.66   0
       171    659.8641    602.5195 300.1828730 +22.7438381     618.7692     72.35253      1.467     2.81     4.199083     20.38172     83.02484        10     0.946     0.712 -68.87   0
       172    538.2668    601.4708 300.1453417 +22.7071001     868.0229     72.27901      1.442     3.29     4.198252     20.38172     104.0651        15     1.097     0.938  33.27   0
       173    972.1298    597.1077 300.2819799 +22.8358122     3348.836      72.3709      1.510     3.04      4.07246     20.38172     340.0128        27     1.206     1.113  12.11   0
       174    503.7491    596.9227 300.1360721 +22.6954492     1754.556     72.24221      1.384     2.48     4.055904     20.38172     237.2074        20     1.054     0.981  34.96   0
       175    868.9626    594.6422 300.2506039 +22.8042101     129.2534     72.33416      1.149     3.88     4.007661     20.38172     29.44871         5     0.898     0.479   0.31   0
       176    854.8132    593.3578 300.2466091 +22.7996035     314.0573     72.26061      1.792     3.65     4.005033     20.38172      28.7701         5     0.999     0.383  85.49   0
       177     65.7121    590.4856 300.0019220 +22.5622630     5137.938      72.3709      1.710     3.44     4.008733     20.38172     494.5149        41     1.411     1.303  30.71   0
       178    478.9333    592.3480 300.1298328 +22.6866980     251.4895     72.26061      1.303     3.42     3.959207     20.38172     36.08289         5     0.777     0.435 -17.56   0
       179    533.2754    588.0172 300.1481579 +22.7017407     230.3042     72.24221      1.223     3.87     4.180502     20.38172     48.26997         7     0.900     0.670  83.87   0
       180   1010.8619    587.2529 300.2972654 +22.8445760     250.4117     72.29739      1.125     4.28     4.089359     20.38172     33.94746         6     0.787     0.665  74.05   0
       181    367.2352    583.6840 300.0978850 +22.6507292     9002.226      72.2054      1.403     2.63     3.843196     20.38172     1182.421        40     1.214     1.135  47.31   0
       182    625.1112    584.4485 300.1779174 +22.7282348     320.6617     72.24221      1.340     3.29     4.199393     20.38172     39.91141         6     0.752     0.630 -53.48   0
       183    489.6812    580.7322 300.1369519 +22.6865839     8969.751     72.35253      1.380     2.41     4.018257     20.38172     1279.158        36     1.143     1.106  60.74   0
       184    735.8494    577.0210 300.2148325 +22.7592770     175.7227     72.24221      1.255     3.76     4.109781     20.38172     38.70889         5     0.808     0.503  37.16   0
       185    901.3560    574.6733 300.2671925 +22.8081718     1731.203     72.22381      1.490     3.08     4.012215     20.38172     197.5287        24     1.211     1.077  65.85   0
       186    985.9948    572.1858 300.2944015 +22.8327996     12578.21     72.11329      1.540     3.02     4.074707     20.38172     1212.181        49     1.327     1.286 -56.43   0
       187    550.2308    570.3748 300.1591682 +22.7017552     11575.23     72.24221      1.367     2.48     4.226007     20.38172     1280.061        43     1.193     1.154  84.33   0
       188    720.0472    566.1975 300.2134238 +22.7514337     583.5667     72.24221      1.294     3.23     4.157023     20.38172     79.48779         8     0.898     0.673 -60.86   0
       189    277.6646    565.7269 300.0758541 +22.6187212     1378.393     72.27901      1.432     2.84     4.040015     20.38172     170.1025        16     1.008     0.928  13.04   0
       190    435.5503    564.3777 300.1254147 +22.6656640     352.6555     72.24221      1.614     5.10     3.807118     20.38172     42.41511         7     1.011     0.794  62.25   0
       191    524.8325    563.4856 300.1534975 +22.6921656     350.1218      72.2054      1.193     2.50     4.160659     20.38172     56.20899         6     0.745     0.500   1.53   0
       192    481.9564    558.5030 300.1417674 +22.6778855     4524.376     72.26061      1.405     2.55     4.021156     20.38172     540.7162        27     1.105     1.055  66.77   0
       193    825.1525    558.5123 300.2486806 +22.7807068     933.2347     72.22381      1.567     3.04     3.999519     20.38172      115.726        16     1.047     0.957 -76.99   0
       194    460.2730    556.7611 300.1355835 +22.6708868     1363.248     72.22381      1.428     2.74     3.922663     20.38172     166.0264        16     1.022     0.896  30.68   0
       195    214.3692    556.1935 300.0592670 +22.5970067     641.4434     72.24221      1.363     3.40     4.046659     20.38172      84.6601        12     1.054     0.839  48.00   0
       196    901.6841    554.1287 300.2739683 +22.8023651     1533.796     72.35253      1.476     3.09     3.991322     20.38172     161.2506        20     1.177     0.971 -29.87   0
       197    148.0487    554.2663 300.0392747 +22.5765660     245.0598     72.24221      1.203     4.62     4.060281     20.38172     59.40652         7     1.008     0.601 -14.08   0
       198    598.5709    546.0685 300.1821171 +22.7092585     200508.4     72.22381      1.376     2.45     4.202806     20.38172        26489       195     1.459     1.389  -8.28   0
       199    782.4004    551.0898 300.2377642 +22.7657696     776.5743     72.13172      1.400     2.97     4.067134     20.38172     92.01755        14     0.953     0.944  48.82   0
       200    875.8332    549.8134 300.2673083 +22.7933840     211.2008     72.22381      1.385     3.61     3.966147     20.38172     36.64008         5     1.131     0.331 -10.92   0
       201    284.6028    545.9505 300.0844350 +22.6151248     3564.793     72.24221      1.446     2.60      4.00818     20.38172     507.6298        29     1.163     1.110  26.75   0
       202    850.3692    542.4641 300.2617553 +22.7836464     392.6828     72.26061      1.132     3.51     3.969725     20.38172     52.57824         6     0.866     0.483 -89.95   0
       203    630.0392    532.9966 300.1961643 +22.7149316     288.5822     72.26061      1.349     3.09      4.20168     20.38172     33.67558         5     0.628     0.596  89.80   0
       204    489.1625    526.5113 300.1544008 +22.6708579     2753.248     72.22381      1.436     2.38      4.08851     20.38172     296.9232        29     1.413     1.006  81.32   0
       205    333.5390    528.4987 300.1053248 +22.6247853     377.0851     72.31578      1.141     3.47      4.01464     20.38172     40.07212         6     0.894     0.437 -18.22   0
       206    900.8611    522.8019 300.2838863 +22.7931142     283.9698      72.2054      1.233     3.96     3.989027     20.38172     50.97092         7     1.077     0.669  30.96   0
       207    719.7891    522.1482 300.2276502 +22.7387002     308.3389     72.24221      1.175     2.66     4.155549     20.38172     44.63273         6     0.723     0.565 -28.18   0
       208    806.5245    515.1153 300.2569680 +22.7626564      331.851     72.35253      1.181     2.88     4.019581     20.38172     52.77476         7     0.845     0.586  13.41   0
       209    886.2858    512.6418 300.2826405 +22.7858297     1550.382      72.2054      1.391     2.72     3.986491     20.38172     203.2435        18     1.015     0.970 -51.11   0
       210    772.8032    512.9096 300.2471728 +22.7519237     120.6517     72.15015      1.075     2.97      4.06334     20.38172     36.34052         5     0.769     0.504 -34.32   0
       211     16.2614    511.1737 300.0123150 +22.5246765     879.2073     72.24221      2.031     4.46     4.001554     20.38172     75.89827        15     1.227     1.036 -47.62   0
       212    757.3947    510.2587 300.2432310 +22.7465471     2568.259      72.2054      1.355     2.57     4.080349     20.38172     296.5754        21     1.064     0.955  73.51   0
       213    117.2187    510.4530 300.0439199 +22.5547479     260.8751     72.22381      1.309     3.40     3.957879     20.38172     43.34732         5     0.881     0.492   5.95   0
       214    966.7056    507.5805 300.3093675 +22.8084518     325.6724     72.16857      1.397     4.14     4.009887     20.38172     36.61686         8     1.054     0.665   8.85   0
       215    662.1712    507.0852 300.2145890 +22.7171134     421.0206     72.24221      1.355     2.88     4.202625     20.38172     58.80073         8     0.833     0.628 -39.05   0
       216    544.5655    505.8070 300.1783739 +22.6815127      714.415     72.24221      1.386     3.21     4.182703     20.38172     120.5183        12     1.039     0.808  77.19   0
       217   1014.7313    504.2751 300.3254245 +22.8218780     1254.837     72.31578      1.555     3.29       4.0078     20.38172     132.0889        20     1.179     1.020   7.30   0
       218   1000.5881    503.4250 300.3212877 +22.8174000     954.8221     72.24221      2.304     3.71     4.005163     20.38172     70.15712        14     1.044     0.990  82.88   0
       219    886.5082    502.7139 300.2859339 +22.7830425     2223.784     72.40763      1.641     3.37     3.992224     20.38172     210.3904        29     1.544     1.035  72.42   0
       220    639.5131    500.9721 300.2095154 +22.7085696     562.7499     72.24221      1.284     2.52      4.20012     20.38172      87.6604        10     0.935     0.651  28.01   0
       221    924.6490    497.7380 300.2994450 +22.7930315      4284.38     72.29739      1.457     2.69      4.00308     20.38172     515.4859        32     1.177     1.145 -86.12   0
       222    478.2327    499.5828 300.1597430 +22.6598489      411.488     72.22381      1.231     2.46     4.104805     20.38172      58.0584         5     0.686     0.478 -14.16   0
       223    565.6999    497.4038 300.1876839 +22.6854312     293.3306     72.11329      1.413     4.58     4.180664     20.38172     36.94292         8     0.995     0.828  48.73   0
       224    639.1244    496.9657 300.2106953 +22.7073021     470.3262     72.24221      1.398     3.40     4.199657     20.38172     46.99458         5     0.957     0.392 -27.15   0
       225    661.9963    493.8342 300.2188375 +22.7132538     321.3772     72.24221      1.324     3.82     4.200348     20.38172     36.60098         6     0.924     0.453  36.79   0
       226    585.1503    493.6613 300.1949566 +22.6901834     435.0583     72.29739      1.390     2.91     4.187038     20.38172     57.63299         8     0.810     0.676 -88.25   0
       227   1016.3375    488.3242 300.3311056 +22.8177724     706.3271     72.29739      1.390     3.26     3.969012     20.38172     79.95051        12     0.979     0.807  25.16   0
       228    156.8726    488.0471 300.0635207 +22.5602085     1062.331     72.24221      1.474     3.33     3.867062     20.38172     136.1571        15     1.130     0.904 -20.06   0
       229    817.7285    481.8477 300.2712639 +22.7564502      228.252     72.22381      1.085     2.02     4.022407     20.38172     51.43333         6     0.711     0.524  33.47   0
       230    149.1168    478.3691 300.0642519 +22.5551054     383.6191     72.24221      1.612     4.35     3.869139     20.38172     53.54412         6     0.988     0.680  53.37   0
       231   1013.1129    477.5244 300.3336064 +22.8137017     295.7477      72.3709      1.527     4.19     3.953813     20.38172     39.46931         5     0.912     0.550 -45.09   0
       232    583.7682    475.6056 300.2003888 +22.6845824     152.4135     72.24221      1.208     3.69     4.172749     20.38172     30.66053         5     0.960     0.408 -83.00   0
       233    757.1817    472.3346 300.2554794 +22.7355848     461.7874     72.22381      1.400     2.92     4.042549     20.38172     58.00192         8     0.946     0.578 -21.56   0
       234    645.8767    469.9088 300.2215843 +22.7015510     495.3557     72.38927      1.398     3.50     4.177882     20.38172     54.63723        10     1.074     0.609 -18.88   0
       235    365.5526    470.3778 300.1341573 +22.6176935     236.2577     72.26061      1.357     4.23     4.166497     20.38172     29.26859         5     1.055     0.483  -2.31   0
       236    698.1929    468.2130 300.2384345 +22.7167337     721.9348     72.13172      1.275     2.73     4.117699     20.38172     98.92196        12     0.916     0.781  25.01   0
       237   1012.6573    460.9803 300.3388361 +22.8088081     512.8068     72.24221      1.285     2.95     3.953813     20.38172      68.3504        10     0.913     0.723  36.55   0
       238    758.8679    460.5049 300.2598459 +22.7326900     896.5928     72.38927      1.388     3.00     4.061339     20.38172     115.4277        15     1.063     0.863  22.79   0
       239    916.2059    456.6722 300.3101461 +22.7786978     1046.957     72.18699      1.511     3.01     4.005892     20.38172     136.1391        16     1.028     1.010  33.55   0
       240    900.2768    453.0890 300.3063414 +22.7728989     555.8871     72.38927      1.364     2.75     4.009017     20.38172     75.76346        10     0.887     0.732  -2.00   0
       241    880.7595    453.2735 300.3001949 +22.7671089     337.6335     72.22381      1.244     4.35     4.012342     20.38172      40.1916         7     0.864     0.624  29.75   0
       242    644.6356    450.9938 300.2273388 +22.6957444     3340.621     72.26061      1.317     2.36     4.143008     20.38172     467.8833        23     1.020     0.994  52.64   0
       243   1004.8628    449.6884 300.3400703 +22.8032281     522.5525     72.33416      1.493     4.82     3.958587     20.38172     58.54013        10     1.127     0.658 -82.25   0
       244    120.8281    442.2614 300.0671810 +22.5362601     365.5403     72.24221      1.416     2.88     3.991348     20.38172     52.24601         7     0.843     0.565  36.92   0
       245    416.6207    438.3666 300.1604411 +22.6238051     278.5177     72.24221      1.334     2.88     4.050164     20.38172     65.66471         6     1.019     0.480 -85.52   0
       246    484.4999    438.1756 300.1816313 +22.6440895     338.1196     72.18699      1.367     2.59        4.103     20.38172     53.64848         7     0.829     0.588  15.37   0
       247    928.0333    429.9231 300.3225195 +22.7745477     602.8303     72.24221      1.434     3.55     4.004261     20.38172     67.50114         9     0.885     0.762 -72.90   0
       248   1014.2040    428.7641 300.3497783 +22.8000067     1043.141     72.26061      1.627     2.88     3.953216     20.38172     116.8757        16     1.046     1.019 -23.71   0
       249    551.0562    425.6193 300.2064299 +22.6604223     483.1317     72.22381      1.276     3.26     4.089696     20.38172     64.54511         9     0.956     0.641  50.99   0
       250    755.2106    425.0249 300.2702247 +22.7213974     1082.622     72.24221      1.327     2.42     4.102388     20.38172     136.6752        11     0.866     0.773  45.76   0
       251    259.3563    423.1518 300.1164537 +22.5723038     650.0253     72.26061      1.397     3.18     4.252872     20.38172     85.36904        14     1.180     0.712  -7.15   0
       252    321.5393    418.7518 300.1372236 +22.5896781     3727.664     72.29739      1.445     2.54     4.411895     20.38172     516.2148        33     1.240     1.107  49.57   0
       253    268.7482    413.5538 300.1224901 +22.5723632     7737.855     72.27901      1.447     2.53     4.327915     20.38172     1046.671        38     1.235     1.124  58.05   0
       254    647.4194    413.1133 300.2405033 +22.6856934     355.4535     72.18699      1.464     4.32     4.084177     20.38172     37.37207         7     0.884     0.602  16.85   0
       255    409.5448    407.8029 300.1681602 +22.6129067     4921.779     72.18699      1.350     2.33     4.182768     20.38172     748.9651        35     1.180     1.066  56.91   0
       256    653.7874    404.5068 300.2452809 +22.6851274     18492.55     72.18699      1.326     2.31     4.088439     20.38172     2816.519        56     1.272     1.137  64.82   0
       257    671.0214    404.8715 300.2505317 +22.6903936     914.9579     72.24221      2.131     6.59     4.081428     20.38172     59.54519        17     1.517     0.861 -49.23   0
       258    501.1461    406.3534 300.1971435 +22.6399356     239.6188     72.27901      1.219     3.47     4.099741     20.38172     37.85714         5     0.813     0.427  18.13   0
       259    280.9258    402.7164 300.1297952 +22.5729014     311.2496     72.33416      1.172     2.96     4.395722     20.38172      42.6713         7     0.745     0.634  -8.77   0
       260    850.9919    395.1542 300.3097801 +22.7414885      311.144     72.26061      1.246     2.50     4.183571     20.38172     63.55434         6     0.853     0.460 -37.52   0
       261    273.9759    391.2718 300.1313481 +22.5675322     357.9572     72.27901      1.321     2.92     4.392285     20.38172     48.09742         8     0.798     0.734   0.39   0
       262    987.1746    387.3160 300.3547997 +22.7799973     790.9993     72.22381      1.567     3.01     4.267928     20.38172     93.46713        16     1.096     0.935 -57.82   0
       263    208.4597    384.5586 300.1131526 +22.5459675     1948.693     72.22381      1.406     2.62     4.306489     20.38172     267.6555        21     1.103     0.989  39.12   0
       264   1008.0981    374.4883 300.3654916 +22.7825699     1193.045     72.40763      1.489     3.36     4.454591     20.38172     157.1424        19     1.257     0.900  43.15   0
       265    594.4406    373.9595 300.2367092 +22.6585747     6657.821     72.31578      1.325     2.36     4.189138     20.38172     890.9496        34     1.114     1.060  64.11   0
       266    309.2038    373.2000 300.1481708 +22.5729005     604.9841     72.02106      1.351     2.62     4.432314     20.38172     78.44707        11     0.891     0.768 -34.72   0
       267    167.0912    366.7654 300.1060653 +22.5284587     559.7081     72.22381      1.522     4.11     4.418029     20.38172     54.07178        10     1.127     0.683 -28.56   0
       268    854.5217    365.6640 300.3204525 +22.7340664     355.2467     72.33416      1.105     3.30     4.297497     20.38172     48.99009         6     0.923     0.418  70.58   0
       269     14.2804    364.3468 300.0593601 +22.4819510     1267.805     72.26061      1.495     2.88     4.272672     20.38172     152.6433        18     1.063     0.988 -37.45   0
       270    798.5134    363.0176 300.3038493 +22.7165387     1220.333     72.18699      1.392     2.63     4.340758     20.38172     151.5662        15     1.009     0.916  85.46   0
       271    708.1521    364.2916 300.2752723 +22.6898499     450.0648     72.26061      1.164     3.01     4.073207     20.38172     66.82631         8     0.909     0.626  -9.94   0
       272    501.0981    360.2101 300.2121047 +22.6266648      6127.11     72.13172      1.327     2.42     4.189096     20.38172     768.8198        34     1.152     1.071  61.42   0
       273    893.0175    354.7006 300.3360151 +22.7424370     1439.584     72.15015      1.475     2.66     4.343521     20.38172     192.0118        19     1.064     1.010   7.10   0
       274    990.3895    354.7957 300.3663577 +22.7716066     560.1442     72.07642      1.423     3.48      4.59902     20.38172     75.51695        14     1.101     0.884  69.56   0
       275    485.5722    349.2427 300.2108303 +22.6188629     471.2095     72.26061      1.389     3.20     4.165691     20.38172      52.2519         8     0.942     0.581  15.77   0
       276    568.3257    346.8785 300.2373645 +22.6429713     587.1728     72.35253      1.608     2.96     4.280157     20.38172     64.18227         8     0.894     0.601  81.45   0
       277     12.4802    345.7255 300.0648433 +22.4760669     1112.505     72.35253      1.663     3.16       4.4001     20.38172     123.0512        17     1.056     1.049 -47.47   0
       278    846.4854    346.1458 300.3242811 +22.7260488     243.9974     72.29739      1.111     3.47     4.362116     20.38172     39.92621         7     0.877     0.596  10.67   0
       279    548.9337    344.7868 300.2320044 +22.6365620     416.8393     72.18699      1.426     3.20     4.308038     20.38172     61.31345         6     1.018     0.472 -49.90   0
       280    865.7187    342.3174 300.3315208 +22.7307051     514.1678     72.38927      1.331     3.86     4.370753     20.38172     69.21968         9     0.979     0.766  45.31   0
       281    388.6291    339.3690 300.1838609 +22.5869835     2570.658     72.24221      1.387     2.41     4.250134     20.38172     345.4759        24     1.102     1.020  61.99   0
       282    106.8630    336.8083 300.0970648 +22.5018040     1019.627     72.18699      1.521     3.51     4.613882     20.38172     117.8131        18     1.111     1.028   7.09   0
       283    735.9868    334.7047 300.2935482 +22.6896795     325.4998     72.16857      1.498     3.25     4.074961     20.38172     38.05331         5     0.796     0.493 -54.39   0
       284    357.9704    328.8546 300.1777328 +22.5747774     29763.89     72.24221      1.396     2.50      4.32971     20.38172     4118.679        67     1.283     1.214  47.24   0
       285    892.6353    326.3576 300.3450938 +22.7341723     1469.761     72.29739      1.388     2.55     4.406651     20.38172      191.305        20     1.088     1.017 -67.01   0
       286    847.8216    324.3680 300.3317648 +22.7201869     484.3966     72.24221      1.943     3.58     4.388656     20.38172     38.70385         6     0.735     0.638  68.00   0
       287     54.2710    316.7097 300.0872422 +22.4802682     4924.275     72.40763      1.654     2.97     4.697201     20.38172     627.4531        38     1.382     1.235  21.89   0
       288    933.6910    314.6389 300.3617015 +22.7430894     397.0278     72.22381      2.108     3.56     4.464035     20.38172     34.79806         5     0.795     0.460  71.34   2
       289    807.9880    315.4299 300.3222459 +22.7056932     565.7347     72.24221      1.388     2.77     4.371552     20.38172     65.80514         9     0.857     0.689 -62.07   0
       290    456.3370    314.3206 300.2130613 +22.6000720     486.4174     72.33416      1.354     2.61     4.151753     20.38172      59.0678        10     0.866     0.727 -46.01   0
       291    232.0056    315.0888 300.1430171 +22.5330776     454.9024     72.15015      1.322     3.11     4.554016     20.38172     59.60586         9     0.790     0.770 -20.67   0
       292    768.4161    308.5687 300.3121366 +22.6918745     1882.267     72.22381      1.363     2.38     4.217184     20.38172     251.9385        21     1.068     0.978 -71.06   0
       293    576.7592    303.3916 300.2541018 +22.6330002     365.7937     72.26061      1.135     3.43     4.274768     20.38172     56.81686         8     1.024     0.616 -46.56   0
       294    983.4760    301.4665 300.3815064 +22.7541987     510.7737     72.33416      1.285     4.22     4.609411     20.38172     72.18002        11     1.045     0.912 -81.50   0
       295    430.0876    293.1707 300.2117530 +22.5861324     2316.813     72.24221      1.568     3.12     4.150853     20.38172     252.4685        26     1.320     1.035  67.02   0
       296    642.4924    291.8767 300.2783127 +22.6493748     474.0999     72.38927      1.424     2.64     4.148789     20.38172     56.97825         8     0.775     0.738  62.63   0
       297    869.5267    286.2211 300.3509105 +22.7157137     638.3651     72.24221      1.221     3.05     4.451995     20.38172      97.7449        13     1.020     0.928  12.74   0
       298      2.5842    284.2704 300.0817073 +22.4554610      580.016     62.89735      1.766     6.11     5.076864     20.38172     56.35558        12     1.411     0.743 -40.21  24
       299    769.1212    283.6827 300.3204307 +22.6849306     278.2017      72.3709      1.164     3.79     4.230389     20.38172     43.51792         6     0.945     0.611 -79.71   0
       300    751.8356    283.4737 300.3151108 +22.6796960     410.3474      72.2054      1.274     4.07     4.155512     20.38172     55.54957         9     1.032     0.690  75.31   0
       301    506.0381    272.6268 300.2420608 +22.6029789     1193.282     72.26061      1.356     2.64     4.236752     20.38172     156.0361        18     1.136     0.876  47.82   0
       302    313.4621    273.1885 300.1819459 +22.5454525     297.4601      72.2054      1.767     3.57     4.410492     20.38172     35.00887         5     0.969     0.379  -6.32   0
       303    591.2690    270.5377 300.2692797 +22.6279030     353.2083     72.27901      1.202     3.38     4.277108     20.38172     36.51888         5     0.727     0.464 -18.92   0
       304    889.4688    266.1520 300.3636406 +22.7159102     266.0857     72.22381      1.353     2.06     4.449132     20.38172     52.47186         5     0.687     0.453  65.98   0
       305    750.8904    264.5068 300.3209695 +22.6739598     2146.545     72.40763      1.343     2.32     4.182381     20.38172     334.5479        23     1.120     1.007  83.93   0
       306   1012.2534    258.9692 300.4042732 +22.7505841     2990.547     72.26061      1.477     2.96      4.58574     20.38172     348.8015        29     1.188     1.152 -70.31   0
       307    459.0532    248.4478 300.2352771 +22.5819586     653.9647     72.27901      1.261     2.83     4.191095     20.38172     80.95751        12     0.897     0.845  32.93   0
       308    164.8533    242.6048 300.1456513 +22.4921380     533.4384     72.22381      1.344     3.12     4.602703     20.38172     61.16084         9     0.864     0.719 -14.83   0
       309    133.9836    242.3878 300.1361254 +22.4828243     1456.493     72.18699      1.735     4.25     4.720527     20.38172     132.8602        23     1.401     1.109 -17.75   0
       310    871.7021    236.4292 300.3677419 +22.7020447      327.429     72.16857      1.309     3.58     4.396265     20.38172     45.31285         7     0.959     0.470  10.61   0
       311    218.0929    234.7169 300.1647631 +22.5058269     386.2005     72.42599      1.077     2.38     4.602703     20.38172     71.39095         6     0.810     0.480 -35.27   0
       312   1013.5319    232.4365 300.4132792 +22.7433332     344.8128     72.22381      1.525     4.67     4.513726     20.38172     46.69413         8     1.379     0.448 -30.95   0
       313    893.8556    228.3728 300.3772639 +22.7063568     327.6479     72.24221      1.188     2.19      4.41266     20.38172     49.44753         5     0.712     0.436 -21.74   0
       314    822.6068    226.1819 300.3557574 +22.6844048     646.2966      72.2054      1.126     2.19     4.369092     20.38172     107.6326        11     0.888     0.685 -15.56   0
       315    412.8445    225.6110 300.2283018 +22.5615562     428.5031     72.24221      1.354     2.80     4.168087     20.38172     52.77073         7     0.792     0.606 -17.38   0
       316    959.2213    219.3696 300.4005729 +22.7233253     216.4413     72.24221      1.299     3.43     4.467595     20.38172     29.00515         5     0.739     0.460  14.77   0
       317    913.0656    219.1238 300.3862553 +22.7094446      309.093     72.33416      1.212     2.40     4.435127     20.38172     55.42119         8     0.818     0.674   5.95   0
       318    920.7889    215.0156 300.3899967 +22.7105738     2048.192     72.18699      1.396     2.63     4.446518     20.38172     234.7836        23     1.097     1.015  86.98   0
       319    339.1539    212.2300 300.2097111 +22.5356380     2339.869     72.27901      1.452     2.65     4.397047     20.38172     250.6716        25     1.179     1.065  57.47   0
       320    417.3267    207.4302 300.2355933 +22.5576746     994.1125     72.26061      1.487     2.79     4.181149     20.38172     116.7513        17     1.078     0.931 -69.18   0
       321    819.1710    206.6098 300.3610344 +22.6777477     554.0606     72.24221      1.380     2.43     4.383864     20.38172     96.17823        10     0.913     0.727  45.47   0
       322    464.0721    203.8186 300.2513146 +22.5706370     397.4631     72.24221      1.712     4.45     4.228588     20.38172     34.68743         6     0.983     0.574 -63.64   0
       323    926.1147    203.4523 300.3954084 +22.7088409     384.3965     72.26061      1.403     3.95     4.458542     20.38172     47.57568         6     0.847     0.639  32.98   0
       324    234.0639    199.6064 300.1811165 +22.5005278     833.3142      72.2054      1.654     4.41     4.717538     20.38172     92.56275        15     1.342     0.867  34.72   0
       325    836.7432    196.2305 300.3698794 +22.6800212       604.04     72.26061      1.460     3.08      4.39518     20.38172     74.08896         9     0.839     0.724  77.05   0
       326    771.8503    196.4258 300.3495855 +22.6606568     1834.498     72.26061      1.393     2.40     4.314237     20.38172     242.8234        19     1.050     0.897  58.46   0
       327    255.2698    192.5701 300.1899933 +22.5048601     537.4989     72.24221      1.379     4.33     4.655828     20.38172     85.11113         9     1.206     0.589  63.83   0
       328    545.1020    188.8891 300.2813848 +22.5906108     437.7851     72.42599      1.378     2.66     4.339347     20.38172     60.28367         8     0.823     0.618  38.00   0
       329    775.8444    188.0350 300.3535518 +22.6594391      855.477     72.29739      1.337     2.69     4.329498     20.38172     107.7308        13     1.002     0.816 -13.75   0
       330    696.4378    187.1802 300.3290810 +22.6354262     1354.802     72.26061      1.353     2.48     4.318772     20.38172     150.5947        16     0.992     0.866  89.85   0
       331    517.7365    183.8742 300.2744899 +22.5809752     416.8432     72.27901      1.399     3.21     4.299211     20.38172      61.2002         7     0.949     0.533 -11.73   0
       332    622.5118    178.8939 300.3087359 +22.6109138     1027.764     72.42599      1.338     2.49     4.348516     20.38172     139.1422        14     1.011     0.807  53.61   0
       333    891.8988    178.5423 300.3928153 +22.6914376     1504.965     72.33416      1.373     2.29     4.437512     20.38172     264.8056        20     1.096     0.985  72.28   0
       334    903.9484    177.7836 300.3968194 +22.6948246     779.5412     72.24221      1.388     2.93     4.450037     20.38172     109.0645        14     1.034     0.884 -28.32   0
       335   1020.6384    167.9364 300.4364163 +22.7269004     1211.299     69.92327      1.624     3.33     4.485137     20.38172     116.2271        19     1.257     0.963  81.00  16
       336     44.4577    164.8056 300.1334615 +22.4337158     598.5618      72.2054      1.471     2.59     4.949605     20.38172      79.7056         9     0.806     0.748  61.56   0
       337    254.5560    161.0282 300.1999992 +22.4955854     749.4814     72.27901      1.377     2.63     4.758441     20.38172     103.7242        13     0.934     0.852  -4.29   0
       338    116.4366    155.7573 300.1587645 +22.4526882     2148.799     72.31578      1.547     2.78     4.977208     20.38172     291.0238        27     1.264     1.113  56.82   0
       339    939.6649    152.9640 300.4160083 +22.6983698     729.0997     72.24221      1.459     2.84     4.474351     20.38172     101.8084        14     1.037     0.838 -13.53   0
       340     66.3416    152.6842 300.1441918 +22.4367936     510.4516     72.35253      1.528     3.01     4.964987     20.38172     61.82923         9     0.937     0.728 -43.62   0
       341    273.8941    149.1165 300.2098761 +22.4979564     5706.154     72.42599      1.434     2.77     4.590539     20.38172     648.9829        36     1.250     1.128  66.26   0
       342    255.1750    150.2520 300.2036858 +22.4926750     398.6595     72.26061      1.332     3.86     4.713383     20.38172     49.34709         7     0.994     0.646  56.24   0
       343     58.2377    143.4682 300.1446615 +22.4317185     1250.516     72.22381      1.669     3.19     4.966535     20.38172     129.1339        22     1.239     1.087 -34.84   0
       344    257.2112    140.0376 300.2076308 +22.4903505     649.4582     72.24221      1.465     2.76     4.662076     20.38172     75.26527         9     0.912     0.715 -10.55   0
       345    917.9826    130.7996 300.4164320 +22.6855063     3644.204     72.15015      1.433     2.61     4.436508     20.38172     477.5196        30     1.207     1.138 -67.33   0
       346   1021.6746    129.5560 300.4491849 +22.7161658      2775.05     66.17252      1.544     2.62     4.503055     20.38172     334.5846        27     1.190     1.132 -48.22  24
       347    467.3755    125.8901 300.2776120 +22.5492291     693.9042     72.18699      1.362     2.40     4.318166     20.38172     82.70349         9     0.824     0.677  25.64   0
       348    581.6891    123.9637 300.3138314 +22.5829004     310.3881     72.22381      1.179     3.30     4.307226     20.38172     47.58902         7     0.760     0.626  59.16   0
       349    392.9521    117.3356 300.2572210 +22.5244842     975.3815     72.26061      2.280     8.37     4.421668     20.38172     65.74422        19     2.070     0.946 -14.70   0
       350    446.9660    113.9692 300.2751235 +22.5396913     563.5718     72.26061      1.700     3.58      4.35328     20.38172     58.05533         8     0.922     0.682 -58.42   0
       351    157.6640    114.8033 300.1848575 +22.4532785     727.3815     72.22381      1.693     3.05     4.975423     20.38172     92.93092        11     0.980     0.809 -31.48   0
       352    518.8751    113.2315 300.2977497 +22.5610099     1727.682     72.24221      1.359     2.58     4.328667     20.38172     197.7761        21     1.034     0.996  53.73   0
       353     55.8108    113.9465 300.1534779 +22.4225134     312.1203     72.24221      1.457     3.80     4.982343     20.38172     32.32483         5     0.804     0.515 -29.01   0
       354    580.5364    112.4416 300.3172079 +22.5792426     417.6501     72.22381      1.407     2.59     4.297481     20.38172     49.60433         6     0.798     0.496  -2.71   0
       355    342.8557    108.8526 300.2443827 +22.5070433     383.3243     72.27901      1.725     4.81     4.536541     20.38172     29.87241         8     1.123     0.585   7.31   0
       356    262.2428    109.0965 300.2192267 +22.4829683      408.223     72.26061      1.383     4.46     4.535194     20.38172      46.6576         8     1.108     0.569  -1.97   0
       357    807.4023    102.6413 300.3910783 +22.6443215     379.6005     72.24221      1.255     2.69     4.674775     20.38172     60.15561         9     0.934     0.753 -78.72   0
       358    953.2137     97.4460 300.4382353 +22.6864484     337.7533     72.26061      1.560     3.99     4.428009     20.38172     39.21148         6     0.908     0.502 -42.82   0
       359    292.9083     93.0179 300.2339771 +22.4875337     6011.909     72.16857      1.424     2.59     4.497846     20.38172     747.5498        37     1.276     1.137  81.27   0
       360    799.1465     93.6794 300.3914098 +22.6392732     352.4133     72.27901      1.319     3.90     4.737912     20.38172     46.63822         8     1.015     0.620 -61.80   0
       361    144.2478     92.6021 300.1878835 +22.4428818     715.8091     72.22381      1.244     2.25     4.978406     20.38172     107.4935        12     0.900     0.752 -51.52   0
       362    922.3639     90.8185 300.4307606 +22.6753134     210.5222     72.24221      1.099     1.89     4.388835     20.38172      50.6433         5     0.672     0.456 -71.98   0
       363    264.9092     87.2529 300.2271367 +22.4774909     470.8922     72.29739      1.494     4.64      4.49025     20.38172     45.22787         8     1.126     0.543 -18.23   0
       364    308.2910     83.9811 300.2416916 +22.4895442     434.4517     72.16857      1.254     4.11      4.50734     20.38172     54.86857         8     0.967     0.618  57.28   0
       365     54.7442     83.2704 300.1630901 +22.4133840     439.9108     72.26061      1.477     3.79     5.045197     20.38172     47.34834         6     0.780     0.529 -53.05   0
       366    538.9997     78.3731 300.3153161 +22.5570133     6389.917      72.2054      1.399     2.42      4.32202     20.38172     905.9031        35     1.226     1.082  75.08   0
       367    424.4455     78.0157 300.2797686 +22.5226138      739.847     72.26061      1.535     3.51     4.421358     20.38172     74.39396        13     1.077     0.830  28.55   0
       368    559.4321     72.7234 300.3235104 +22.5615054     256.3909     72.24221      1.551     4.23     4.303962     20.38172     30.29284         7     0.958     0.532 -30.78   0
       369    732.8787     69.5239 300.3785840 +22.6124961     362.6051     72.35253      1.483     2.67     4.760378     20.38172     64.42873         7     0.925     0.649  86.55   0
       370    791.4799     68.2422 300.3972655 +22.6296619     808.3441     72.22381      1.672     2.63     4.786447     20.38172     88.07587        10     0.951     0.688 -14.15   0
       371    884.3637     67.1471 300.4265821 +22.6571350     512.6306     72.26061      1.393     3.16     4.379944     20.38172     62.88692         9     0.962     0.704 -40.08   0
       372    951.4775     64.8215 300.4482695 +22.6765409     174.4928     72.24221      1.187     3.46     4.375913     20.38172     37.35336         5     0.773     0.447 -69.38   0
       373    231.9476     62.3188 300.2249673 +22.4604537     528.2122     72.27901      1.412     3.30     4.474899     20.38172     63.90676         7     0.735     0.669 -33.92   0
       374    590.5726     60.8567 300.3370555 +22.5674146      574.343     72.24221      1.381     3.41     4.275893     20.38172     69.14858        11     1.112     0.631 -40.14   0
       375    667.3503     58.5348 300.3617261 +22.5897259     6201.457     72.26061      1.346     2.33     4.380461     20.38172     831.7188        33     1.190     1.033  76.39   0
       376    442.3040     57.4874 300.2919810 +22.5220601     1434.742     72.42599      1.295     2.14     4.420873     20.38172      222.006        16     0.968     0.857 -63.44   0
       377    708.3756     55.8076 300.3753936 +22.6012185     817.0801     72.24221      1.433     2.64     4.616368     20.38172     107.8619        13     0.940     0.879  77.08   0
       378    777.9985     53.8092 300.3977411 +22.6214763       303.13     72.05797      1.329     3.76      4.81258     20.38172     45.80138         6     0.767     0.555  36.75   0
       379    724.5509     51.8985 300.3817015 +22.6049344     536.5718     72.29739      1.280     2.63     4.733056     20.38172     81.07114         9     0.906     0.655  60.22   0
       380    190.7659     49.8451 300.2162042 +22.4445343     697.4072     72.27901      1.650     4.64     4.533991     20.38172     82.09297        12     1.177     0.807  33.94   0
       381     37.7301     51.0346 300.1682509 +22.3990276     450.3709     72.24221      1.788     4.58     5.176122     20.38172     41.10302         6     1.095     0.545  -8.51   0
       382    994.1274     49.8410 300.4664314 +22.6849854     467.1881     72.22381      1.371     2.33     4.368654     20.38172     61.90757         7     0.736     0.624  -5.34   0
       383    763.0898     47.2219 300.3952289 +22.6151206     494.7776     72.16857      1.280     3.44     4.825647     20.38172     84.89184        10     1.077     0.671 -76.92   0
       384    726.5704     42.4362 300.3853977 +22.6028169     863.4301     72.26061      1.630     4.58     4.758074     20.38172     85.56829        14     1.394     0.705  48.34   0
       385    711.6061     43.2943 300.3804560 +22.5985860     2794.492     72.13172      1.383     2.51      4.64273     20.38172     365.2734        25     1.141     1.043 -77.94   0
       386    352.4418     44.1773 300.2683288 +22.4913272     450.4109     72.27901      1.244     3.17     4.483569     20.38172     57.10412         6     0.767     0.494  84.64   0
       387    900.7418     38.1664 300.4410834 +22.6536950     3206.175     72.26061      0.664     0.94     4.352933     20.38172     1653.473         9     0.574     0.445 -16.47   0
       388      5.3154     37.5396 300.1625530 +22.3854390     699.4611     72.18699      1.399     3.50      5.27335     20.38172     98.44589        13     1.153     0.800 -25.54  16
       389    798.0655     34.9912 300.4100959 +22.6220664     1482.263      72.2054      1.371     2.59     4.848047     20.38172     210.0309        18     1.144     0.919 -88.67   0
       390    279.6831     30.6839 300.2500664 +22.4656606     280.4594      72.3709      1.229     3.64     4.459201     20.38172     42.34035         6     0.855     0.538 -44.28   0
       391    876.3297     29.2083 300.4363732 +22.6438151     362.0408     72.22381      1.777     4.12     4.368196     20.38172     32.11184         6     0.730     0.663  -6.61   0
       392    735.9178     28.1124 300.3929532 +22.6014934     616.9914     72.35253      1.271     2.56      4.85237     20.38172     93.11215        10     0.880     0.703  29.08   0
       393    541.5152     27.5566 300.3325697 +22.5431553     1147.104      72.2054      1.433     2.55     4.320129     20.38172     129.0657        17     1.057     0.951 -72.07   0
       394    114.5701     27.4107 300.1997867 +22.4152637     534.8139     72.24221      1.261     3.41     4.973547     20.38172     66.92801         9     0.996     0.615  -4.53   0
       395    445.4865     25.6517 300.3032893 +22.5138611     696.8491     72.26061      1.280     2.92     4.437321     20.38172     111.9422        11     0.990     0.738  70.41   0
       396    827.6678     24.2041 300.4228210 +22.6278187     421.1558     72.22381      1.345     4.08      4.66097     20.38172      54.6493         7     1.089     0.466 -85.97   0
       397    220.4532   1018.8428 299.9107563 +22.7315399     944.3214     72.24221      2.854    11.13      89.8372     20.38172     35.46163        21     2.593     1.332  -5.83  19
       398    226.3214   1011.0552 299.9151149 +22.7310685     1127.617     72.27901      4.423    12.88     82.67526     20.38172      52.1395        28     3.107     1.485 -42.33  19
       399      9.1874     15.6065 300.1708633 +22.3802999     437.6376     72.11329      1.518     4.25       5.4092     20.38172     51.01318         8     1.086     0.789   8.01   0
       400    542.7719     13.5105 300.3375128 +22.5394925     275.8683     72.22381      1.381     2.89      4.31902     20.38172     35.91707         5     0.726     0.461  20.20   0
       401    220.6602   1011.6158 299.9131723 +22.7295301     1423.015      72.2054      3.668     8.80      84.0358     20.38172      72.6853        27     2.084     1.037 -31.89  19
       402    216.0829   1008.8381 299.9126530 +22.7273600     2445.994      72.2054      4.750    21.08     81.54949     20.38172      55.4744       109     5.122     2.409 -59.55  19
       403      7.7584   1022.2388 299.8435537 +22.6686616     1439.884     63.75799      7.022    15.51    -19.61426     20.38172     45.09901        37     3.929     1.702  -7.15  27
       404    123.1762    928.4749 299.9099183 +22.6764355     3770.746     72.27901     18.140    53.53      10.3529     20.38172     91.69334       895    11.313     7.027 -30.17   3
       405    531.9859   1012.8671 300.0096258 +22.8232999     467.9012     72.22381      2.044     5.43     2.744587     20.38172     29.53312         8     1.052     0.790  -2.07   0
