#   1 NUMBER                 Running object number                                     
#   2 X_IMAGE                Object position along x                                    [pixel]
#   3 Y_IMAGE                Object position along y                                    [pixel]
#   4 ALPHA_J2000            Right ascension of barycenter (J2000)                      [deg]
#   5 DELTA_J2000            Declination of barycenter (J2000)                          [deg]
#   6 FLUX_APER              Flux vector within fixed circular aperture(s)              [count]
#   7 FLUXERR_APER           RMS error vector for aperture flux(es)                     [count]
#   8 FLUX_RADIUS            Fraction-of-light radii                                    [pixel]
#   9 FWHM_IMAGE             FWHM assuming a gaussian core                              [pixel]
#  10 BACKGROUND             Background at centroid position                            [count]
#  11 THRESHOLD              Detection threshold above background                       [count]
#  12 FLUX_MAX               Peak flux above background                                 [count]
#  13 ISOAREA_IMAGE          Isophotal area above Analysis threshold                    [pixel**2]
#  14 A_IMAGE                Profile RMS along major axis                               [pixel]
#  15 B_IMAGE                Profile RMS along minor axis                               [pixel]
#  16 THETA_IMAGE            Position angle (CCW/x)                                     [deg]
#  17 FLAGS                  Extraction flags                                          
         1    230.2023     20.0221 300.2354978 +22.4424187     3924.658     72.73396      1.555     3.03     5.277559     20.53616      352.697        35     1.347     1.162  53.00   0
         2    791.5181     12.8597 300.4125238 +22.6084217     957.7684     72.90075      1.396     2.54     6.066417     20.53616     124.4461        16     1.032     0.840  64.94   0
         3    346.2886     12.3646 300.2740750 +22.4749909     1235.056     72.77105      1.404     2.69     5.269787     20.53616     139.7926        18     1.133     0.935  83.72   0
         4    277.7813     12.2012 300.2528240 +22.4544244     312.3729     72.71539      1.470     3.44     5.268887     20.53616     32.44388         5     0.988     0.347  42.63   0
         5    829.2534      7.7357 300.4259442 +22.6182389     573.1179     72.82667      1.500     3.38     6.111315     20.53616     74.50484        14     1.181     0.800  52.29  16
         6    572.9246      9.5733 300.3455026 +22.5420512     227.4494      72.7896      1.290     3.05     5.559078     20.53616     41.76081         5     0.739     0.448  20.89   0
         7    752.5449      7.3675 300.4021596 +22.5951793     571.4406     72.80814      1.606     3.85     6.109986     20.53616     52.85534         7     0.932     0.522  32.22   0
         8    849.3629      4.0418 300.4334089 +22.6231931     2058.716     69.52755      1.425     2.72     6.148285     20.53616     228.4364        21     1.130     0.959  75.41  24
         9    555.2007      2.3116 300.3423377 +22.5346574     397.6436     61.86532      1.362     2.23     5.591106     20.53616     56.67538         6     0.693     0.596 -76.61  24
        10    792.5748   1003.8693 300.0910676 +22.8934853     581.3374      72.7896      1.864     6.89     3.489292     20.53616      36.4165        13     1.294     1.028 -89.73   0
        11    260.2344   1020.0534 299.9201342 +22.7384135     2339.906     71.98795      7.493    27.23     75.12569     20.53616     69.12236       146     6.192     3.324 -30.37  27
        12    258.5388   1002.9847 299.9251605 +22.7330115     4078.508      72.7525      7.540    21.44      63.2807     20.53616     88.57908       257     4.830     4.782  -8.44  19
        13    278.5892   1000.9427 299.9320576 +22.7384447     4739.852      72.7525      8.790    24.28     60.25489     20.53616     89.34676       350     5.555     4.964 -58.13  19
        14    297.5838    990.5451 299.9413454 +22.7411651     7728.938      72.7525      7.810    30.97       45.686     20.53616     165.3603       659    10.112     4.828  62.71  18
        15    191.0000   1021.9979 299.8979840 +22.7181861     823.0676     65.13815      1.629     6.90      75.6565     20.53616     59.53812        14     1.621     0.832 -85.08  19
        16    137.7240   1013.1374 299.8843135 +22.6996510     5708.852     72.84519     14.002    54.00     47.47402     20.53616     117.4118      1310    13.342     7.934  16.77  27
        17    133.8803    971.7726 299.8965761 +22.6866418     5032.635     72.80814     32.093   117.60     26.97479     20.53616     146.1405      5027    24.818    17.973 -61.25  27
        18    189.8388    940.5551 299.9241172 +22.6944926     1023.206     72.86372      8.178     9.40     21.44058     20.53616     39.96505        16     1.638     1.506 -20.77   1
        19    990.0304    934.3172 300.1752441 +22.9327096     2108.035     72.80814      1.966     4.74     4.020476     20.53616     118.5663        32     1.556     1.247  -7.42   0
        20    917.4318    939.4606 300.1509350 +22.9124277     362.5646     72.82667      1.927     5.21      3.92983     20.53616      37.4699         6     1.005     0.763   3.90   0
        21    640.3842    931.5754 300.0671840 +22.8270997     360.8805     72.80814      1.758     4.96      3.41739     20.53616     33.78799         6     1.001     0.696  68.53   0
        22    204.4773    972.8507 299.9181612 +22.7081448     1963.753      72.7896      9.698    15.39     43.99937     20.53616     55.57692        63     3.313     1.989   3.59   3
        23    778.9103    923.7496 300.1128752 +22.8663919     829.0805      72.7896      2.281     7.34     3.683808     20.53616     41.56786        16     1.422     1.109 -70.46   0
        24    710.7587    970.2787 300.0765094 +22.8593111     6848.368     72.77105      1.925     4.04     3.609309     20.53616     382.6465        50     1.546     1.442  12.90   0
        25    225.2084    991.6635 299.9184841 +22.7197609     2074.058     72.77105      5.533    19.53     58.57348     20.53616     65.21638        58     4.090     2.590  80.11   3
        26    813.5933    917.3813 300.1257532 +22.8749618      1292.07      72.7525      2.064     5.22     3.742825     20.53616     79.96801        19     1.367     1.023  42.70   0
        27    590.9780    918.1708 300.0561622 +22.8084357     461.4544     72.77105      1.584     4.79     3.354021     20.53616     58.56474         9     1.064     0.612 -24.29   0
        28    231.8535   1013.7068 299.9133778 +22.7280745     3558.183     72.84519      7.853    30.93     72.90747     20.53616     78.56205       285     5.673     5.182  36.10  27
        29     23.2618    914.6480 299.8807981 +22.6370573     550.6846     72.82667      1.901     4.88      4.17343     20.53616     53.22395        11     1.379     0.885 -23.48   0
        30    835.8637    911.0182 300.1347628 +22.8798113     11282.54      72.7525      1.827     3.88     3.803945     20.53616     681.4191        56     1.490     1.432  44.60   0
        31    881.3312    911.1469 300.1488916 +22.8934774      429.415     72.80814      1.582     5.36     3.885678     20.53616     37.92557         9     1.130     0.718   5.94   0
        32    590.4839    964.3083 300.0410006 +22.8215252     456.5558     72.95627      2.254     5.54     3.365016     20.53616     44.04785         7     1.082     0.798 -69.98   0
        33    148.1770    902.9164 299.9234130 +22.6711968     1261.932      72.7525      3.530     3.81     8.369309     20.53616     67.91993        13     1.071     0.938  85.33   2
        34    862.6786    963.3704 300.1260898 +22.9028792     331.1983      72.7896      1.763     4.88     3.706696     20.53616      30.5337         6     1.119     0.671  21.46   0
        35    887.4653    898.3708 300.1549590 +22.8916477     315.3961     72.80814      1.517     5.50     3.934436     20.53616     31.63687         8     1.029     0.830  -6.48   0
        36    540.9617    899.1588 300.0467771 +22.7879790     360.2748     72.88224      1.456     3.40     3.500757     20.53616      41.1133         6     0.905     0.457  36.95   0
        37    212.2741    896.6909 299.9453550 +22.6886514     658.4811     72.95627      5.088     5.04     10.56941     20.53616     32.01027         5     1.146     0.627 -53.98   0
        38    619.2026    961.0886 300.0509887 +22.8292154     1514.798     72.71539      1.775     3.72     3.463132     20.53616     139.2363        23     1.224     1.189  11.06   0
        39    844.4407    893.1525 300.1432464 +22.8772531     1458.469     72.84519      1.781     4.10     3.893968     20.53616     95.68271        23     1.269     1.178   5.13   0
        40    696.8199    890.3083 300.0981805 +22.8321801     520.2653     72.71539      1.883     6.13     3.703558     20.53616     37.40901        12     1.365     0.773 -86.75   0
        41    560.6454    891.6071 300.0553596 +22.7917161     157.1568     72.80814      0.830     3.41     3.480972     20.53616      32.8575         5     1.007     0.335 -68.90   0
        42    882.7173    886.6493 300.1572913 +22.8868589     697.8254      72.7896      1.817     4.67     3.956942     20.53616     49.85836        13     1.136     0.892  30.81   0
        43    931.3153    877.8967 300.1752875 +22.8989108     406.2937     72.95627      1.826     4.53     4.017451     20.53616     39.52827         6     1.010     0.578 -28.55   0
        44    782.2260    876.9252 300.1291373 +22.8539443      715.487      72.7896      1.645     5.60     3.951741     20.53616     58.76517        14     1.363     0.881  20.27   0
        45    985.2210    987.0972 300.1565732 +22.9464241     758.8773     72.71539      1.910     7.18     3.764789     20.53616     52.96105        16     1.374     1.050 -86.02   0
        46    494.8240    873.2072 300.0408585 +22.7666943     4098.147      72.7896      1.636     3.30     3.994154     20.53616     306.6976        35     1.305     1.251   6.15   0
        47    794.0054    873.8743 300.1337997 +22.8565997      484.386     72.71539      1.359     4.22     3.967321     20.53616     54.04818        10     1.002     0.819 -41.33   0
        48    146.0751    870.7657 299.9332147 +22.6613490     576.4342      72.7896      0.554     0.87     6.121884     20.53616     316.3329         5     0.455     0.383 -47.35   0
        49    156.2693    861.8307 299.9392872 +22.6618472     395.6032     72.77105      1.596     5.12     5.870864     20.53616     35.97003         7     1.120     0.663 -51.80   0
        50    513.1219    957.2271 300.0192257 +22.7962870      1087.31      72.7896      1.963     4.76     3.360304     20.53616     83.25798        21     1.345     1.155 -87.80   0
        51    219.9584    859.1359 299.9599550 +22.6801896     910.7197      72.7525      1.913     4.81     5.906933     20.53616     62.72236        19     1.257     1.094  89.49   0
        52    197.4498    855.9048 299.9540103 +22.6725079       1571.7     72.84519      1.816     4.24      5.84406     20.53616     123.5923        29     1.412     1.291  26.31   0
        53    443.6998    955.5385 299.9981748 +22.7749748     6430.576     72.88224      1.804     3.80     3.960854     20.53616     449.2303        42     1.401     1.368  -5.52   0
        54   1022.8289    843.6158 300.2149724 +22.9164871     1557.197     61.20739      1.631     4.18     4.082666     20.53616     118.6659        20     1.307     0.974 -86.92  24
        55    729.4790    843.2313 300.1236618 +22.8284587     414.0513      72.7896      1.539     4.14     4.019814     20.53616     36.10644         7     1.041     0.469 -79.31   0
        56    807.0912    837.3624 300.1497500 +22.8500394     609.0463      72.7525      1.629     3.76     4.052397     20.53616     65.02161        11     1.038     0.809  31.07   0
        57    229.0155    837.3105 299.9698662 +22.6766491     290.4046     72.71539      1.554     5.52     5.395541     20.53616     34.97176         8     1.058     0.865 -50.50   0
        58    674.9806    831.3676 300.1105453 +22.8087141     4824.655      72.7896      1.624     3.19     3.862819     20.53616      378.694        41     1.373     1.305 -13.95   0
        59    188.3537   1023.6664 299.8966188 +22.7178699     497.5557     56.62619      1.588     4.54     76.71498     20.53616      51.6948         9     1.048     0.782  18.23  27
        60    477.2092    828.8261 300.0498081 +22.7486772     525.8818      72.7896      1.370     4.36     4.216637     20.53616     60.81949        10     1.015     0.790  47.58   0
        61    225.0220    825.0103 299.9726238 +22.6719234     1231.418      72.7896      1.690     3.88     5.194371     20.53616     112.6193        24     1.267     1.187  45.39   0
        62    695.3689    823.8497 300.1193392 +22.8126687     721.9762     72.82667      1.634     4.01     3.957719     20.53616     62.96851        13     0.998     0.950  60.22   0
        63    611.7010    814.3857 300.0963626 +22.7848664      326.382     72.69684      1.453     4.70     3.721702     20.53616     39.23655         7     0.866     0.723 -68.03   0
        64    850.9567    811.1513 300.1719421 +22.8556604     4189.405     72.82667      1.649     3.34     4.051939     20.53616     310.1971        35     1.289     1.255 -27.70   0
        65    259.4233    804.5444 299.9899700 +22.6763769     387.5425     72.82667      1.573     4.53     4.528337     20.53616     43.78354         8     1.043     0.647  41.97   0
        66    567.9656    803.6626 300.0862336 +22.7686744      581.752      72.7896      1.465     4.08     3.889405     20.53616     51.61254        11     0.988     0.850  71.35   0
        67    214.2984    801.3746 299.9769745 +22.6619274     934.7778      72.7525      1.650     3.55     4.691387     20.53616     88.36764        18     1.131     1.045 -20.07   0
        68    629.4647    797.0610 300.1075256 +22.7852200     527.0144     72.82667      1.906     5.63     3.905182     20.53616     46.94162        12     1.201     0.758   4.07   0
        69    363.9513    793.5615 300.0260408 +22.7045869     53577.91     72.80814      1.633     3.18     4.289147     20.53616      4691.87        96     1.459     1.426  21.03   0
        70    621.8412    792.7958 300.1065385 +22.7817099     1628.944     72.80814      1.552     3.11     3.933558     20.53616     152.8232        20     1.132     1.046  30.13   0
        71    292.1328    791.6912 300.0043168 +22.6825045     534.3345     72.91927      1.854     4.09     4.279169     20.53616     44.51409         8     0.949     0.668 -69.78   0
        72     16.9977    788.8122 299.9197648 +22.5991094     848.3417     72.60396      2.013     6.16     3.645053     20.53616     60.09778        19     1.462     1.213 -72.73   0
        73    650.8589    788.6095 300.1169347 +22.7892083     872.5244      72.7525      1.663     3.72     4.081245     20.53616     68.46048        17     1.160     0.956 -25.40   0
        74     50.1175    788.2675 299.9302271 +22.6088950     910.1638     72.90076      1.823     4.89      4.07448     20.53616     76.65393        17     1.401     0.941 -11.27   0
        75    661.7842    787.0533 300.1208427 +22.7920370     519.7654     72.77105      1.394     3.85     4.138876     20.53616     66.76843         9     0.958     0.667  25.77   0
        76    981.0438    784.7888 300.2210677 +22.8870693     435.4225      72.7896      1.840     3.35     4.155221     20.53616     33.15065         5     0.790     0.501  54.62   0
        77    767.0248    783.3394 300.1548301 +22.8225184     393.5593      72.7896      1.461     3.58     4.190094     20.53616       44.344         7     0.763     0.632  18.20   0
        78    413.6868    770.8112 300.0489052 +22.7129786     31240.42     72.73396      1.601     3.10     4.435662     20.53616     3164.809        80     1.411     1.375  53.71   0
        79    804.6740    773.6050 300.1697250 +22.8310073     682.8727     72.71539      1.587     3.55     4.234834     20.53616     75.42084        15     1.101     0.939  -1.39   0
        80    427.9367    771.3655 300.0531579 +22.7174117      2010.21      72.7896      1.567     3.04     4.441213     20.53616     174.4061        23     1.128     1.096  52.80   0
        81    936.8218    766.8672 300.2131047 +22.8686718     2670.609     72.77105      1.613     3.30     4.292346     20.53616     220.1859        28     1.233     1.228  27.01   0
        82    424.8701    765.5255 300.0541021 +22.7148162     701.9909     72.86372      1.726     4.25     4.466496     20.53616     51.92508        11     1.029     0.802 -39.48   0
        83    694.8276    762.8743 300.1389930 +22.7950014     969.6729      72.7896      1.520     3.27     4.376523     20.53616     92.58771        17     1.072     0.993  12.61   0
        84    531.0234    762.9224 300.0879785 +22.7459043     451.4177      72.7896      1.452     3.34     4.415009     20.53616     57.81611         9     0.948     0.773  21.95   0
        85    296.2824    762.5311 300.0150851 +22.6753851     808.6046     72.90076      1.548     3.39     4.312903     20.53616     85.26818        16     1.092     1.009 -19.73   0
        86    541.9095    757.6493 300.0930806 +22.7476552     712.2037      72.7896      1.420     3.75     4.454068     20.53616     79.71793        16     1.139     0.955 -79.62   0
        87    100.6394    758.3438 299.9556453 +22.6154794     553.6896      72.7896      1.979     4.98     4.645506     20.53616     48.59529         9     1.179     0.849   5.60   0
        88    943.2385    754.4227 300.2191505 +22.8670196     461.6503     72.80814      1.642     5.77     4.369273     20.53616     41.08086        10     1.088     0.867   6.55   0
        89    443.6597    753.8261 300.0637501 +22.7170946     226.5443      72.7896      1.062     3.39     4.527177     20.53616     48.72016         5     1.102     0.302 -35.03   0
        90    400.6921    753.7574 300.0504060 +22.7041879     371.5003      72.7896      1.758     3.76     4.483669     20.53616     34.89899         5     0.912     0.446  43.67   0
        91    487.8576    752.5128 300.0779287 +22.7299726     496.5595     72.86372      1.733     3.63     4.529429     20.53616     52.14126        10     1.052     0.761  14.00   0
        92    696.2007    752.0615 300.1429353 +22.7923086     346.8243      72.7525      1.526     4.37     4.467104     20.53616     36.52098         6     0.931     0.583 -29.00   0
        93    129.3018    752.0054 299.9666095 +22.6222637     590.8909     72.67827      1.780     4.51     4.539474     20.53616     47.19148        11     1.141     0.725 -34.60   0
        94    920.6315    749.6614 300.2136498 +22.8588785     437.3139     72.82667      1.409     3.37     4.433684     20.53616     48.66748         8     0.895     0.641 -84.20   0
        95    293.4771    746.9469 300.0192780 +22.6700730      607.058     72.82667      1.790     6.45     4.329486     20.53616     49.84025        14     1.495     0.803  57.16   0
        96    616.9254    737.1743 300.1230875 +22.7642697     381.3499      72.7896      1.399     5.57     4.694692     20.53616     55.30676         8     1.079     0.811  37.41   0
        97    586.5997    735.2122 300.1142840 +22.7546147     752.1819     72.60396      1.734     5.03     4.701905     20.53616     73.66562        13     1.234     0.826  40.07   0
        98   1003.2261    732.0975 300.2451130 +22.8785769     4521.306     72.73396      1.698     3.57     4.318014     20.53616     334.8029        35     1.305     1.286 -62.68   0
        99    608.6567    733.0511 300.1218531 +22.7606071     1390.631     72.84519      1.496     2.88     4.718439     20.53616     158.4276        18     1.089     0.945  85.46   0
       100    528.9821    732.0401 300.0973804 +22.7364287     221.0594     72.80814      1.318     5.92     4.689438     20.53616     39.04743         9     1.045     0.944  37.60   0
       101    991.7111    723.6606 300.2442641 +22.8727035     1714.745     72.86372      1.759     3.60     4.436391     20.53616     129.0515        24     1.218     1.159  42.62   0
       102    354.6365    717.5095 300.0478620 +22.6799736     859.6328     72.77105      1.604     4.17     4.391891     20.53616     91.21632        17     1.224     0.983  36.91   0
       103    221.2065    718.6664 300.0060027 +22.6402790     271.6805      72.7896      1.137     3.40     4.437238     20.53616     32.95444         5     1.197     0.279  55.67   0
       104    818.2248    714.8329 300.1930502 +22.8181896      2551.92     72.77105      1.630     3.22     4.502088     20.53616     253.7105        32     1.575     1.074  -0.57   0
       105   1022.6234    713.7406 300.2571290 +22.8791128     1270.023     62.27841      1.530     3.55     4.466262     20.53616     117.8093        17     1.123     0.974  87.55  24
       106     40.6151    705.0596 299.9543170 +22.5821867      846.295      72.7525      1.764     4.42     4.928609     20.53616     88.34546        15     1.449     0.718   3.16   0
       107    900.5203    700.9595 300.2232086 +22.8388628     637.3137     72.77105      1.974     3.76     4.739599     20.53616     55.82803        12     1.131     0.729  53.85   0
       108    203.3571    700.8969 300.0062293 +22.6298268     538.8234      72.7896      1.454     5.09     4.536687     20.53616     64.37099        12     1.206     0.825  56.60   0
       109    936.4848    691.7531 300.2374128 +22.8469923     147761.4     72.77105      1.643     3.24     4.823011     20.53616     12843.76       163     1.534     1.513 -75.05   0
       110    698.8549    695.4832 300.1621495 +22.7768588      331.023     72.84519      1.249     4.41     4.700783     20.53616     46.60143         9     1.031     0.678  27.10   0
       111    788.8873    692.0544 300.1913109 +22.8028561     706.7711     72.82667      1.389     3.36      4.48137     20.53616     85.84884        12     1.001     0.815 -24.71   0
       112    969.1076    684.6849 300.2498817 +22.8547340     509.9036     72.95627      1.517     3.49     4.849689     20.53616     44.78448         9     0.891     0.695  70.44   0
       113    622.7209    680.6536 300.1432594 +22.7497804      1629.74     72.82667      1.464     2.81     5.013587     20.53616     177.2302        20     1.063     1.022  85.01   0
       114    803.9600    677.8623 300.2006192 +22.8032965      9552.09      72.7896      1.495     2.86     4.536457     20.53616     977.8333        48     1.270     1.266 -59.81   0
       115    387.5386    671.1335 300.0731642 +22.6765341     1144.767     72.82667      1.403     2.94     4.588735     20.53616     139.8463        18     1.148     1.028  68.41   0
       116    305.5069    672.8699 300.0470896 +22.6524296     4882.765     72.91927      1.531     2.96     4.383501     20.53616     541.7263        33     1.226     1.133  19.73   0
       117     19.1996    671.2296 299.9586578 +22.5660593     1744.315      72.7525      1.846     3.65     5.348202     20.53616     157.1385        25     1.315     1.207 -80.07   0
       118    263.3322    668.9922 300.0352374 +22.6386666     529.7214     72.77105      1.566     3.83     4.502665     20.53616     54.39053         8     1.168     0.491 -48.32   0
       119    595.8127    666.5114 300.1394769 +22.7376540     667.7699     72.73396      1.320     3.33     5.087973     20.53616     77.97783        12     0.982     0.850 -55.73   0
       120    587.4678    658.5368 300.1394699 +22.7328630     3377.135      72.8452      1.464     2.60     5.117157     20.53616     387.1075        30     1.256     1.092  70.67   0
       121    577.6772    652.3741 300.1384243 +22.7281588     1456.098     72.80814      1.479     2.61     5.143898     20.53616     155.4351        19     1.092     0.910  87.19   0
       122    971.4711    650.7075 300.2616591 +22.8456790     498.8051     72.93777      1.536     4.82     5.001733     20.53616     45.90708        10     1.012     0.754 -84.71   0
       123    506.0318    651.5458 300.1163937 +22.7064425     312.3536     72.80814      1.202     3.71     5.010442     20.53616      36.0817         6     0.796     0.497  -2.93   0
       124    240.7951    648.3782 300.0349287 +22.6259922     546.7939      72.7525      1.610     4.90     4.536109     20.53616     47.58366        12     0.986     0.887 -72.16   0
       125    255.4090    646.9601 300.0399320 +22.6299689     613.5759      72.7896      1.601     3.61     4.492988     20.53616     56.73221        13     1.068     0.903 -39.54   0
       126    601.4905    642.8083 300.1489455 +22.7325505      554.306     72.69683      1.540     3.90     5.201804     20.53616     57.20269        13     1.058     0.894  47.08   0
       127    280.9428    643.6247 300.0489535 +22.6366708     586.9373      72.7896      1.552     3.36     4.418346     20.53616     65.24532        11     0.987     0.751  79.68   0
       128    502.3850    642.0938 300.1183296 +22.7026359     1692.464     72.71539      1.467     2.80     5.038265     20.53616     189.7474        21     1.126     1.031  74.60   0
       129    312.4864    643.7306 300.0587265 +22.6461620     365.4777     72.90076      1.243     3.76     4.466379     20.53616      47.1227         6     0.916     0.443   1.49   0
       130    156.3583    636.9589 300.0123967 +22.5973864      19758.5     72.88224      1.646     3.14     4.528586     20.53616     2073.719        66     1.460     1.360  30.53   0
       131    587.4510    637.5053 300.1462975 +22.7268196     1060.582     72.86372      1.422     2.54     5.217454     20.53616     123.2583        17     1.052     0.937  89.65   0
       132     77.1050    638.5043 299.9872730 +22.5740511     648.7249     72.95627      1.728     3.95       5.0423     20.53616     83.58681        13     1.104     1.071  27.26   0
       133    622.7067    636.4771 300.1576080 +22.7370919      378.692     72.93777      1.306     3.71     5.204306     20.53616     44.96546         7     0.983     0.583 -25.31   0
       134    504.7498    634.2123 300.1216259 +22.7010823     315.7692     72.84519      1.248     4.04     5.079852     20.53616      44.4398         5     0.941     0.495  36.94   0
       135    340.6866    629.0717 300.0722576 +22.6504130     294.1527     72.91927      1.346     3.35     4.641402     20.53616     40.29574         7     0.843     0.602  64.47   0
       136   1005.4903    623.6565 300.2810569 +22.8480943     977.8832     72.84519      1.567     3.22     5.057386     20.53616     98.63029        18     1.139     0.968 -11.03   0
       137    102.4086    621.2822 300.0007274 +22.5767038      1469.56     72.73396      1.967     4.67     4.970823     20.53616     118.2168        28     1.630     1.161 -82.52   0
       138    872.3400    621.9898 300.2400831 +22.8077332     446.2632      72.7525      1.358     3.68      4.86234     20.53616     53.28273        12     1.075     0.767 -56.06   0
       139    168.6216    621.8301 300.0211216 +22.5967255     373.7677      72.7896      1.607     3.29       4.4172     20.53616     55.43167         5     0.995     0.343 -68.42   0
       140    550.6401    617.7681 300.1412504 +22.7101184     381.1769     72.82667      1.275     3.81     5.307374     20.53616     57.93183         8     0.948     0.608  74.51   0
       141    945.1476    616.5958 300.2645333 +22.8279924      792.355      72.7896      2.149     6.29     5.071815     20.53616     67.23983        16     1.849     0.782   9.59   0
       142    343.8062    617.0163 300.0771437 +22.6478890     335.6862     72.71539      1.624     4.06     4.729138     20.53616      32.0904         5     0.916     0.646 -61.64   0
       143    507.5210    610.3477 300.1302406 +22.6950621     738.3992     72.80814      1.399     2.96     5.189196     20.53616     82.78908        12     1.038     0.760  50.86   0
       144    655.0504    609.1811 300.1765465 +22.7389473     350.8188     72.77105      1.340     3.29     5.205721     20.53616     59.08234         6     0.995     0.533  23.13   0
       145    702.8027    607.4865 300.1919689 +22.7527709      415.958     72.71539      1.279     3.04     5.115469     20.53616     65.54573         6     0.847     0.513  43.48   0
       146    672.9715    607.1308 300.1827934 +22.7437292     487.7153      72.7896      1.341     2.50     5.157184     20.53616     66.50154         8     0.792     0.631  37.53   0
       147    551.8126    606.1381 300.1453932 +22.7071308     871.2128      72.7525      1.456     3.24     5.358093     20.53616     111.2897        16     1.262     0.763  24.35   0
       148    985.4912    601.7514 300.2819358 +22.8358095     3212.003     72.80814      1.588     3.09     5.075035     20.53616     294.9451        32     1.235     1.193  64.67   0
       149    517.2639    601.5861 300.1361187 +22.6954674     1776.432      72.7525      1.389     2.48     5.248113     20.53616     205.2974        22     1.084     1.008  23.02   0
       150    492.9519    597.2531 300.1299602 +22.6869353     326.4377     72.82667      1.481     4.64     5.171254     20.53616     50.47079         7     1.061     0.609  67.71   0
       151     79.1750    595.1274 300.0020051 +22.5622311     5056.767     72.82667      1.658     3.18     5.104654     20.53616     468.4219        37     1.312     1.281  42.83   0
       152    380.6061    588.3119 300.0979123 +22.6506858     9049.001     72.69684      1.475     2.71     4.838945     20.53616     967.4296        43     1.257     1.184  81.44   0
       153    503.0945    585.4106 300.1369629 +22.6865759     8880.792     72.73396      1.412     2.50     5.244283     20.53616     1025.052        44     1.268     1.149  50.83   0
       154    147.3810    581.5581 300.0276017 +22.5788007     365.0436     72.80814      1.360     3.42     4.517116     20.53616     37.08662         5     1.035     0.327  68.57   0
       155    914.7311    579.4905 300.2671031 +22.8082196     1912.499     72.93777      1.481     2.82     5.017166     20.53616     198.8325        22     1.117     1.039 -89.10   0
       156    999.4290    576.8396 300.2943746 +22.8328237     12494.94      72.7896      1.602     3.15     5.018372     20.53616     1167.954        52     1.330     1.327  42.39   0
       157    563.6848    575.0245 300.1591945 +22.7017556     11544.14      72.7525      1.405     2.47      5.39536     20.53616     1454.082        44     1.192     1.158  78.04   0
       158    733.2112    571.0648 300.2132712 +22.7514212     545.5729     72.71539      1.214     2.22     5.243983     20.53616     87.19344         6     0.700     0.558  47.01   0
       159    291.0338    570.4332 300.0758641 +22.6186949     1299.324     72.86372      1.427     2.78      4.62204     20.53616     140.8832        18     1.142     0.920  16.67   0
       160    537.7346    568.0112 300.1533949 +22.6919637     459.8639     72.73396      1.494     2.84     5.361323     20.53616     66.78366         9     0.952     0.631  39.20   0
       161    495.2824    563.1911 300.1417483 +22.6778548     4425.243     72.73396      1.377     2.54     5.298671     20.53616     504.7651        31     1.192     1.041  50.60   0
       162    838.3166    563.3185 300.2485365 +22.7806839     729.0566     72.91927      1.347     2.66     4.887571     20.53616     93.84532        13     0.961     0.783  38.17   0
       163    473.5742    561.5945 300.1355116 +22.6708889     1292.078     72.77105      1.397     2.39      5.23285     20.53616     187.1917        17     1.047     0.892  41.46   0
       164    227.7513    560.7864 300.0593243 +22.5969480     785.4131     72.82667      1.507     4.33     4.766727     20.53616      73.9244        15     1.177     0.957  48.39   0
       165    915.0473    558.5948 300.2739885 +22.8023095     1605.662     72.77105      1.591     3.18     5.005929     20.53616     143.1669        22     1.200     1.052 -88.57   0
       166    611.9946    550.7432 300.1821200 +22.7092615     200468.6      72.7525      1.418     2.50     5.517003     20.53616     26173.65       201     1.490     1.432   6.92   0
       167    161.9497    558.6297 300.0395746 +22.5765929      386.796     72.80814      1.830     4.13     4.403378     20.53616     31.00845         5     0.795     0.613  82.83   0
       168    435.4876    556.9819 300.1251595 +22.6581470     417.7669     72.73396      1.418     1.92     4.969318     20.53616     59.84722         6     0.713     0.498  85.33   0
       169    795.8819    555.6923 300.2377894 +22.7657809      716.611     72.93777      1.305     3.00     5.016185     20.53616     95.66134        13     1.017     0.818 -26.51   0
       170    298.0514    550.5854 300.0844916 +22.6151033     3450.277     72.80814      1.454     2.73     4.730643     20.53616     395.0795        27     1.197     1.043  59.15   0
       171    863.9977    546.8992 300.2618732 +22.7836585     506.6626     72.67827      1.417     3.05     4.847202     20.53616     55.21785         8     0.896     0.621  64.68   0
       172    643.5110    537.0598 300.1963771 +22.7147760     240.6617     72.86372      1.204     3.02     5.526055     20.53616     35.83916         6     0.773     0.498 -85.51   0
       173    502.6087    531.2407 300.1544038 +22.6708771     2767.623      72.7896      1.489     2.40     5.345772     20.53616     338.6037        30     1.488     1.001 -85.64   0
       174    346.9082    533.3644 300.1052761 +22.6248103     294.8949     72.73396      1.173     2.85     4.840943     20.53616     53.12846         7     0.833     0.550  27.82   0
       175    952.4474    531.5695 300.2944263 +22.8057432      311.372     72.80814      1.274     3.97     5.009471     20.53616     42.47122         6     0.916     0.492  -4.34   0
       176    914.0234    527.5057 300.2837658 +22.7930683     340.5187     72.67827      1.568     3.78     4.996948     20.53616     29.56626         6     0.821     0.499   2.43   0
       177    931.6616    522.8191 300.2907868 +22.7970036     194.6539     72.77105      1.264     3.78     5.036913     20.53616     28.69342         6     0.737     0.640 -24.20   0
       178    819.7254    519.8981 300.2568435 +22.7626389     461.0648     72.91927      1.417     4.93     4.993884     20.53616     52.42725        10     0.991     0.710  -3.64   0
       179    899.6573    517.2994 300.2826014 +22.7858326      1708.63     72.88224      1.469     2.75     4.958142     20.53616     165.1359        23     1.177     1.010  -9.77   0
       180    786.0815    517.7975 300.2470417 +22.7519574     351.9842     72.69683      1.195     3.40     5.123625     20.53616     33.01317         5     0.784     0.509  54.98   0
       181    770.7842    514.9520 300.2431994 +22.7465574     2568.201     72.82667      1.342     2.34      5.19546     20.53616     363.0472        23     1.074     1.003 -30.58   0
       182     29.7743    515.6616 300.0124662 +22.5246162     849.5458      72.7896      1.888     5.18      5.15951     20.53616     105.8248        18     1.566     0.978 -19.09   0
       183    408.9023    514.9923 300.1305239 +22.6381226     198.2478      72.6597      1.317     3.95     4.853316     20.53616     37.28149         5     1.148     0.471 -19.22   0
       184    131.0067    515.1828 300.0440675 +22.5548462      304.638     72.73396      1.538     3.96     4.752714     20.53616     27.33084         5     0.851     0.528 -56.47   0
       185   1015.4451    512.5596 300.3202458 +22.8191427     479.0239     72.86372      1.496     4.66      4.91601     20.53616     45.72427         7     0.917     0.673 -18.53   0
       186    675.6791    511.3009 300.2147592 +22.7170158     554.3051     72.91927      1.675     3.88     5.469571     20.53616     55.66158         7     0.806     0.643  41.19   0
       187    557.8300    510.8036 300.1782271 +22.6815589       683.11      72.7525      1.292     2.78     5.543893     20.53616     100.9792        12     0.954     0.788  26.17   0
       188   1013.9725    508.2350 300.3211907 +22.8174586     777.4538     72.80814      1.582     3.46      4.91573     20.53616     72.54152        12     1.029     0.801 -87.59   0
       189    899.9088    507.3533 300.2859094 +22.7830494     2311.894      72.7896      1.675     3.28     4.960374     20.53616     250.1617        30     1.528     1.096  72.26   0
       190    653.0672    505.4209 300.2096265 +22.7085517     768.4542     72.77105      2.091     2.66     5.572819     20.53616     70.05351         9     0.866     0.639  60.18   0
       191    938.0607    502.4586 300.2993934 +22.7930679     4228.887     72.86372      1.492     2.70     5.027656     20.53616     510.8464        32     1.193     1.179 -73.10   0
       192    491.4491    504.0016 300.1597756 +22.6597107     434.5347     72.77105      1.449     4.19     5.248158     20.53616     49.81079         9     0.997     0.700  52.52   0
       193    579.3497    501.9561 300.1877988 +22.6854670     181.6148     72.82667      1.159     1.99     5.672121     20.53616     52.80977         5     0.804     0.473 -84.34   0
       194    438.4845    505.4634 300.1428207 +22.6442548     402.2245     72.88224      1.484     4.86     4.970175     20.53616     45.33947         7     1.051     0.637 -39.67   0
       195    598.2411    498.2807 300.1948735 +22.6900725     312.8496      72.7525      1.279     4.32     5.780352     20.53616     36.59493         7     0.854     0.623 -29.26   0
       196    170.1491    492.4955 300.0635958 +22.5600764     1004.186     72.86372      1.565     3.41     4.665075     20.53616     94.61028        16     1.028     1.010  83.10   0
       197    994.2051    491.4383 300.3204795 +22.8067115      144.287     72.80814      1.160     4.43     4.940731     20.53616     27.18866         5     0.813     0.700 -61.09   0
       198    969.5479    490.4681 300.3131050 +22.7990498     280.6071     72.80814      1.138     3.70     4.977643     20.53616     34.53199         6     0.939     0.419 -71.34   0
       199    830.4664    486.1937 300.2711347 +22.7561709     286.7156      72.7896      1.160     2.44     4.965814     20.53616     40.05835         5     0.704     0.473  72.44   0
       200    436.4980    486.0528 300.1485047 +22.6380861     343.4634     72.88224      1.260     4.73     4.943893     20.53616     37.61634         8     0.892     0.710  33.41   0
       201    162.3427    482.5915 300.0643852 +22.5548932     330.7825     72.77105      1.310     3.45     4.651296     20.53616     41.87598         6     0.904     0.669  24.69   0
       202    770.6377    476.8875 300.2555128 +22.7355766     308.1096     72.77105      1.307     3.64      5.17829     20.53616     58.11795         8     0.927     0.710 -63.03   0
       203    378.7278    475.3971 300.1339930 +22.6177095     321.9426     72.73396      1.357     4.28     4.903106     20.53616     39.77347         6     1.074     0.486   3.55   0
       204    659.8281    474.6279 300.2217296 +22.7017318      239.907      72.7525      1.276     2.53      5.55658     20.53616     39.53704         5     0.718     0.449  18.67   0
       205    711.4476    472.5181 300.2384918 +22.7165904     883.1359     72.80814      1.653     3.77     5.378778     20.53616     99.17454        15     1.107     1.062   5.36   0
       206    772.2443    465.2389 300.2597951 +22.7327106      828.589     72.86372      1.283     2.50     5.137467     20.53616     112.6046        11     0.937     0.677  47.41   0
       207    929.6223    461.4204 300.3100865 +22.7787451     928.5547      72.7896      1.378     2.66     4.985542     20.53616     104.0813        13     0.913     0.838 -32.37   0
       208    913.9620    457.7957 300.3063807 +22.7730140     640.8433     72.82667      1.437     2.63     4.954498     20.53616     84.01417        10     0.861     0.743 -82.36   0
       209    658.0441    455.6588 300.2273322 +22.6957480     3190.609     72.80814      1.326     2.29      5.53032     20.53616     477.0246        25     1.087     0.971  61.07   0
       210   1018.7314    454.7238 300.3400490 +22.8034995     611.4482     72.88224      1.733     3.01     4.868249     20.53616     64.62296         9     0.908     0.746  49.03  16
       211    134.2470    446.8449 300.0672588 +22.5362094     496.2666     72.82667      1.652     2.55       5.0393     20.53616     46.35732         6     0.732     0.553 -39.68   0
       212    663.4013    443.7734 300.2328587 +22.6939384     215.2381     72.73396      0.991     1.90     5.472618     20.53616     51.34811         5     0.647     0.478 -75.60   0
       213    497.8380    442.6776 300.1816721 +22.6440152     351.0403     72.77105      1.343     3.40     5.188127     20.53616     46.25142         6     0.954     0.543  34.48   0
       214    429.8025    443.5294 300.1602259 +22.6238693     324.0674     72.73396      1.288     3.15     5.031993     20.53616     38.11457         5     0.736     0.459  19.86   0
       215    941.5996    434.6550 300.3225098 +22.7746373     533.2349     72.71539      1.383     2.94     4.905829     20.53616     67.96821         9     0.894     0.723   6.32   0
       216    768.6205    429.6083 300.2702325 +22.7213865     1052.576      72.7525      1.305     2.30     5.040272     20.53616     137.4355        14     0.871     0.863  82.58   0
       217    564.3769    430.0431 300.2064833 +22.6603254     388.4692     72.84519      1.399     2.93     5.430954     20.53616     62.24794         7     0.832     0.652 -14.25   0
       218    272.6342    427.5463 300.1165337 +22.5721667     672.3561     72.80814      1.497     3.32     5.028603     20.53616      73.2478        11     0.926     0.884   1.66   0
       219    111.7397    425.8888 300.0670676 +22.5234459     324.6939     72.86372      1.543     4.88     5.339671     20.53616      37.6734         8     1.062     0.636  25.67   0
       220    334.9240    423.4350 300.1372365 +22.5896601     3692.146      72.7525      1.402     2.56      5.07515     20.53616     447.9431        24     1.120     1.002  42.19   0
       221    282.1605    418.2332 300.1225182 +22.5723492     7616.092     72.82667      1.434     2.53     5.048681     20.53616     793.6108        41     1.227     1.189  48.58   0
       222    422.9388    412.4982 300.1681625 +22.6129014     4675.854     72.86372      1.379     2.53     5.125546     20.53616       591.36        29     1.140     1.039  56.42   0
       223    667.1465    409.1893 300.2452507 +22.6851241     18604.48      72.7896      1.364     2.46     5.391597     20.53616     2159.179        62     1.312     1.220  38.89   0
       224    684.8077    409.4530 300.2506656 +22.6904904     818.7115      72.7896      1.921     5.94     5.312238     20.53616      70.8186        17     1.494     0.872 -46.34   0
       225    514.4423    410.7297 300.1972092 +22.6398153     374.9418      72.7525      1.529     4.14     5.179068     20.53616     34.12918         5     0.997     0.491 -84.91   0
       226    294.1673    407.6256 300.1296940 +22.5729035     239.1945      72.7896      1.192     3.51     5.072429     20.53616     35.37133         5     0.827     0.431 -18.16   0
       227    524.2430    405.7948 300.2018611 +22.6413347     327.2769     72.80814      1.754     4.44     5.193506     20.53616     28.07001         5     0.775     0.724  38.10   0
       228    864.1277    399.5854 300.3097408 +22.7413595     402.6148      72.7896      1.244     2.72      4.87714     20.53616     66.72973         6     0.892     0.492  -1.93   0
       229   1000.7226    391.9240 300.3548169 +22.7800519     878.2565     72.90076      1.733     4.31     4.834235     20.53616     77.81367        15     1.222     0.942 -58.55   0
       230    710.7374    390.2140 300.2649861 +22.6927290     152.1385      72.7525      1.112     3.98     5.261595     20.53616     39.76186         5     0.936     0.484 -43.86   0
       231    221.8597    389.2851 300.1131670 +22.5459608     1897.242     72.90075      1.413     2.93     5.003259     20.53616     200.9402        22     1.135     0.990  58.96   0
       232    877.6336    380.8422 300.3200338 +22.7400156     288.4842     72.84519      1.330     3.36     4.870456     20.53616     34.50765         5     0.763     0.429  69.66   0
       233    607.7989    378.5973 300.2366985 +22.6585560     6594.125     72.56677      1.334     2.37     5.525949     20.53616     910.3636        37     1.197     1.082  62.53   0
       234   1021.6012    379.0116 300.3655197 +22.7825887     1256.009     66.83565      1.507     3.13     4.830934     20.53616     132.9416        20     1.113     1.047  24.18  24
       235    322.6991    378.2985 300.1480832 +22.5730364      632.249     73.03022      1.303     2.77     5.180528     20.53616     85.03011        10     0.944     0.719  59.93   0
       236    180.8028    370.8467 300.1063896 +22.5283585     536.6612     72.77105      1.446     4.94     5.056021     20.53616       54.727        12     1.087     0.881 -38.58   0
       237    868.0876    370.5770 300.3203895 +22.7342064     270.1628     72.71539      1.407     3.40     4.874252     20.53616     39.28302         5     0.770     0.434 -21.71   0
       238     27.5531    368.8805 300.0594172 +22.4818391     1386.857      72.7896      1.617     3.26     5.246395     20.53616     143.3734        20     1.161     1.024 -11.87   0
       239    812.0605    367.7071 300.3038589 +22.7166053     1315.091     72.88224      1.539     3.01     5.006786     20.53616     139.0644        18     1.095     0.959  43.02   0
       240    721.4567    368.7837 300.2752799 +22.6897812     386.3456      72.7525      1.382     4.23     5.310085     20.53616     60.21643        10     1.091     0.730  77.39   0
       241    514.4181    364.8640 300.2120862 +22.6266338     6146.231     72.77105      1.364     2.39     5.223106     20.53616      782.662        35     1.205     1.076  59.94   0
       242    703.9282    364.1366 300.2713278 +22.6831959     7409.681     72.82667      0.489    -1.73     5.341459     20.53616     5524.994        13     0.617     0.315 -58.47   0
       243   1003.5128    359.6695 300.3661548 +22.7716123     628.4646     72.91927      1.400     2.64      4.83599     20.53616     73.53734        11     0.895     0.764  38.17   0
       244    906.4192    359.2833 300.3360038 +22.7424360     1394.199     72.73396      1.350     2.62      4.85246     20.53616     174.9985        17     1.059     0.888  74.91   0
       245    499.2618    353.8010 300.2109591 +22.6189147      591.483      72.7525      1.679     4.06     5.233364     20.53616      52.1046        10     1.033     0.691  46.45   0
       246      4.9190    353.6344 300.0573348 +22.4706761     426.3742      71.8566      1.590     5.98     5.211514     20.53616     39.09954         7     1.428     0.704  68.74  16
       247    581.9281    351.3199 300.2374954 +22.6429689       489.45     72.91927      1.227     3.09     5.325813     20.53616     74.10391        11     0.978     0.799 -83.28   0
       248     25.7515    350.2381 300.0649063 +22.4759494     993.7721     72.80814      1.704     4.03     5.294154     20.53616     100.7821        21     1.297     1.147  43.85   0
       249    859.6125    350.2971 300.3243288 +22.7258390      353.053     72.67827      1.390     3.93     4.887021     20.53616     47.85045         6     0.932     0.476  51.65   0
       250    879.4074    347.0978 300.3315372 +22.7308458      525.534      72.6597      1.363     2.62       4.8619     20.53616     70.76334         8     0.814     0.664  31.49   0
       251    402.0739    344.1041 300.1838661 +22.5870069     2603.997     72.93777      1.373     2.52     5.289512     20.53616     312.7935        23     1.068     1.013  48.01   0
       252    120.5583    341.5390 300.0971786 +22.5018829     1019.276     72.77105      1.578     3.41     5.392599     20.53616     100.4339        18     1.093     1.018  61.71   0
       253    749.7123    338.9405 300.2937662 +22.6896665     302.5406     72.86372      1.404     3.81     5.247255     20.53616     32.45716         5     0.836     0.499  32.69   0
       254    371.3527    333.5153 300.1777455 +22.5747592     29669.03      72.7896      1.388     2.45     5.320076     20.53616     3537.465        72     1.352     1.200  60.41   0
       255    349.5045    337.0837 300.1697925 +22.5692361     289.0441     72.97476      1.368     3.78     5.324265     20.53616      37.3769         6     0.825     0.497  85.30   0
       256    905.9791    331.2010 300.3449789 +22.7342303     1517.286     72.71539      1.426     2.61     4.839549     20.53616     170.9859        22     1.172     0.954  34.14   0
       257    861.6544    329.0819 300.3318491 +22.7203513     363.0424     72.84519      1.338     2.35     4.857962     20.53616     52.39136         6     0.777     0.474  86.56   0
       258    821.2480    319.9972 300.3222030 +22.7056418     498.0115      72.7896      1.445     4.03     4.948424     20.53616     63.22499        12     1.058     0.874  42.50   0
       259     67.6680    321.3047 300.0873122 +22.4802162     5032.105     72.93777      1.611     2.92     5.506352     20.53616     523.1064        39     1.357     1.233  50.82   0
       260    245.5540    319.9904 300.1430161 +22.5331708       552.07     72.80814      1.482     2.77     5.160522     20.53616     53.63643         8     0.734     0.722  17.00   0
       261    469.8977    318.8500 300.2131613 +22.6000768     396.1382     72.86372      1.277     2.83     5.279774     20.53616     60.38539         8     0.809     0.669 -58.05   0
       262    781.8972    313.3960 300.3120822 +22.6919618     1816.993     72.69683      1.312     2.39     5.041039     20.53616     258.5277        23     1.117     1.066 -53.02   0
       263    589.9061    307.8632 300.2540787 +22.6328728     254.9303     72.88224      1.347     2.66     5.341275     20.53616       44.346         6     0.745     0.553  43.34   0
       264    996.9063    306.2513 300.3814272 +22.7542731     598.7932     72.86372      1.442     3.15     4.849629     20.53616     67.53703        10     0.946     0.711 -63.44   0
       265    850.6348    299.1741 300.3381177 +22.7084537     259.5033      72.7896      1.457     3.47     4.848187     20.53616     27.72243         5     0.793     0.438 -72.47   0
       266    443.5927    297.7648 300.2118167 +22.5861384     2254.423      72.7896      1.636     3.32     5.305768     20.53616     225.7888        26     1.443     0.962  60.87   0
       267    655.9138    296.7613 300.2782338 +22.6494532     288.0911     72.77105      1.289     2.57     5.089978     20.53616     46.28449         7     0.730     0.652   2.67   0
       268    882.6544    290.8383 300.3508028 +22.7156426     626.6893      72.7896      1.366     2.71     4.814055     20.53616     75.68056         8     0.828     0.663  65.35   0
       269     15.9009    289.0000 300.0817130 +22.4554218     903.4086     72.62254      2.556     7.55      5.48014     20.53616     91.58896        14     1.740     0.916 -25.51   0
       270    764.9020    288.5280 300.3148545 +22.6797245     298.2806     72.91927      1.260     3.06     5.007575     20.53616      52.9405         8     0.856     0.630  45.12   0
       271    782.1635    288.6380 300.3201972 +22.6849246      314.968     72.86372      1.663     2.38     4.973024     20.53616     41.23735         5     0.721     0.439 -20.04   0
       272    733.3809    287.5695 300.3053450 +22.6700105     209.0663      72.7896      1.014     3.39      5.06072     20.53616      34.3119         5     1.019     0.326  68.10   0
       273    519.4536    277.2061 300.2420928 +22.6029599     1331.265     72.77105      1.503     2.52     5.309081     20.53616     146.6453        18     1.027     0.959  12.33   0
       274     91.7819    277.0100 300.1091714 +22.4747331     405.2294      72.7525      2.101     4.54     5.607549     20.53616     39.93876         7     1.067     0.549  32.74   0
       275    764.2646    269.1003 300.3209580 +22.6739489     2222.792     72.88224      1.355     2.38     5.044672     20.53616     287.5149        23     1.079     1.008  73.52   0
       276   1023.9405    263.2993 300.4037933 +22.7500101      601.507      55.0798      0.966     3.10     4.880545     20.53616     126.0179         6     1.201     0.234 -88.28  24
       277      1.4712    254.5838 300.0883944 +22.4412177     1602.479     57.47776      2.287     6.08     5.994977     20.53616     148.3752        25     2.321     0.665 -89.97  24
       278    178.2589    247.4123 300.1456411 +22.4921607     604.3034     72.77105      1.372     2.76     5.319983     20.53616     77.84128         9     0.920     0.680 -25.07   0
       279    147.4974    247.0581 300.1361965 +22.4828379      1351.24     72.86372      1.588     3.30     5.343324     20.53616     121.5731        21     1.308     0.957 -59.65   0
       280    231.4653    239.0860 300.1648788 +22.5057176     546.7234     72.88224      1.469     3.11     5.379687     20.53616     61.09464        11     1.015     0.788  24.32   0
       281    472.7638    253.0819 300.2353873 +22.5820419     611.9178      72.7525      1.297     2.67     5.361183     20.53616     85.74101        11     0.907     0.783  -1.86   0
       282    907.4708    233.0006 300.3773003 +22.7064392       468.91     72.69683      1.742     3.75     4.865908     20.53616     45.86926         6     0.818     0.493  83.11   0
       283    835.8923    230.5380 300.3557866 +22.6843059     694.6624     72.90075      1.341     2.89     4.826579     20.53616     84.84507        10     0.958     0.655  56.30   0
       284    426.2891    230.0337 300.2284019 +22.5614972      447.063      72.7525      1.411     3.28     5.423052     20.53616     60.34505         6     0.973     0.557  65.02   0
       285    926.7488    224.0591 300.3862108 +22.7096375     328.3868     72.84519      1.251     4.17     4.906388     20.53616     45.74099         6     0.918     0.540   1.55   0
       286    933.9998    219.5851 300.3899227 +22.7105209     2103.774     72.64112      1.452     2.58     4.939227     20.53616     292.9872        22     1.134     1.002 -85.73   0
       287    352.6379    216.8954 300.2097521 +22.5356563     2087.388     72.77105      1.419     2.57     5.408097     20.53616     250.8749        19     1.023     0.955  89.90   0
       288    832.3400    211.3216 300.3609116 +22.6777170      637.016     72.82667      1.406     3.53     4.876933     20.53616      71.8729        10     1.248     0.599  39.90   0
       289    939.6665    208.4392 300.3953043 +22.7090110     445.5925      72.7525      1.180     2.58     5.029927     20.53616      47.5274         5     0.680     0.478 -15.85   0
       290     28.8075    205.6888 300.1127398 +22.4353800      342.157     72.69683      1.300     3.39     6.191787     20.53616     42.83268         5     0.943     0.353 -45.57   0
       291    247.1773    204.1219 300.1811015 +22.5003858     793.2947      72.7525      1.471     2.97     5.421512     20.53616     82.13373        11     0.938     0.784  75.89   0
       292    430.4950    212.0442 300.2355443 +22.5575890     924.5863     72.80814      1.404     2.66     5.431327     20.53616     127.9151        15     1.003     0.950  69.36   0
       293    785.1270    201.0580 300.3495267 +22.6606327     1600.038     72.82667      1.353     2.47     4.955323     20.53616     210.1063        20     1.079     0.914  64.68   0
       294    849.9197    200.6130 300.3698635 +22.6798997     648.8727     72.77105      1.404     3.59     4.965667     20.53616     70.62267        10     1.049     0.678  48.20   0
       295    268.7708    197.7085 300.1898943 +22.5050149     617.0944      72.7525      1.439     3.56     5.412604     20.53616       73.976         7     0.952     0.545 -24.45   0
       296    512.2859    197.0910 300.2658449 +22.5777930     220.9333     72.95627      1.147     4.27      5.38625     20.53616     29.27559         6     0.793     0.656 -27.42   0
       297    789.1990    192.5844 300.3535434 +22.6594153     801.0854     72.64112      1.484     2.81      4.92361     20.53616      99.5771        11     0.997     0.688  44.49   0
       298    709.7800    191.8736 300.3290304 +22.6354349     1215.706      72.7896      1.333     2.44     5.335879     20.53616     175.0475        17     1.038     0.916  77.51   0
       299    558.7440    193.2635 300.2815469 +22.5906075     408.2476     72.84519      1.321     4.30     5.350537     20.53616      41.9616         7     0.871     0.605  38.83   0
       300    905.4062    183.2273 300.3927981 +22.6915066     1439.667      72.7896      1.402     2.53     5.193101     20.53616     189.1586        19     1.102     0.974  56.07   0
       301    636.0114    183.4647 300.3087816 +22.6109300     898.4734     72.73396      1.346     3.99      5.33393     20.53616      128.835        14     1.173     0.810  76.43   0
       302    917.2825    182.3906 300.3967721 +22.6948201     779.8868     72.73396      1.406     3.13     5.213619     20.53616     90.83134        15     1.074     0.908 -76.54   0
       303      7.4962    171.3525 300.1172540 +22.4191344     139.5773     72.82667      1.018     3.44     6.447055     20.53616     45.68902         5     0.741     0.460 -70.38   0
       304     57.3253    169.6418 300.1332849 +22.4335814     405.8627     72.77105      1.359     3.42     5.988877     20.53616     54.11678        10     0.965     0.783 -13.37   0
       305    268.1215    165.8580 300.2000194 +22.4956724     736.8309     72.82667      1.357     2.71     5.419722     20.53616     85.98063        11     0.861     0.799  -5.35   0
       306    129.8872    160.2663 300.1588672 +22.4526398     2351.118     72.88224      1.593     2.97     5.571617     20.53616     263.6375        27     1.288     1.138  62.94   0
       307    953.0368    157.6916 300.4159292 +22.6984150     779.5425      72.7525      1.448     3.27     5.385846     20.53616     104.5393        15     1.110     0.929 -74.60   0
       308     79.7396    157.2068 300.1442789 +22.4367303     496.6854      72.7525      1.380     2.22     5.796395     20.53616      57.5606         8     0.754     0.647  47.15   0
       309    287.3004    153.7444 300.2099097 +22.4979396     5676.296     72.88224      1.459     2.57      5.38727     20.53616     656.0734        39     1.280     1.141  62.17   0
       310    269.1787    154.6450 300.2039834 +22.4927685     380.8727     72.84519      1.245     2.75     5.416189     20.53616     43.51871         5     0.718     0.456 -15.21   0
       311     71.1641    148.0698 300.1445770 +22.4315364     1345.785      72.7896      1.627     3.36     5.856451     20.53616     145.7588        20     1.272     1.005  50.57   0
       312     32.6829    149.2510 300.1322413 +22.4203404     323.4561     72.80814      1.842     4.16     6.223983     20.53616     34.64485         6     0.751     0.656  39.96   0
       313    270.8289    144.8156 300.2076830 +22.4904396     601.5518      72.7896      1.381     2.71     5.408776     20.53616     81.71281         9     0.926     0.639   9.86   0
       314    931.4131    135.4453 300.4163992 +22.6855452     3708.417      72.7896      1.507     2.57     5.389051     20.53616     420.9262        35     1.332     1.121  62.06   0
       315    480.7116    130.6636 300.2775556 +22.5492470     541.4017     72.90076      1.352     2.98      5.43887     20.53616     69.09912        12     0.969     0.789  50.78   0
       316    233.4698    130.7672 300.2006227 +22.4752102     311.8813     72.77105      1.545     4.50     5.442541     20.53616     46.77483         7     1.368     0.420  21.21   0
       317    594.8423    128.2502 300.3138639 +22.5827312     200.6593     72.80814      1.174     2.44     5.362412     20.53616     45.72704         6     0.721     0.558 -52.48   0
       318    405.0926    122.4886 300.2566772 +22.5242486     833.8384     72.95627      2.001     2.64     5.458029     20.53616      77.5088         9     0.819     0.735 -14.79   2
       319    170.9745    119.5284 300.1848410 +22.4532551     687.3963      72.7896      1.466     5.10     5.434445     20.53616     59.65336        13     1.275     0.916 -80.67   0
       320    532.2491    117.8419 300.2977521 +22.5609964     1616.584     72.80814      1.387     2.26     5.339569     20.53616     233.5657        20     1.005     0.970 -89.42   0
       321    593.6731    117.3322 300.3170391 +22.5792426     454.4374     72.86372      1.523     4.18      5.37718     20.53616     50.70881        11     0.985     0.878 -38.36   0
       322    460.2575    118.3285 300.2751893 +22.5395761     399.9807     72.82667      1.488     4.10     5.451973     20.53616     46.62433         6     0.765     0.628  84.45   0
       323    275.9396    113.0269 300.2195767 +22.4828395     499.4692     72.80814      1.425     4.08     5.392208     20.53616     47.61427         9     1.052     0.647 -70.55   0
       324    749.0377    111.9847 300.3671615 +22.6242171     328.6827      72.7896      1.400     3.73     5.389609     20.53616     32.64156         5     0.994     0.403 -27.52   0
       325    821.0079    107.3574 300.3910880 +22.6444271     306.0755     72.80814      1.477     3.45     5.353738     20.53616      53.2972         5     0.797     0.432  17.96   0
       326    668.2903    103.9107 300.3446255 +22.5977242     160.8998     72.95627      1.053     3.34     5.424061     20.53616     41.33591         5     0.942     0.343  45.27   0
       327    306.1737     97.6139 300.2339735 +22.4874696     5935.468      72.7896      1.441     2.58     5.384109     20.53616     680.3041        35     1.290     1.084  50.88   0
       328    716.9634     99.0874 300.3613498 +22.6109077     194.3048     72.77105      1.222     3.75     5.432104     20.53616      32.1329         5     1.018     0.396 -59.07   0
       329    812.3557     98.4435 300.3912810 +22.6392740     332.8126     72.84519      1.093     3.23     5.420018     20.53616      56.9488         5     0.749     0.421  25.21   0
       330    157.2647     96.9331 300.1879041 +22.4426574     688.7071     72.84519      1.691     3.65     5.399853     20.53616     74.30408        10     1.037     0.807 -74.12   0
       331    935.4447     95.4747 300.4306137 +22.6752530     395.0274     72.77105      1.257     3.64      5.39601     20.53616     45.83849         6     0.917     0.416  70.55   0
       332      1.4931     94.0697 300.1404410 +22.3951486     372.6331     57.66529      1.071     3.13      6.55826     20.53616      72.2392         7     0.765     0.603 -74.35  24
       333    277.9418     91.4993 300.2271768 +22.4772551     395.6168     72.88224      1.562     5.44     5.378524     20.53616     46.66322         9     1.231     0.844  42.30   0
       334    781.8831     88.9588 300.3848593 +22.6274262     331.7295      72.7525      1.379     2.97     5.495197     20.53616      42.3667         5     0.782     0.502 -31.43   0
       335     68.4088     87.9157 300.1632191 +22.4134386      466.326     72.73396      1.584     3.99     5.685255     20.53616     48.57826         8     0.884     0.833  70.07   0
       336    552.3317     83.0091 300.3152940 +22.5569976     6154.639     72.77105      1.384     2.55     5.366556     20.53616     694.2267        38     1.258     1.082  69.66   0
       337    437.6217     82.8745 300.2796378 +22.5226080     711.1049      72.7896      1.459     2.98     5.484779     20.53616     93.85389        12     0.972     0.829  67.33   0
       338    804.7359     73.0901 300.3971241 +22.6297016     847.4731     72.88224      1.506     3.20     5.613951     20.53616      93.4815        13     1.108     0.754 -23.01   0
       339    746.2336     74.5084 300.3784353 +22.6126007     173.6869      72.7525      1.174     2.73     5.600072     20.53616     40.27122         5     0.724     0.456  21.50   0
       340    897.1379     71.4906 300.4264441 +22.6568916     129.4871     72.88224      2.936     3.66     5.503203     20.53616     48.08456         9     1.082     0.696  62.22   0
       341    205.1496     68.7912 300.2119071 +22.4489228     286.1921      72.7896      1.571     4.20     5.368448     20.53616     34.29405         6     0.784     0.643  80.98   0
       342    116.8037     68.8003 300.1844491 +22.4224528      262.188     72.56677      1.318     3.96     5.352734     20.53616      26.7979         6     0.769     0.584  43.57   0
       343    603.4896     65.2129 300.3369887 +22.5671985     346.5502     72.73396      1.259     4.50     5.466487     20.53616     52.47066         8     1.127     0.616  58.94   0
       344    245.1038     66.3837 300.2251072 +22.4602019     487.4096     72.69683      1.388     4.34     5.348071     20.53616     53.72242         7     0.880     0.608  21.94   0
       345    680.6885     63.0828 300.3617202 +22.5896962     6251.909     72.90075      1.396     2.52     5.502192     20.53616     720.0799        35     1.202     1.112  68.99   0
       346    455.4378     62.0488 300.2919308 +22.5219584     1379.633     72.80814      1.404     2.87     5.486592     20.53616     167.4573        19     1.187     0.933  64.21   0
       347    721.6716     60.5709 300.3753003 +22.6012410     853.0392      72.7896      1.216     2.32     5.651636     20.53616      128.571        12     0.956     0.761  79.55   0
       348    791.2151     58.5877 300.3976109 +22.6214841     356.6096     72.73396      1.343     3.45     5.720672     20.53616      31.8987         5     0.773     0.444 -19.59   0
       349    737.9973     56.5865 300.3816777 +22.6049814     715.8809     72.62254      1.423     2.62     5.734848     20.53616     84.86936         8     0.742     0.702 -47.49   0
       350    204.4534     54.3154 300.2163818 +22.4445561     631.6305     72.84519      1.400     3.10     5.352511     20.53616     92.29454        12     0.953     0.935 -45.61   0
       351   1007.4952     54.2586 300.4664423 +22.6849490     525.6223     72.86372      1.644     3.07     5.409466     20.53616     68.96021         9     0.968     0.674 -21.06   0
       352    776.4358     52.0026 300.3951397 +22.6151671     422.4822     72.77105      1.249     2.87     5.773004     20.53616     57.35715         8     0.828     0.672  42.92   0
       353    724.9108     47.9826 300.3803891 +22.5985903     2717.597     72.71539      1.412     2.51     5.744282     20.53616     344.3372        25     1.152     1.006  67.30   0
       354    365.6637     49.1209 300.2681911 +22.4913564     413.0862     72.88224      1.516     2.55     5.357051     20.53616     54.94607         6     0.721     0.611  16.70   0
       355    739.9653     46.5659 300.3855383 +22.6026886     913.8199     72.82667      1.758     5.24     5.809799     20.53616     80.78923        18     1.503     0.909  55.75   0
       356     18.6430     42.3504 300.1625274 +22.3854391     890.9009     72.82667      1.901     2.87      5.19916     20.53616     93.13826        13     1.074     0.785 -45.80   0
       357    811.2933     39.6627 300.4100010 +22.6220490     1581.973     72.88224      1.476     2.57     5.863008     20.53616     205.1071        21     1.136     1.064  19.73   0
       358    971.3743     38.9081 300.4601516 +22.6697268     276.5828     72.73396      1.498     4.44     5.407992     20.53616     46.58092         7     1.088     0.516 -41.13   0
       359    557.8167     37.7890 300.3316564 +22.5456403     258.1454     72.73396      1.046     3.52     5.493914     20.53616     34.55396         5     1.035     0.345 -43.78   0
       360    749.3488     32.8088 300.3929199 +22.6015403     754.9833      72.7896      1.495     3.52     5.914931     20.53616     94.89595        13     1.092     0.881  76.80   0
       361    554.9365     32.1703 300.3325805 +22.5431627     1066.162     72.80814      1.350     2.32     5.509579     20.53616     153.9022        18     1.067     0.996  88.43   0
       362    127.9655     31.9504 300.1998583 +22.4152140     540.7915     72.82667      1.469     3.46     5.318228     20.53616     56.60355         8     0.874     0.727 -70.76   0
       363    458.7473     30.2331 300.3032707 +22.5138049     627.4085     72.80814      1.253     3.57     5.508322     20.53616     90.02679        11     1.149     0.634  34.92   0
       364    841.1421     29.0651 300.4227382 +22.6279321      437.454     72.82667      1.313     2.97     5.948018     20.53616     67.63858        10     0.915     0.715  -4.16   0
       365    797.9201     21.0474 300.4118658 +22.6126926     482.4043     72.80814      1.403     4.51     6.006486     20.53616     65.35358         7     1.100     0.572  75.10   0
       366    193.0000   1023.0319 299.8982691 +22.7190830     1067.962     60.09484      1.948     7.33     76.51003     20.53616     54.85283        14     1.847     0.814 -74.23  27
       367     22.7627     20.1225 300.1710091 +22.3802911     343.2549      72.7525      1.539     4.87     4.742663     20.53616     39.20571         7     1.050     0.641  67.66   0
       368    555.8213     17.6936 300.3375469 +22.5392656     389.6485     72.71539      1.579     3.98     5.547277     20.53616     39.87491         7     0.969     0.632  -8.12   0
       369    288.9343   1016.5873 299.9301836 +22.7460349      1389.22     72.73396      2.859     6.88      71.0276     20.53616     72.71515        25     1.796     1.355 -88.90  16
       370    414.0014   1015.0074 299.9695893 +22.7831184     544.2844     72.60395      1.985     6.21     4.567485     20.53616     40.56229         8     1.080     1.004  47.69   0
       371    476.3987    942.3491 300.0126383 +22.7810021     541.5376     72.77105      1.864     4.20     3.812801     20.53616     46.42874         8     1.049     0.643 -35.60   0
       372    605.9127   1007.9681 300.0315992 +22.8386789     2324.769      72.7525      1.831     4.18     3.593298     20.53616     148.0633        30     1.399     1.293  70.57   0
       373    545.1036   1017.4125 300.0095980 +22.8231458      400.752     72.69683      1.528     3.93     2.903783     20.53616     36.30312         5     0.902     0.491   2.82   0
       374    692.4389   1003.3237 300.0600525 +22.8632994      8733.35     72.77105      1.977     4.31      3.60331     20.53616     492.5282        52     1.535     1.484  62.35   3
       375    698.0248   1000.9577 300.0625620 +22.8642958     9518.656     72.84519      1.992     4.51     3.608788     20.53616     517.4598        56     1.578     1.521 -30.37   3
