#   1 NUMBER                 Running object number                                     
#   2 X_IMAGE                Object position along x                                    [pixel]
#   3 Y_IMAGE                Object position along y                                    [pixel]
#   4 ALPHA_J2000            Right ascension of barycenter (J2000)                      [deg]
#   5 DELTA_J2000            Declination of barycenter (J2000)                          [deg]
#   6 FLUX_APER              Flux vector within fixed circular aperture(s)              [count]
#   7 FLUXERR_APER           RMS error vector for aperture flux(es)                     [count]
#   8 FLUX_RADIUS            Fraction-of-light radii                                    [pixel]
#   9 FWHM_IMAGE             FWHM assuming a gaussian core                              [pixel]
#  10 BACKGROUND             Background at centroid position                            [count]
#  11 THRESHOLD              Detection threshold above background                       [count]
#  12 FLUX_MAX               Peak flux above background                                 [count]
#  13 ISOAREA_IMAGE          Isophotal area above Analysis threshold                    [pixel**2]
#  14 A_IMAGE                Profile RMS along major axis                               [pixel]
#  15 B_IMAGE                Profile RMS along minor axis                               [pixel]
#  16 THETA_IMAGE            Position angle (CCW/x)                                     [deg]
#  17 FLAGS                  Extraction flags                                          
         1    688.0366     16.0622 300.3929577 +22.6014436     821.0176     72.11645      1.486     4.78      5.97371     20.34106      93.2686        13     1.350     0.726  52.47   0
         2    493.7788     15.5825 300.3325777 +22.5431893     1019.058     72.07972      1.615     3.39     6.042403     20.34106     113.5348        18     1.120     1.043  56.37   0
         3    397.6305     13.5774 300.3032841 +22.5138394     760.3577     72.09808      1.491     3.38     6.174202     20.34106     89.31394        14     1.115     0.888  42.85   0
         4    168.9663      3.4946 300.2353884 +22.4424895     3692.935     66.73852      1.663     3.00     6.112924     20.34106     362.4487        33     1.358     1.215   3.13  24
         5    737.4380      3.9472 300.4122859 +22.6127323     628.5486     68.42341      1.549     5.06     6.214371     20.34106     59.07833        12     1.144     0.997  35.09  24
         6    168.8006    994.1119 299.9137362 +22.7269053     2819.188     71.98782      7.310    29.21     77.10077     20.34106     64.00911       178     5.087     4.655 -60.68  19
         7    967.2421   1023.7474 300.1528390 +22.9747914     272.4572     55.66171      1.446     3.25     3.901671     20.34106     27.43086         4     0.872     0.353 -18.54  26
         8     83.2528   1010.1886 299.8819065 +22.7058458      5167.76     72.09808     17.285    97.63     77.04128     20.34106     165.3451      2412    19.166    16.185  61.93  27
         9     73.9593    953.1530 299.8975708 +22.6867001     5241.952     72.15315     26.669    33.05     30.86745     20.34106     1313.056      3094    20.472    12.456 -24.55  19
        10    636.6570    984.4269 300.0625368 +22.8644339     9621.015     72.09808      2.131     5.60     3.899159     20.34106     463.3742        57     1.700     1.608  31.18   3
        11    730.8015    987.9381 300.0907391 +22.8936595     599.7255     72.06135      2.025     6.63      3.93141     20.34106     47.78778        11     1.478     0.950   5.82   0
        12      2.1630    986.5032 299.8644076 +22.6747177     672.6123     60.66958      4.846     5.20    -4.041864     20.34106     39.27383         5     1.028     0.743 -74.62  24
        13    161.4360    967.5010 299.9201024 +22.7170626     1211.184     72.09808      6.406     9.11     54.69894     20.34106     43.53849        19     1.967     1.513   8.86   3
        14    164.5014    976.0391 299.9182784 +22.7204314     2310.103     72.09808      6.056    16.77     61.41369     20.34106     69.26137        82     3.695     2.115  76.03   3
        15    146.0463   1007.0528 299.9024502 +22.7237896     777.4318      72.1348      2.555     8.82     88.57786     20.34106     38.78619        16     2.008     1.081  14.60   0
        16    495.6732    976.6178 300.0211554 +22.8199262     360.5817     72.09808      1.920     3.04     4.121465     20.34106     28.99972         4     0.526     0.513 -38.47   2
        17    923.6169    970.5300 300.1565410 +22.9464324     771.4199     72.11645      2.081     7.43     4.020769     20.34106     41.26943        15     1.389     1.112 -62.17   0
        18     72.4882    918.3022 299.9084480 +22.6762630     4225.543     72.28149     26.805    59.80     13.14949     20.34106      82.7829      1173    14.674     6.762 -33.82  27
        19    129.7679    964.2278 299.9113195 +22.7066222     464.0673     72.09808      1.221     3.86     51.22417     20.34106     37.44064         5     1.023     0.418  86.52   1
        20    148.2882    959.3096 299.9186782 +22.7107682     955.3929     72.26318      4.586     5.05     46.88072     20.34106      38.9754         5     1.634     0.441  60.15   3
        21    148.4288    956.1777 299.9197406 +22.7099120     1128.188     72.09808      5.700     6.24     44.27465     20.34106     33.25804         9     1.411     0.776 -23.57   3
        22    143.1310    954.7930 299.9185436 +22.7079253     1605.469     72.06135      6.355     9.44     43.40596     20.34106     57.91508        26     2.356     1.351 -79.46   3
        23    139.5014    954.2510 299.9175913 +22.7066809     1250.807     72.18985      8.786    10.81     42.53727     20.34106     47.88935        20     1.846     1.764  12.03   3
        24    133.7187    958.1823 299.9145144 +22.7060735     706.2404     72.07972      3.237     2.55     46.01203     20.34106     36.05369         5     0.818     0.632 -36.62   1
        25    649.1799    953.6042 300.0764665 +22.8593369     7025.892     72.06135      2.069     4.62     3.933458     20.34106     360.9973        49     1.568     1.525  -5.48   0
        26    227.2978    947.1266 299.9472145 +22.7309762     1062.636     72.22652      6.270     9.45     28.30033     20.34106     40.57197        18     2.342     1.063  53.17   1
        27    529.3534    947.7420 300.0410389 +22.8217346       378.44     72.15315      1.719     3.03     4.114835     20.34106      48.3983         7     0.988     0.661  11.70   0
        28    544.3322    991.1296 300.0315904 +22.8386810     2338.581      72.1348      1.995     4.82     3.972729     20.34106     130.4209        33     1.488     1.356  15.25   0
        29    163.4481    946.1163 299.9276838 +22.7115319      1085.87     72.07972      7.213    11.75     35.35145     20.34106     35.81139        18     2.565     1.499 -20.29   2
        30    631.0874    986.7908 300.0600320 +22.8634432     8644.457     72.02459      2.146     5.25     3.898093     20.34106      457.279        50     1.701     1.523  30.60   3
        31    557.6238    944.2144 300.0509928 +22.8291969     1642.352     72.11645      2.067     4.93      4.08003     20.34106     91.35847        30     1.430     1.409  43.61   0
        32    451.4468    940.7338 300.0190555 +22.7963652     951.1224     72.09808      1.842     5.55     4.357835     20.34106     63.80559        20     1.451     1.080 -27.19   0
        33    382.0631    938.7442 299.9981010 +22.7749890     6438.824     72.15315      1.997     4.56     4.692823     20.34106     440.9431        49     1.585     1.479 -29.31   0
        34      1.8201   1005.6957 299.8580576 +22.6801178     772.0769     58.76278      7.929     8.03    -4.654928     20.34106     34.59319        11     1.854     0.973 -71.88  26
        35    124.2386    935.8185 299.9188405 +22.6968144     546.1774     72.11645      3.374     3.75     26.90085     20.34106     35.35129         5     1.055     0.383   2.57   1
        36    414.3040    925.2908 300.0125137 +22.7807954     535.4249     72.28149      1.890     7.30     4.689012     20.34106      34.7223        13     1.407     1.061  78.83   0
        37    201.3859   1004.2778 299.9205635 +22.7395979      1045.99     72.11645      2.473     8.71     85.84402     20.34106     50.16641        13     2.089     1.079  13.68   1
        38    928.4152    917.6257 300.1752479 +22.9326682     2087.706     72.11645      2.067     5.11     4.220192     20.34106     104.6154        35     1.533     1.443  62.23   0
        39    211.0478    913.5773 299.9530710 +22.7164762     514.1168     72.11645      4.032     4.49     11.63397     20.34106     29.22481         5     1.480     0.387  12.41   0
        40    717.0787    906.7457 300.1128721 +22.8662277     866.9092      72.1348      2.200     5.96     4.395538     20.34106     53.29203        15     1.227     1.157  66.20   0
        41    751.9263    901.0317 300.1255951 +22.8750282     1000.573     72.09808      1.774     4.61     4.502926     20.34106     73.30045        24     1.413     1.146 -33.93   0
        42    209.1467    901.1431 299.9565233 +22.7123383     940.1163     72.15315      5.425     5.99     10.46723     20.34106     30.78387         7     1.262     0.801 -75.94   0
        43    195.7882   1001.5585 299.9197071 +22.7371384     1193.555     72.09808      3.495     8.17     83.98386     20.34106     48.28297        24     1.542     1.470 -84.07   3
        44    819.4295    894.8506 300.1486558 +22.8934768     621.5464     72.11645      2.183     6.51     4.470535     20.34106     33.12845        11     1.277     0.931  -6.12   0
        45    774.3405    894.3939 300.1347429 +22.8798371     11354.32     72.06135      1.943     4.45     4.530624     20.34106     697.9776        55     1.552     1.493  14.96   0
        46    227.7080    999.6630 299.9302524 +22.7461711      711.465     72.20818      1.826     5.12     78.28079     20.34106     57.38097        13     1.263     1.093 -41.33   0
        47     85.8966    886.5236 299.9229503 +22.6711706     1018.352     72.24485      5.096     5.86     9.780162     20.34106     58.38528        13     1.366     0.972 -41.27   0
        48    112.5036    886.4387 299.9312501 +22.6791287     589.9878     72.07972      6.201     5.40     11.06703     20.34106      28.2317         5     1.059     0.777 -10.44   0
        49    899.7852    883.5151 300.1774089 +22.9142906     7362.504     72.06135      0.775     1.66      4.48089     20.34106     2757.534        12     0.627     0.492 -36.36   0
        50    483.4692   1000.0204 300.0097411 +22.8229844     362.4773     72.07972      1.838     4.94     4.146451     20.34106     29.50073         5     1.267     0.546  39.41   0
        51    782.8198    876.4656 300.1432174 +22.8772269     1299.177     72.07972      1.814     4.97      4.61549     20.34106     79.91779        21     1.278     1.123  -2.24   0
        52    353.5271    997.7351 299.9700292 +22.7833598     591.2496      72.1348      2.088     5.41     4.653938     20.34106      32.1339         9     1.292     0.640 -80.24   0
        53    197.4787    985.7267 299.9253832 +22.7331042     3929.971     72.20818      7.323    20.86     68.93601     20.34106     87.66945       250     5.139     4.324 -79.86   3
        54    635.7198    874.1229 300.0981223 +22.8324771     498.3503     72.20818      2.303     4.45      4.61627     20.34106     31.06124         7     0.877     0.641  66.96   0
        55    820.9698    869.7607 300.1572956 +22.8867295     901.5229     72.09808      2.103     5.88     4.618405     20.34106     67.05321        18     1.489     1.190 -38.71   0
        56    930.0617    868.4219 300.1917642 +22.9190213     332.4373     72.07972      2.302     4.90     4.630029     20.34106     30.58087         5     1.439     0.472   6.07   0
        57    869.4484    861.1411 300.1752204 +22.8987744     603.4048     72.15315      1.970     5.45     4.638268     20.34106     37.86205        10     1.194     0.702  54.92   0
        58    720.6310    860.3575 300.1290652 +22.8539670     726.8951      72.1348      1.716     4.56     4.696219     20.34106     64.02694        14     1.159     0.865 -46.35   0
        59    433.3439    856.4254 300.0408364 +22.7667354     4075.805     72.09808      1.817     4.02     4.673168     20.34106     329.7916        40     1.427     1.377  61.28   0
        60    732.0349    857.2769 300.1336222 +22.8564989     592.7426     72.06135      1.714     6.07     4.696776     20.34106     53.56659        13     1.195     0.865  -0.25   0
        61    216.8770    984.9290 299.9316765 +22.7386951     4544.507     72.20818      9.181    31.44     67.17892     20.34106     90.26533       421     6.937     5.134 -41.64  19
        62    158.5955    841.9058 299.9600620 +22.6801787     699.3174      72.0062      1.800     5.80     7.545825     20.34106     66.79839        16     1.318     1.195 -57.47   0
        63     67.9168    840.0604 299.9324676 +22.6524479     453.3709     72.20818      2.042     5.98     5.278614     20.34106     43.42234        10     1.844     0.545  62.24   0
        64    135.6849    838.9009 299.9539144 +22.6724444     1669.847     72.26318      2.009     4.50     6.622922     20.34106     129.1675        30     1.519     1.316   0.18   0
        65   1007.4423    828.5252 300.2288876 +22.9307263     2058.971     72.07972      2.000     4.50     4.736402     20.34106     135.9069        33     1.480     1.376   1.15   0
        66    235.3374    973.0091 299.9412965 +22.7408135     7346.425     72.04297      8.186    32.11       47.338     20.34106     154.2231       660    10.211     4.656  60.31  18
        67    961.7604    826.9668 300.2151361 +22.9165994     2167.936      72.1348      2.022     5.04     4.696652     20.34106     105.3203        31     1.478     1.356 -23.30   0
        68    667.9684    826.8083 300.1235575 +22.8285504     459.1082     72.09808      1.685     4.38     4.516771     20.34106     32.95682         6     1.083     0.505 -79.46   0
        69    745.7281    820.8325 300.1497412 +22.8501311     679.7334     72.09808      1.926     6.18     4.671216     20.34106     46.16755        13     1.157     0.927 -21.03   0
        70    168.5105    820.6333 299.9700611 +22.6770487      354.219     72.06135      1.442     3.12     6.297544     20.34106     44.99263         7     0.928     0.489  82.38   0
        71    613.3718    814.5945 300.1105134 +22.8086824     4796.777     72.09808      1.729     3.79     4.715922     20.34106     402.6794        34     1.325     1.272  -2.74   0
        72    103.9760    815.0446 299.9518103 +22.6560882     501.7574      72.1348      2.119     5.88     5.343966     20.34106     32.03451         8     1.254     0.775 -23.27   0
        73    415.5218    811.8397 300.0497831 +22.7485919     577.0131     72.07972      1.792     4.12     4.543342     20.34106     52.98911        12     1.112     0.920 -14.94   0
        74    163.7587    808.1545 299.9726399 +22.6720427     1273.789     72.15315      1.892     4.30      5.66828     20.34106     94.26399        26     1.361     1.284  28.65   0
        75    634.0850    807.2900 300.1193428 +22.8127909      830.249     72.26318      1.844     6.65     4.599712     20.34106     58.63272        19     1.517     1.034 -54.39   0
        76    183.6225    804.9534 299.9798583 +22.6770816     395.5806     72.11645      1.588     5.35       5.4373     20.34106     52.16064         8     1.185     0.682 -36.12   0
        77   1006.5858    795.0060 300.2395181 +22.9208337     1148.325     71.98782      1.978     5.74     4.705066     20.34106     75.53206        23     1.454     1.173   4.01   0
        78    789.4375    794.4043 300.1719628 +22.8556310     4265.351      72.1348      1.848     3.99     4.677006     20.34106      303.397        38     1.384     1.365  80.46   0
        79    198.0354    788.4243 299.9897140 +22.6766605     598.7577     72.11645      1.845     4.89      5.11258     20.34106     45.92921        10     1.206     0.652  -3.93   0
        80    506.6298    786.7834 300.0862997 +22.7687060     491.6235     72.09808      1.600     6.02      4.84748     20.34106     45.35189        12     1.144     0.890  12.67   0
        81    152.8962    784.9051 299.9768189 +22.6621132      974.639     72.28149      1.861     4.95     5.047443     20.34106     85.39796        18     1.346     0.970   4.57   0
        82    302.4771    776.7604 300.0259989 +22.7046303     54287.62     72.07972      1.821     3.80     4.882504     20.34106     4474.154       106     1.586     1.545  14.90   0
        83    567.8491    779.9260 300.1075993 +22.7850831     611.4827     72.09808      1.770     5.26     4.874798     20.34106     46.83854        13     1.155     0.989 -27.65   0
        84    560.3085    775.9847 300.1065311 +22.7816914     1670.182     72.02459      1.747     3.56     4.903194     20.34106     139.4976        23     1.193     1.135  -3.53   0
        85    973.2565    775.1794 300.2355604 +22.9051548     916.6901     72.11645      2.143     7.42     4.649399     20.34106      51.1263        21     1.489     1.154  53.31   0
        86    231.1949    775.3709 300.0042717 +22.6828580     394.6592     72.07972      1.549     4.26     4.980699     20.34106      44.0668         9     1.009     0.713 -47.66   0
        87    589.3426    772.2114 300.1168036 +22.7893078     893.2693     72.06135      1.718     5.23     4.840207     20.34106     63.19241        16     1.308     0.878  22.68   0
        88    600.2848    770.5161 300.1207641 +22.7920996     544.9984     72.20818      1.599     4.71     4.814897     20.34106     51.86232        12     1.046     1.001 -77.11   0
        89    920.5193    769.3752 300.2209894 +22.8876953     306.3653     72.07972      1.520     3.21     4.708153     20.34106     55.39027         5     0.833     0.634 -39.98   0
        90    706.1214    766.7712 300.1549675 +22.8227331     449.8465     72.09808      1.499     4.36     4.614377     20.34106     41.79442         9     1.086     0.697  82.93   0
        91    501.0320    763.5490 300.0921084 +22.7603556     334.0169      72.1348      1.680     4.41     4.763563     20.34106     35.85665         5     1.006     0.551  79.10   0
        92    743.2053    756.9824 300.1697108 +22.8310292     759.5146     72.06135      1.714     5.76      4.69088     20.34106      57.4907        15     1.120     1.050 -10.58   0
        93    352.2040    754.0066 300.0488706 +22.7130062     31658.44     71.93262      1.742     3.51     4.517311     20.34106     2699.233        79     1.527     1.460  -1.36   0
        94    875.3793    750.1872 300.2131424 +22.8686625      2685.59     72.07972      1.751     3.79     4.726306     20.34106     202.9989        29     1.329     1.255  -8.22   0
        95    363.4359    748.3631 300.0542008 +22.7147529     784.1344      72.1715      2.453     4.81     4.495042     20.34106     72.14474        17     1.401     1.100  14.93   1
        96    904.4331    748.4246 300.2227799 +22.8768560     332.6659     72.07972      1.445     4.08     4.728218     20.34106     30.23295         5     0.971     0.490   4.26   0
        97    633.0415    746.1959 300.1388765 +22.7949278     1022.816     72.11645      1.682     4.41     4.771679     20.34106     77.00285        19     1.321     0.999 -46.58   0
        98    234.8325    745.9734 300.0149577 +22.6755108     732.0607     72.09808      1.510     5.17     4.653608     20.34106     65.58973        15     1.239     0.936 -22.21   0
        99    470.1804    746.2448 300.0881240 +22.7461398     514.4378      72.1348      1.936     5.25     4.536831     20.34106     34.37626         9     1.212     0.643 -22.70   0
       100    480.3423    741.0211 300.0929864 +22.7476851     951.2835     72.11645      1.937     4.99      4.53689     20.34106     68.43832        17     1.273     1.103  48.09   0
       101     39.8468    740.3970 299.9561360 +22.6154344     517.9473     72.07972      1.964     5.28     4.408204     20.34106     51.45714         7     1.581     0.498  58.12   0
       102    881.9548    737.8489 300.2192041 +22.8670850     511.0708      72.1348      1.754     6.52     4.737772     20.34106     40.05367        10     1.179     1.011 -28.66   0
       103    426.1149    736.0296 300.0777223 +22.7299992     444.6135     72.09808      1.526     4.58     4.390341     20.34106     57.82233        11     1.150     0.944  15.91   0
       104    382.1219    737.3074 300.0636106 +22.7171798     395.7198     72.24485      1.610     5.18     4.446811     20.34106     41.79554         8     1.236     0.614  20.58   0
       105    366.5311    754.5822 300.0531431 +22.7174664     2030.527     72.09808      1.795     3.76      4.49115     20.34106     179.1406        26     1.321     1.138   6.82   0
       106    634.7323    735.1003 300.1430095 +22.7922466     410.9442     72.18985      1.659     3.97     4.801124     20.34106     43.78046         6     0.905     0.499 -52.51   0
       107     67.6689    735.4678 299.9663863 +22.6223651      561.236     72.15315      1.920     5.52     4.488408     20.34106     50.54779         8     1.379     0.623 -13.98   0
       108    858.5817    733.0334 300.2134775 +22.8587017     444.0341     72.07972      1.828     3.93     4.754783     20.34106     41.16805         7     1.053     0.689  14.77   0
       109    232.3743    730.8295 300.0191144 +22.6704267     489.4506     72.09808      1.955     3.79      4.59043     20.34106     45.95185         5     1.273     0.323   9.00   0
       110    341.8113    722.8066 300.0557753 +22.7009328     936.7325     71.96942      0.607     0.92     4.573556     20.34106     568.1475         5     0.490     0.400  46.03   0
       111    555.7500    720.8265 300.1230379 +22.7644817     401.3417     72.11645      1.716     4.88     5.021803     20.34106     42.91346         8     1.131     0.733 -13.21   0
       112    525.4467    718.8730 300.1142327 +22.7548403     634.4266     72.09808      1.632     4.21     4.927713     20.34106     59.74609        12     1.206     0.822  39.73   0
       113    547.2254    716.4529 300.1218035 +22.7606711     1300.701     72.11645      1.563     3.39     5.047437     20.34106     132.1344        21     1.173     1.091  33.81   0
       114    435.4147    718.3234 300.0863720 +22.7277017     307.5759     72.11645      1.009     2.93     4.482879     20.34106     44.28756         5     0.728     0.438  67.20   0
       115    941.7255    715.5260 300.2451090 +22.8785643     4558.198      72.1715      1.831     3.98     4.755451     20.34106       310.25        40     1.416     1.390 -66.29   0
       116    467.0904    715.8853 300.0970280 +22.7364946     210.7188     72.26318      1.462     4.93     4.626204     20.34106     36.19437         7     1.407     0.489 -36.09   0
       117    628.8974    711.8707 300.1487403 +22.7838246     142.3949     72.22652      1.337     4.38     4.873403     20.34106     34.43955         5     0.853     0.640  35.72   0
       118    930.2719    706.9516 300.2443213 +22.8726700      1789.99     72.07972      1.865     4.30     4.856543     20.34106     115.3975        28     1.404     1.253 -76.75   0
       119    293.2522    700.5746 300.0478871 +22.6799929     810.5701     72.11645      1.689     3.99     4.704555     20.34106     91.94592        19     1.231     1.111   3.18   0
       120    159.3784    700.8620 300.0061468 +22.6399373      348.838     72.07972      1.867     4.59     4.475978     20.34106     37.31865         5     1.198     0.602 -63.02   0
       121    756.6425    698.0500 300.1930532 +22.8181182     2699.198      72.1348      1.824     3.66     4.750296     20.34106     197.9612        30     1.421     1.181 -13.59   0
       122    961.3123    697.0445 300.2572277 +22.8791145     1709.408     72.07972      1.893     4.20     4.692459     20.34106     110.6205        27     1.319     1.297  58.74   0
       123    142.0170    684.4406 300.0060831 +22.6300180     652.2007     72.11645      1.635     4.42     4.692569     20.34106      75.5504        13     1.213     0.942 -48.47   0
       124    838.8055    683.9412 300.2232621 +22.8386682     567.9018     72.06135      1.909     4.68     4.929873     20.34106     46.83027        11     1.100     0.854   3.52   0
       125    875.0231    675.0780 300.2374403 +22.8469648     148660.7     72.07972      1.726     3.50     5.043282     20.34106     11191.98       165     1.593     1.549 -61.83   0
       126    637.4376    678.8007 300.1621477 +22.7768812     437.3147     72.09808      1.635     3.70      4.93314     20.34106     49.64874         8     0.951     0.737  51.43   0
       127   1021.9754    677.0618 300.2826563 +22.8915277      1308.11     64.84684      1.853     5.15     4.252278     20.34106     93.83495        23     1.432     1.135  69.02  24
       128    727.3111    675.5168 300.1912296 +22.8028574     681.2537     72.20818      1.479     3.28     4.761868     20.34106      65.4464        14     1.007     0.931   7.50   0
       129    908.6498    668.5394 300.2500564 +22.8551527     274.2659     72.15315      1.309     3.47     5.040258     20.34106     43.95037         5     0.745     0.466  17.62   0
       130    561.1516    663.8195 300.1432443 +22.7497232     1595.285     72.11645      1.564     3.22     5.084854     20.34106     161.1452        22     1.174     1.076  22.79   0
       131    742.5162    661.1771 300.2006295 +22.8032900      9471.49     72.06135      1.626     3.20      4.78298     20.34106     852.0039        43     1.323     1.273 -31.01   0
       132    244.0173    656.1241 300.0470095 +22.6524712     4828.706     72.09808      1.687     3.55     4.910601     20.34106     395.0926        36     1.401     1.205  34.13   0
       133    326.0304    654.0923 300.0731899 +22.6764718     1090.928     72.04297      1.595     3.86     4.842298     20.34106     110.8956        21     1.242     1.099  58.36   0
       134    201.7377    652.1719 300.0351407 +22.6386614     499.6909     72.09808      1.849     5.36     4.837327     20.34106     56.40762         9     1.123     0.723  12.62   0
       135    534.4570    649.4818 300.1395862 +22.7376063     691.8996      72.1348      1.608     5.07     5.098178     20.34106     71.11583        17     1.326     0.988 -75.43   0
       136    525.9449    641.9280 300.1393886 +22.7328859         3249     72.11645      1.546     3.10     5.093876     20.34106      303.507        28     1.230     1.124  85.28   0
       137    516.2028    635.5426 300.1384283 +22.7281327     1374.714     72.06135      1.579     3.24     5.086365     20.34106     140.5497        20     1.193     1.066 -32.52   0
       138    444.8539    635.0800 300.1163575 +22.7066217     230.4248      72.1348      1.254     4.40     4.869371     20.34106     36.92912         6     0.819     0.673 -87.52   0
       139    910.3484    634.0231 300.2618006 +22.8457369     393.9015     72.09808      1.402     3.91     5.202621     20.34106     37.88981         6     1.031     0.424  76.65   0
       140    179.2973    631.8242 300.0347705 +22.6260922     704.5596      72.0062      1.832     6.59     4.831282     20.34106     61.16955        15     1.207     1.030 -68.04   0
       141    194.0545    629.8879 300.0399896 +22.6299605     495.9618      72.1348      1.478     6.10     4.866942     20.34106     52.68253        12     1.344     0.779  61.92   0
       142    963.1525    627.2874 300.2804672 +22.8596067     518.4859     72.07972      1.570     4.16     4.961406     20.34106     58.40161         8     0.994     0.722 -16.43   0
       143    250.4292    627.0364 300.0584534 +22.6460417      350.617     72.11645      1.496     3.38     4.906375     20.34106     47.22402         7     0.851     0.599  63.21   0
       144    219.6851    626.6384 300.0490180 +22.6367113     610.8387     72.07972      1.659     4.11     4.916096     20.34106      62.9426        13     1.191     0.867  -9.04   0
       145    540.4102    626.0399 300.1490560 +22.7326549     351.6817     72.09808      1.350     3.91     5.119619     20.34106     48.48132         8     1.019     0.650  53.72   0
       146    440.9576    625.2924 300.1183236 +22.7026427     1673.416     72.09808      1.536     3.23     4.886847     20.34106     147.4372        21     1.278     0.969  47.38   0
       147   1016.9788    622.9485 300.2986779 +22.8744695     826.8995     72.09808      1.690     5.16     4.638025     20.34106     64.23891        17     1.291     1.071 -19.98  16
       148    476.6281    624.7786 300.1295988 +22.7131832      1107.22     72.09808      0.581     3.46     5.035696     20.34106     788.3475         6     1.129     0.306  33.66   0
       149     94.8999    620.0769 300.0123408 +22.5974155     20107.41     72.24485      1.844     3.65     5.046782     20.34106     1662.194        69     1.583     1.488  19.34   0
       150     16.5261    621.9492 299.9873692 +22.5744509     697.3707     72.11645      1.901     4.15     5.052559     20.34106     61.41582        12     1.188     0.853 -54.34   0
       151    526.2392    620.4731 300.1464498 +22.7268101     1036.448     72.07972      1.692     4.77     5.107144     20.34106     75.69342        19     1.392     0.963 -49.41   0
       152    561.0463    620.1531 300.1573972 +22.7371456     396.9463     72.11645      1.386     4.49     5.117802     20.34106     44.51167         7     0.988     0.579  15.55   0
       153    278.9620    612.5020 300.0720524 +22.6504209     384.2292     72.09808      1.736     4.60     4.885952     20.34106     46.80414         7     1.140     0.526 -25.17   0
       154    609.1631    608.0153 300.1763325 +22.7480713     248.1465     72.09808      1.287     3.84     5.096605     20.34106     30.45252         5     0.834     0.506  27.48   0
       155     41.0413    604.2637 300.0007333 +22.5767269     1621.505     72.07972      2.201     4.98     5.033473     20.34106     93.22198        29     1.502     1.316 -85.04   0
       156    810.6533    605.1060 300.2400934 +22.8075754     459.1251     72.15315      1.683     4.59     5.230583     20.34106     42.53031        10     1.057     0.736  13.49   0
       157    107.2951    604.3132 300.0213148 +22.5966072     419.6572     72.28149      1.565     3.74     5.016553     20.34106     45.54657         5     1.317     0.305  56.55   0
       158    489.2856    601.4391 300.1411221 +22.7102705     596.6714     72.07972      1.527     3.44     5.081883     20.34106     70.71652        12     0.998     0.862   5.79   0
       159    884.2526    600.0535 300.2646935 +22.8281571     896.0919      72.1348      2.529     4.31     5.444711     20.34106     56.48103        13     1.208     0.718  15.30   2
       160    944.0290    607.1643 300.2810360 +22.8480955     1092.843     72.11645      1.736     4.18     5.175575     20.34106     81.36742        22     1.293     1.152  68.25   0
       161    446.1160    593.3733 300.1302977 +22.6950192     691.5332     72.09808      1.444     3.37     5.004671     20.34106     85.06803        14     1.106     0.888 -48.30   0
       162    593.7994    592.5013 300.1765841 +22.7390112     459.7708     71.96942      1.589     4.19     5.155446     20.34106     54.71156         7     1.026     0.487   7.08   0
       163    641.5388    590.6830 300.1920518 +22.7527874     396.2718     72.18985      1.336     3.38     5.002834     20.34106     55.39537         8     0.839     0.747 -21.78   0
       164    611.5851    590.5655 300.1827551 +22.7437822     493.2883     72.09808      1.355     2.61     5.132097     20.34106     82.99911        10     0.943     0.714  -6.98   0
       165    490.3907    589.5991 300.1453119 +22.7071999     889.3499     71.91421      1.600     3.11     5.101849     20.34106      90.8866        15     1.130     0.877   0.12   0
       166    924.1116    585.0351 300.2820086 +22.8357699      3293.64     72.07972      1.646     3.44     5.415623     20.34106     254.5987        32     1.329     1.225 -47.98   0
       167    455.8799    584.7792 300.1361294 +22.6954757     1721.605     72.07972      1.516     2.99     5.044303     20.34106     197.2194        23     1.138     1.082  70.79   0
       168   1021.9441    583.2263 300.3131312 +22.8645303     748.0034     64.92846      1.853     6.29     4.692784     20.34106     49.41139        16     1.402     1.135 -38.72  24
       169     17.6580    578.2676 300.0019077 +22.5622538     5191.407      72.1348      1.946     3.83     5.129508     20.34106     413.8714        47     1.553     1.508 -84.15   0
       170    963.1238    575.4742 300.2972888 +22.8446970     323.4535     72.18985      1.685     5.05      5.18287     20.34106      41.1501         7     1.033     0.699   7.99   0
       171    319.2099    571.5123 300.0978901 +22.6507120     9341.112     72.04297      1.636     3.07     4.896289     20.34106     978.6116        47     1.380     1.289  57.43   0
       172    441.6814    568.6865 300.1369344 +22.6865984     9101.599     72.22652      1.547     2.99     5.066508     20.34106     1029.106        48     1.307     1.268  52.44   0
       173    688.0457    565.6398 300.2146815 +22.7595174     278.5692      72.1715      1.529     4.59     4.885031     20.34106     31.79934         6     0.840     0.711   8.20   0
       174    853.4274    562.8966 300.2671454 +22.8082451     1895.467     72.02459      1.553     3.28      5.55721     20.34106     178.3049        25     1.233     1.076   6.83   0
       175    938.0060    560.2285 300.2944014 +22.8327945      12632.6     72.09808      1.661     3.23     5.477168     20.34106      1051.79        53     1.388     1.368  -4.17   0
       176    502.3085    558.2755 300.1591968 +22.7017704     11615.26     72.26318      1.516     2.82     5.200791     20.34106     1230.324        48     1.285     1.253  50.92   0
       177    229.6978    553.6938 300.0758235 +22.6187675     1400.269     72.28149      1.593     3.29     4.856269     20.34106     135.1693        19     1.150     1.012   3.86   0
       178    671.7258    554.0390 300.2133618 +22.7512956     546.5718     72.06135      1.565     4.90      4.89819     20.34106     47.56134        12     1.097     0.920  13.11   0
       179    388.0928    553.3484 300.1252302 +22.6661360     367.6567     72.15315      1.530     4.20     5.027741     20.34106     51.35218         6     1.134     0.637  42.17   0
       180    476.6621    551.5929 300.1533792 +22.6921674     268.4668     72.06135      1.205     3.85     5.127085     20.34106     49.07521         7     1.090     0.487  -3.91   0
       181    776.7473    546.7692 300.2484662 +22.7806519     844.4352      72.1348      1.475     3.44     5.214985     20.34106     83.81942        15     1.078     0.928 -81.73   0
       182    433.9214    546.4034 300.1417543 +22.6778718     4557.874      72.0062      1.540     2.88     5.133519     20.34106     469.6613        36     1.277     1.195 -62.64   0
       183    412.2643    544.8093 300.1355286 +22.6709252     1257.677     72.07972      1.538     2.97     5.121662     20.34106     146.1305        18     1.112     1.019  58.50   0
       184    166.5174    544.1760 300.0592610 +22.5970968     703.9281     72.06135      1.528     4.05     4.933294     20.34106     80.53842        17     1.188     1.106  53.85   0
       185    853.7549    542.2067 300.2739667 +22.8023936     1415.065     72.11645      1.492     3.15     5.615403     20.34106     139.1369        21     1.157     1.034 -41.12   0
       186    734.2864    539.3161 300.2376462 +22.7657963     847.1752     72.20818      1.525     3.41      4.90051     20.34106     87.16125        12     0.993     0.873  12.73   0
       187    550.6230    534.0208 300.1821236 +22.7092730     206683.5     72.09808      1.516     2.88     5.469777     20.34106     21919.38       192     1.530     1.439 -10.31   0
       188    374.7226    540.2307 300.1253276 +22.6583616     328.9427     72.07972      1.542     2.62     5.035026     20.34106     42.72056         6     0.716     0.574 -44.50   0
       189    236.5850    533.8242 300.0844180 +22.6151258     3538.066     72.11645      1.625     3.19     4.864162     20.34106     365.8579        30     1.248     1.209  50.77   0
       190    802.7160    530.1490 300.2619622 +22.7836477     631.5975     72.09808      2.004     4.55     5.421071     20.34106     54.12019         9     0.900     0.868  17.99   0
       191    441.1870    514.5245 300.1543680 +22.6708893     2829.095     72.11645      1.598     2.95     5.307873     20.34106     261.5419        31     1.497     1.099 -85.08   0
       192    285.4942    516.4500 300.1052773 +22.6247934     348.9892     72.15315      1.343     2.80     5.067326     20.34106     69.57625         6     0.800     0.604 -51.36   0
       193    598.2010    512.9507 300.2037894 +22.7174671     366.0829     72.07972      1.440     4.90     5.533499     20.34106     29.81528         5     1.159     0.586  -8.69   0
       194    853.3432    511.0891 300.2839430 +22.7933217     438.4601      72.1348      1.536     4.17     5.611722     20.34106     45.42987         7     0.776     0.638 -81.21   0
       195    671.7946    509.8806 300.2277224 +22.7386226     353.8165     72.02459      1.525     5.11     5.181975     20.34106     40.68825         6     0.902     0.817 -19.06   0
       196    758.4228    503.3348 300.2568558 +22.7626776     474.8711     72.07972      1.670     4.90     5.067317     20.34106     37.30149         8     0.979     0.695  -0.81   0
       197    838.3329    500.5758 300.2826742 +22.7858054     1680.195     72.07972      1.525     3.09     5.554557     20.34106     174.0356        22     1.181     1.044  22.31   0
       198    725.0711    501.4966 300.2470533 +22.7521641      410.548     72.20818      1.330     2.94     4.963794     20.34106     40.66381         6     0.773     0.493  -8.07   0
       199    709.4376    498.2929 300.2432195 +22.7465623     2726.406     72.09808      1.493     2.72     5.061574     20.34106      300.809        26     1.151     1.088 -87.40   0
       200    918.6288    495.5009 300.3093736 +22.8083782     296.8274     72.02459      1.313     5.40     5.657554     20.34106     33.78693         5     1.074     0.765  -2.30   0
       201    614.2275    495.0137 300.2146074 +22.7171108     465.1861     72.09808      1.345     3.11     5.630333     20.34106     46.09654        10     0.898     0.743  -2.95   0
       202    497.0154    494.0446 300.1784042 +22.6817280     745.6844     72.11645      1.463     2.71      5.64841     20.34106     113.4886        13     1.182     0.840 -50.46   0
       203    966.7676    492.5015 300.3253705 +22.8219213      1258.75     72.07972      1.639     3.42     5.285144     20.34106     119.1449        20     1.223     1.049 -11.74   0
       204    838.5245    490.7066 300.2859383 +22.7830245     2190.544     72.24485      1.747     4.08     5.558401     20.34106     177.0326        31     1.680     1.071  80.93   0
       205    952.3418    491.5598 300.3211740 +22.8173335     1026.606     72.09808      2.194     4.68     5.432513     20.34106     73.83335        17     1.361     0.890  42.47   0
       206    591.7597    488.9875 300.2095625 +22.7086504     829.4695     72.09808      1.892     3.03      5.70949     20.34106     83.15568        12     0.965     0.837 -53.12   2
       207    430.3401    487.4409 300.1597836 +22.6598580     349.4721     72.09808      1.285     2.99     5.403456     20.34106     50.73729         8     0.899     0.662 -81.20   0
       208    377.8367    488.3500 300.1431417 +22.6443903     378.9198     72.11645      1.450     3.88     5.300803     20.34106     40.95962         6     0.760     0.618  54.00   0
       209    876.6998    485.8122 300.2994367 +22.7930429      4255.92      72.0062      1.543     3.04     5.657605     20.34106     421.6053        33     1.243     1.217  37.38   0
       210    537.3850    481.5283 300.1950429 +22.6902222     317.8229     72.09808      1.257     4.19     5.759085     20.34106     41.98854         7     1.146     0.438  61.46   0
       211    968.2218    476.4384 300.3310396 +22.8177355     696.4794     72.11645      1.480     3.29     5.278761     20.34106     71.93459        11     1.029     0.768 -56.69   0
       212    108.8964    475.8642 300.0635200 +22.5602101     897.1074     72.20818      1.674     4.14     5.478924     20.34106       82.717        14     1.068     1.020 -18.53   0
       213    101.0617    465.7284 300.0643740 +22.5549513     332.3706      72.1348      1.297     4.56     5.529707     20.34106     48.22506         6     1.052     0.562  45.12   0
       214    964.2205    465.4029 300.3333735 +22.8133636     279.8648     72.04297      1.440     4.17     5.306807     20.34106      34.2103         5     0.882     0.563 -51.20   0
       215    708.8576    460.2874 300.2553772 +22.7354616     490.3564      72.1715      1.460     3.37     5.120801     20.34106     50.62682        10     0.998     0.703  -4.28   0
       216    598.1749    458.1841 300.2215615 +22.7017171      393.622     72.11645      1.545     3.94     5.766499     20.34106     35.18819         6     0.775     0.574  49.40   0
       217    650.1056    456.1985 300.2383901 +22.7166959     649.1088      72.0062      1.359     3.50     5.535954     20.34106      83.4285        11     1.094     0.717 -14.06   0
       218    964.9606    449.1686 300.3388747 +22.8089146     691.0728     72.11645      1.988     4.07     5.283913     20.34106      53.9878        10     0.996     0.850  29.27   0
       219    710.9135    448.4789 300.2598513 +22.7326818     825.2766     72.24485      1.492     3.08     5.104992     20.34106     82.84699        13     0.951     0.884  50.46   0
       220    868.0150    444.6833 300.3100792 +22.7786140     941.5841     72.06135      1.543     3.44     5.586817     20.34106       95.516        16     1.061     1.020  -4.56   0
       221    852.5254    441.1161 300.3064049 +22.7729523     599.4968     72.18985      1.475     3.76      5.54724     20.34106     62.49504        11     1.125     0.773 -17.07   0
       222    833.5467    441.6093 300.3003245 +22.7674141     210.9416     72.09808      1.125     3.96     5.498091     20.34106     34.10315         6     0.923     0.486   2.99   0
       223    596.7007    438.9809 300.2273355 +22.6957555     3213.566      72.0062      1.464     2.77      5.76712     20.34106     363.8269        25     1.152     1.039  49.27   0
       224    957.0380    437.9120 300.3400560 +22.8033055     501.3761     72.07972      1.687     4.92     5.340802     20.34106     44.53593        10     1.145     0.798  -7.02   0
       225     72.9546    430.0504 300.0672152 +22.5362816     399.2948     72.11645      1.371     2.56     5.550857     20.34106     45.06586         5     0.612     0.593   5.87   0
       226    436.2058    425.8861 300.1815912 +22.6439270     359.2064     72.02459      1.504     4.61     5.756413     20.34106     40.41904         7     0.898     0.671 -34.13   0
       227   1008.1401    418.0924 300.3624402 +22.8128923     1449.489      72.1715      1.778     3.64     4.927004     20.34106     118.5674        21     1.188     1.146  48.67   0
       228    880.2441    418.0450 300.3225412 +22.7746112     610.0602      72.1348      1.570     4.91     5.533707     20.34106     54.80116        12     1.129     0.837 -44.46   0
       229    966.3871    416.9016 300.3497939 +22.8000580     1055.735      72.0062      1.558     3.61     5.248725     20.34106      105.924        16     1.089     1.009 -34.14   0
       230    616.5482    414.7573 300.2413829 +22.6947343     263.8681      72.1348      1.462     4.14     5.709723     20.34106     27.06225         7     1.008     0.486 -82.96   0
       231    707.2349    413.0027 300.2702196 +22.7213795     1142.324     72.07972      1.428     2.97     5.145844     20.34106     124.8123        19     1.126     1.006  19.19   0
       232    503.2458    413.2619 300.2065674 +22.6603771     431.3973     72.11645      1.399     5.23      5.77523     20.34106     57.79041        10     1.151     0.670 -51.60   0
       233    211.3645    410.9359 300.1164633 +22.5722726     589.7815     72.09808      1.510     2.69     5.445248     20.34106     81.13396        11     0.915     0.789 -22.15   0
       234     51.4677    409.0087 300.0673640 +22.5237991     408.1991     72.09808      2.346     4.08     5.524078     20.34106     38.64368         5     1.091     0.436 -28.01   0
       235    273.6056    406.7104 300.1371997 +22.5897078     3727.558      72.0062      1.544     2.75     5.480786     20.34106     471.2211        32     1.218     1.180  29.93   0
       236   1006.7585    405.4786 300.3661030 +22.8088494     4584.341     72.07972      1.696     3.06     4.912183     20.34106     450.6481        37     1.343     1.270 -86.04   0
       237    220.7673    401.3680 300.1224935 +22.5723417     7641.139     72.15315      1.613     3.04     5.478768     20.34106     815.1923        43     1.329     1.301  37.01   0
       238    986.7736    396.4197 300.3628047 +22.8002640     2080.315     72.07972      1.825     3.78     5.040393     20.34106     191.5895        30     1.398     1.290 -60.85   0
       239    361.6204    395.6845 300.1681711 +22.6129072     4744.873     72.04297      1.530     2.91     5.648883     20.34106     548.2697        35     1.274     1.168  53.84   0
       240    605.9007    392.5489 300.2452724 +22.6851615     18358.63     72.18985      1.461     2.66     5.619963     20.34106     2333.025        52     1.287     1.178  85.53   0
       241    623.3866    392.7918 300.2506428 +22.6904665     875.7991     71.98782      1.851     6.31      5.56363     20.34106      66.4892        15     1.499     0.746 -36.07   0
       242    802.6432    383.2644 300.3096220 +22.7413837     304.7391     72.07972      1.367     4.10     5.394051     20.34106     42.03464         7     0.939     0.530 -28.80   0
       243    225.9068    379.6306 300.1311462 +22.5676372      405.159     72.02459      1.420     2.32     5.553938     20.34106     51.62894         5     0.715     0.439  20.83   0
       244    939.3303    375.4191 300.3548126 +22.7800275     767.4399     72.11645      1.620     3.57     5.323502     20.34106     67.68501        16     1.066     1.017  -6.13   0
       245    160.4981    372.3901 300.1131492 +22.5459585     2152.225     71.98782      1.718     3.15      5.52204     20.34106     213.0513        27     1.243     1.202  40.42   0
       246    960.3022    362.4776 300.3655575 +22.7825780     1325.329     72.22652      1.771     3.69     5.142915     20.34106     132.4123        21     1.248     1.090 -71.15   0
       247    546.5387    361.9986 300.2366897 +22.6586049     6671.978     72.06135      1.444     2.67     5.750475     20.34106     777.5236        36     1.253     1.096  83.96   0
       248    261.5477    361.1115 300.1482444 +22.5729948     542.2083     72.11645      1.384     3.07     5.710438     20.34106     61.96762        12     0.971     0.792  -0.51   0
       249    119.5414    354.5272 300.1062077 +22.5285547     321.1594      72.1348      1.154     3.37     5.552207     20.34106     51.27676         6     0.898     0.423  70.58   0
       250    806.6454    353.8712 300.3204085 +22.7341267     324.8777     72.07972      1.476     3.23     5.375496     20.34106     39.16258         5     0.754     0.432  70.54   0
       251    750.8633    351.1082 300.3039087 +22.7166380     1140.706     72.20818      1.470     3.15     5.249821     20.34106     121.2833        15     1.091     0.905  87.34   0
       252    660.2688    352.2803 300.2752842 +22.6898590     410.0029     72.20818      1.315     3.27     5.357123     20.34106     57.18526        11     1.011     0.741  47.40   0
       253    453.1956    348.1926 300.2120944 +22.6266856     6260.342     71.95102      1.466     2.76      5.76862     20.34106     617.2038        35     1.243     1.116  87.14   0
       254    845.1484    342.7607 300.3360238 +22.7424520     1467.808     72.09808      1.554     2.91     5.339857     20.34106     167.9497        22     1.218     1.151 -62.43   0
       255    942.3773    343.1574 300.3662324 +22.7716562     612.2531     72.15315      1.599     3.03     5.235005     20.34106     60.13847        11     0.993     0.711  16.50   0
       256    437.6559    337.0080 300.2108840 +22.6188171     502.6309     72.07972      1.530     3.99     5.763906     20.34106     56.57709        11     1.036     0.887  -0.13   0
       257    520.8872    335.1365 300.2374142 +22.6432019     534.3126     72.20818      1.580     2.33     5.643103     20.34106     73.71311         8     0.818     0.675   2.85   0
       258    817.8209    330.8005 300.3313800 +22.7308341     521.1396     72.02459      1.402     3.50     5.371152     20.34106     60.89808         9     0.937     0.773 -82.62   0
       259    340.7617    327.3395 300.1838542 +22.5870193     2526.509     72.11645      1.477     2.98     5.860662     20.34106     283.1088        25     1.152     1.109  56.29   0
       260     59.1287    324.8603 300.0970485 +22.5019299     1081.823      72.1348      1.681     3.35     5.367108     20.34106     104.9149        18     1.111     1.040 -18.05   0
       261    688.2870    322.5409 300.2936673 +22.6896929     293.0977     72.18985      1.370     3.38     5.340854     20.34106     37.06796         5     0.742     0.445 -22.10   0
       262    310.0097    316.6839 300.1777395 +22.5747462     30155.57     72.04297      1.561     2.89     5.855855     20.34106     3220.191        73     1.436     1.292  56.65   0
       263    844.8943    314.6818 300.3450548 +22.7342977     1513.561     72.26318      1.507     2.74     5.343567     20.34106      188.801        19     1.165     0.944 -25.49   0
       264    800.2955    312.3830 300.3318891 +22.7202916     293.1845     72.02459      1.305     3.09     5.396646     20.34106     42.87452         6     0.915     0.630 -29.05   0
       265      6.2992    304.3770 300.0872709 +22.4802147      5085.01     72.04297      1.894     3.69     5.139355     20.34106      532.535        45     1.564     1.371  36.56  16
       266    759.9196    303.3795 300.3222181 +22.7056195     546.6366     72.07972      1.321     4.23     5.362759     20.34106     63.34736         7     0.865     0.590  21.75   0
       267    184.0145    302.9009 300.1430081 +22.5330425     552.4603      72.0062      1.689     6.35     5.529608     20.34106     49.29691        14     1.205     0.943  -4.17   0
       268    408.4827    302.2936 300.2130620 +22.6001026     521.8574     72.26318      1.269     2.51     5.821819     20.34106      78.1739         9     0.942     0.622   6.18   0
       269    720.5930    296.6971 300.3121234 +22.6919285     1895.205     71.98782      1.490     2.83     5.356955     20.34106     227.1065        25     1.192     1.045  78.95   0
       270    935.7410    289.7638 300.3814843 +22.7543062     576.9167     72.11645      1.446     3.15     5.273976     20.34106     65.24218        13     1.081     0.771  68.82   0
       271    530.3908    291.8128 300.2544297 +22.6335914     837.0004     71.98782      0.895     3.21     5.360179     20.34106     411.5339         7     1.035     0.290  15.21   0
       272    382.2376    281.1383 300.2117530 +22.5861623     2074.223     72.11645      1.624     3.25     5.815211     20.34106     196.8852        27     1.297     1.113  65.10   0
       273    594.5334    280.3020 300.2781487 +22.6494832     214.4459     72.18985      1.136     3.46      5.34551     20.34106     38.34365         5     0.770     0.448 -69.50   0
       274    821.4703    274.3452 300.3508333 +22.7156839     528.0119     72.11645      1.354     3.56     5.405602     20.34106     70.94049        11     0.938     0.899 -22.55   0
       275    814.3417    275.1242 300.3483570 +22.7137752      241.132     72.15315      1.429     4.26      5.41631     20.34106     36.18486         5     1.064     0.487 -28.65   0
       276    703.8809    272.0027 300.3149234 +22.6798239     488.7462      72.0062      1.587     3.06     5.367352     20.34106     55.34861         7     0.893     0.572 -76.56   0
       277    458.0768    260.5399 300.2420491 +22.6029498     1153.294     72.15315      1.448     2.88     5.435071     20.34106     156.8892        22     1.222     1.003 -54.79   0
       278    265.4885    261.0063 300.1819446 +22.5454108     330.0799      72.0062      1.417     2.65     5.757801     20.34106      42.9548         5     0.735     0.576   0.89   0
       279    841.5901    253.8303 300.3637637 +22.7158006     270.3419     72.09808      1.557     4.65     5.389977     20.34106     34.82545         7     1.033     0.593 -18.07   0
       280    703.0327    252.5694 300.3209623 +22.6739801      2205.46     72.11645      1.479     2.80     5.367023     20.34106     264.9398        24     1.155     1.080  73.76   0
       281    964.3278    246.9912 300.4042805 +22.7505468      3201.52     72.07972      1.579     3.13     5.442334     20.34106     322.3531        29     1.311     1.127 -74.91   0
       282    411.3342    236.2972 300.2353558 +22.5819849     691.9529     72.20818      1.510     3.24     5.461667     20.34106     75.67318        11     1.008     0.815 -46.51   0
       283    117.0007    230.4021 300.1456794 +22.4921369     544.3147     71.87737      1.426     4.00      5.87192     20.34106     62.43618        10     1.038     0.682 -33.33   0
       284     86.3304    230.1823 300.1362138 +22.4828850     1420.304      72.1348      1.870     4.10     5.996818     20.34106     111.5093        25     1.415     1.129 -36.59   0
       285    980.1921    227.4297 300.4155767 +22.7496609      380.108     72.09808      1.321     3.31     5.638302     20.34106     67.20757         8     0.948     0.621  -6.13   0
       286    170.4711    222.4296 300.1648944 +22.5058643     518.5455     72.09808      1.385     2.70     5.661487     20.34106     61.22278         7     0.866     0.570  30.95   0
       287    965.0250    220.2540 300.4131697 +22.7430594     385.5482     72.11645      1.281     2.75     5.639565     20.34106     53.19495         6     0.833     0.500 -34.14   0
       288     26.2594    219.7936 300.1209071 +22.4619022     273.9032     72.06135      1.085     3.80     6.163657     20.34106     31.47488         5     0.898     0.461 -43.63   0
       289    846.3647    216.1964 300.3774587 +22.7063996     454.9065     72.09808      1.783     5.44     5.424961     20.34106     46.43864         7     1.069     0.782 -26.95   0
       290    774.6080    213.9940 300.3557911 +22.6842988     713.4337     71.95102      1.491     3.86      5.55782     20.34106     82.88174        15     1.112     0.940  44.40   0
       291    364.9160    213.2371 300.2283821 +22.5614570     399.9612     72.07972      1.323     4.56     5.674914     20.34106      57.5223         8     0.790     0.748 -18.01   0
       292    865.6255    207.2375 300.3863729 +22.7095829     404.5751     72.11645      1.648     3.35      5.35227     20.34106     50.28582         7     0.897     0.618  17.12   0
       293    872.9158    203.1721 300.3899657 +22.7105936     2057.296     72.09808      1.510     3.00     5.375218     20.34106     205.9682        24     1.141     1.091   2.43   0
       294    291.3071    200.1161 300.2097252 +22.5356432     2166.167     72.28149      1.570     3.01     5.823071     20.34106     213.8979        26     1.236     1.091  52.99   0
       295    369.3463    195.5108 300.2355092 +22.5576876     1216.294      72.1348      1.698     3.06     5.524473     20.34106     100.2085        19     1.165     0.931  -6.59   0
       296    120.9697    195.7074 300.1581637 +22.4833576     358.1135     72.04297      1.702     6.02     5.980788     20.34106     31.39402         8     1.064     0.960 -37.82   0
       297    771.4038    195.0119 300.3609474 +22.6778785      568.069     71.95102      1.345     2.76     5.683494     20.34106     72.73132        11     0.956     0.715 -16.51   0
       298    878.0694    191.5838 300.3953314 +22.7088000     401.0192     72.11645      1.697     6.90      5.39222     20.34106     34.50208         9     1.301     1.028   3.64   0
       299    186.2954    187.3369 300.1811955 +22.5005201     661.3337     72.18985      1.516     3.21     5.808718     20.34106     85.94594        14     1.057     0.892 -21.29   0
       300    304.0979    187.2040 300.2178925 +22.5357621     192.8382      72.0062      1.375     3.03     5.735844     20.34106     44.58019         6     0.895     0.578 -61.31   0
       301    788.7181    184.3233 300.3698131 +22.6799827     456.0627     72.20818      1.166     2.36     5.779096     20.34106     79.31123        12     0.897     0.763 -21.79   0
       302    723.9544    184.4525 300.3495752 +22.6606441     1689.798      72.1348      1.465     2.91     5.691256     20.34106     207.1072        21     1.087     1.015  51.35   0
       303    207.7212    180.4902 300.1900805 +22.5049698     559.1912     72.22652      1.453     3.56     5.777653     20.34106     66.59776        12     1.116     0.758 -74.18   0
       304    995.5193    177.4689 300.4365626 +22.7398623     911.4377     72.20818      1.687     3.56     5.890045     20.34106     81.87053        14     1.155     0.858  38.80   0
       305    648.5001    175.3300 300.3290105 +22.6354424     1263.948     72.22652      1.409     2.84     5.506676     20.34106     134.5695        17     1.081     0.959  58.41   0
       306    497.4065    177.1754 300.2813326 +22.5907534     376.6202     72.07972      1.252     2.44     5.351878     20.34106     48.24614         5     0.697     0.467  72.97   0
       307    727.9777    175.8876 300.3536068 +22.6593835     711.5137     72.02459      1.467     2.44       5.7665     20.34106     100.2356        11     0.927     0.712  71.29   0
       308    470.2073    171.1292 300.2748211 +22.5808730     464.0918     72.06135      2.117     5.14     5.337479     20.34106     40.26057         7     1.069     0.700 -75.19   0
       309    574.7812    166.9384 300.3087572 +22.6109677     941.2045     72.07972      1.464     3.03     5.391835     20.34106     115.8791        14     1.036     0.866 -63.56   0
       310    856.2167    166.0042 300.3968078 +22.6949017     732.1442     72.02459      1.430     3.43     5.425858     20.34106     81.43977        12     1.054     0.816 -61.47   0
       311    843.9675    166.6338 300.3927822 +22.6914190     1433.581      72.1715      1.524     3.63     5.526411     20.34106     146.7374        18     1.114     0.983  86.18   0
       312    902.8766    165.1992 300.4116270 +22.7086255     346.4702     71.98782      1.420     4.46      5.47978     20.34106     48.45468         6     0.831     0.681 -34.69   0
       313   1016.8635    156.8004 300.4499273 +22.7402939     1627.772     72.07972      1.609     3.49     6.072859     20.34106     152.9411        22     1.181     1.096  53.80  16
       314    972.8297    156.0990 300.4364089 +22.7269253     1077.015     72.02459      1.541     3.29     5.836421     20.34106     116.9228        20     1.144     1.090 -57.01   0
       315    206.8232    148.9845 300.2000152 +22.4956461     594.7412     72.09808      1.414     3.44     5.877042     20.34106     74.09055        12     1.095     0.811 -23.09   0
       316     68.6250    143.6068 300.1587782 +22.4527072      2240.99     72.09808      1.766     3.39     6.159912     20.34106     229.5889        30     1.322     1.270  17.68   0
       317    892.0856    141.0798 300.4160797 +22.6984556     827.5219     72.26317      1.638     4.08     5.604607     20.34106     83.19996        16     1.325     0.997  -0.40   0
       318     18.3971    140.5998 300.1441383 +22.4367963     492.3388     71.87737      1.502     3.68     6.173663     20.34106     57.34965         8     0.946     0.742 -20.18   0
       319    226.0418    136.9380 300.2098994 +22.4979391     5800.479     72.07972      1.588     3.01     5.865887     20.34106     527.3168        40     1.372     1.220  62.90   0
       320     10.2818    131.2866 300.1446346 +22.4316893     1280.388     72.22652      1.827     3.86      6.18891     20.34106     113.2577        21     1.352     1.106  27.20   0
       321    209.6897    128.2145 300.2076398 +22.4905349     587.6804     72.04297      1.655     2.93     5.939632     20.34106     59.32379         8     0.879     0.628 -68.50   0
       322   1023.6044    124.6859 300.4624434 +22.7330627     6996.333     56.44122      1.282     3.88       6.0629     20.34106     1369.005        26     1.548     0.604  86.98  24
       323    870.2420    118.7709 300.4164964 +22.6855013       3751.4     72.11645      1.594     3.08     5.756883     20.34106     393.6536        34     1.301     1.214 -80.11   0
       324    973.9872    117.5826 300.4492570 +22.7161825     2828.579     72.06135      1.722     3.37     5.937002     20.34106     281.8962        31     1.356     1.214 -77.07   0
       325    419.5135    113.9150 300.2775816 +22.5492456     597.1296     72.22652      1.378     2.63     5.738729     20.34106     73.35433        10     0.894     0.695   0.91   0
       326    343.9068    105.8882 300.2566441 +22.5243042     692.2243     72.26318      1.629     4.42     5.633331     20.34106     61.35296        11     1.046     0.816 -45.56   2
       327    348.0573    104.2024 300.2584826 +22.5250621     459.0033     72.06135      1.452     3.10     5.633781     20.34106     44.42661         7     0.806     0.680  64.26   2
       328    109.7295    102.8680 300.1847640 +22.4533131     562.3648      72.1348      1.515     3.86     6.138721     20.34106     61.37254        10     1.006     0.680  -1.77   0
       329    471.0099    101.2020 300.2977394 +22.5610032     1747.446     71.91421      1.472     2.75     5.849713     20.34106     182.6925        23     1.167     0.983  55.77   0
       330    398.9299    101.9841 300.2750395 +22.5396532     377.6082     72.11645      1.439     2.87     5.782679     20.34106     58.63052         8     0.935     0.577 -24.05   0
       331    532.7057    100.1701 300.3172921 +22.5791706     452.1252      72.0062      1.261     2.46     5.882181     20.34106     53.01436         7     0.696     0.657 -62.34   0
       332    214.3366     96.2675 300.2194403 +22.4827436      408.124     72.15315      1.359     3.49     6.046372     20.34106       50.825         7     0.868     0.603 -35.04   0
       333    687.8293     95.3628 300.3671941 +22.6242023      179.091     72.11645      1.005     3.51     5.949098     20.34106     38.30406         5     0.766     0.465 -11.75   0
       334    905.2901     85.4393 300.4382363 +22.6863871     341.1924     72.09808      1.292     2.67     5.963435     20.34106     43.66479         5     0.692     0.476  16.28   0
       335    751.2859     81.9097 300.3913399 +22.6393132     373.5953     72.26318      1.457     2.71     6.036073     20.34106     56.02622         5     0.771     0.401 -71.61   0
       336    245.0696     80.8463 300.2340002 +22.4875131     6052.906     72.07972      1.612     3.04     6.028643     20.34106     562.3895        39     1.321     1.294  64.12   0
       337     96.3583     80.4448 300.1878733 +22.4428643     807.4078      72.1715      1.987     3.31     6.136727     20.34106     81.32861        13     1.154     0.824 -41.75   0
       338    260.4481     72.1445 300.2416055 +22.4896159      403.326      72.1348      1.578     4.62     6.032472     20.34106     41.44184         7     1.055     0.574 -63.90   0
       339    491.1255     66.2782 300.3153237 +22.5569784     6296.676     72.20818      1.508     2.79     5.950117     20.34106     716.4011        39     1.284     1.226  82.01   0
       340    376.7201     66.1730 300.2797308 +22.5227069     502.4276     72.09808      1.233     2.71     5.945651     20.34106     86.33612        10     0.881     0.718   1.66   0
       341    548.4048     61.1658 300.3348245 +22.5726483     314.0497     72.09808      1.199     3.49     5.911036     20.34106     34.99313         5     0.804     0.438  70.84   0
       342    743.6464     56.4063 300.3972231 +22.6296881     740.4178     72.11645      1.521     3.27     6.093248     20.34106     79.02913        11     1.078     0.684 -22.98   0
       343    836.1673     55.3331 300.4264274 +22.6570500     473.5296     72.09808      1.303     2.67      5.96523     20.34106     61.81287         7     0.815     0.597 -20.22   0
       344    184.5730     50.2406 300.2250971 +22.4606006     471.1883     72.15315      1.488     4.38     6.118705     20.34106     48.08814        11     1.219     0.738 -89.09   0
       345    542.5462     49.4057 300.3368102 +22.5675120     403.4088     72.09808      1.250     3.87     5.913743     20.34106      55.7522         9     1.006     0.715 -28.85   0
       346    619.5486     46.4248 300.3617709 +22.5896933     6206.078     72.11645      1.539     2.76     5.911507     20.34106     731.9713        38     1.312     1.172  86.39   0
       347    394.2528     45.4726 300.2918976 +22.5220017     1438.747     72.09808      1.499     2.93     6.048871     20.34106     165.2157        22     1.282     1.112 -25.22   0
       348    660.5443     43.9191 300.3753608 +22.6012366     817.9382      72.1348      1.399     4.03      5.91292     20.34106     98.12821        12     1.157     0.771  75.34   0
       349    730.0815     41.2412 300.3979077 +22.6212662     383.3064     72.06135      1.636     3.94     6.114877     20.34106     43.53829         7     0.883     0.644  56.35   0
       350    676.8292     40.2235 300.3816348 +22.6050445     677.5295     72.09808      1.528     2.37     5.926837     20.34106     79.01472         9     0.861     0.642 -72.35   0
       351    946.6330     37.8051 300.4665761 +22.6850335     509.2432     72.07972      1.384     3.30      6.11391     20.34106     58.63033         9     0.955     0.703  70.94   0
       352    143.5415     37.8316 300.2163553 +22.4447470     546.9154     72.11645      1.474     4.22     6.084915     20.34106     56.19836        13     1.064     0.922 -21.61   0
       353    715.1537     35.7461 300.3950339 +22.6152197     430.8678      72.1348      1.186     2.15     6.067937     20.34106     70.22142         7     0.783     0.558  28.86   0
       354    663.8325     31.3370 300.3804629 +22.5985994      2731.96     72.09808      1.539     2.79     5.910673     20.34106     314.1908        27     1.211     1.122 -88.88   0
       355    304.3809     32.1689 300.2682316 +22.4912746     327.0721     72.09808      1.389     5.66     6.235962     20.34106     45.38474        10     1.169     0.773  49.10   0
       356    679.1339     30.3684 300.3855467 +22.6028978     909.9925     72.09808      1.808     4.59     5.933981     20.34106     85.85546        18     1.432     1.012  40.92   0
       357    750.3898     23.1152 300.4101139 +22.6221231     1561.761     72.06135      1.502     2.78     6.132446     20.34106     153.2357        22     1.149     1.065 -54.36   0
       358    828.7894     18.3295 300.4361169 +22.6441912     313.3055     72.07972      1.158     3.40     5.967128     20.34106     36.71872         5     0.752     0.445 -14.53   0
       359    729.3217   1013.3445 300.0820114 +22.9005123     422.0295      72.1348      1.792     5.14     3.770228     20.34106     31.13449         7     1.008     0.742 -50.09   0
       360    292.7995   1012.3225 299.9463847 +22.7693298     1338.187     71.96942      2.425     6.65      7.10527     20.34106     68.57851        32     1.736     1.476 -25.72   0
       361     66.9505     15.4705 300.1997831 +22.4153835     434.8924     72.09808      1.488     2.54     6.133586     20.34106     55.22654         8     0.811     0.647 -85.19   0
       362    128.4338   1008.0946 299.8966347 +22.7188035     1686.295     72.07972      3.449    14.28     89.44654     20.34106     57.34554        48     2.818     2.012 -26.36  18
       363    780.0979     12.5953 300.4227874 +22.6279797     335.6187      72.0062      1.091     2.60     6.038495     20.34106     48.94908         5     0.715     0.456 -19.29   0
       364    170.0800    999.2902 299.9124495 +22.7287744     2244.238     72.22652      4.929    15.05     81.51039     20.34106     71.23779        53     3.829     1.646  30.57   3
