#   1 NUMBER                 Running object number                                     
#   2 X_IMAGE                Object position along x                                    [pixel]
#   3 Y_IMAGE                Object position along y                                    [pixel]
#   4 ALPHA_J2000            Right ascension of barycenter (J2000)                      [deg]
#   5 DELTA_J2000            Declination of barycenter (J2000)                          [deg]
#   6 FLUX_APER              Flux vector within fixed circular aperture(s)              [count]
#   7 FLUXERR_APER           RMS error vector for aperture flux(es)                     [count]
#   8 FLUX_RADIUS            Fraction-of-light radii                                    [pixel]
#   9 FWHM_IMAGE             FWHM assuming a gaussian core                              [pixel]
#  10 BACKGROUND             Background at centroid position                            [count]
#  11 THRESHOLD              Detection threshold above background                       [count]
#  12 FLUX_MAX               Peak flux above background                                 [count]
#  13 ISOAREA_IMAGE          Isophotal area above Analysis threshold                    [pixel**2]
#  14 A_IMAGE                Profile RMS along major axis                               [pixel]
#  15 B_IMAGE                Profile RMS along minor axis                               [pixel]
#  16 THETA_IMAGE            Position angle (CCW/x)                                     [deg]
#  17 FLAGS                  Extraction flags                                          
         1    680.6478     15.1882 300.3929592 +22.6014230     783.1089     72.71945      1.522     3.24     8.892624     20.51114     105.5064        15     1.077     0.949 -59.28   0
         2    486.2527     14.4111 300.3326393 +22.5430439     1097.537     72.70094      1.822     3.49     7.617811     20.51114     118.2617        17     1.237     0.873  80.52   0
         3    390.2295     12.5410 300.3033439 +22.5137713     864.9879     72.71945      1.653     4.82     7.647244     20.51114     77.43276        15     1.310     1.055 -50.24   0
         4    772.5464     11.9980 300.4226450 +22.6279892     467.6434     72.64536      1.574     3.05     8.639702     20.51114     58.98323         8     0.941     0.708  30.09   0
         5    729.5212      3.6671 300.4119271 +22.6127242     458.9533     68.09206      1.261     2.44     8.904434     20.51114      81.5043         9     0.939     0.602  -2.23  16
         6    161.4205      2.8568 300.2352806 +22.4424949     3482.384     64.56027      1.611     3.26     8.678444     20.51114      404.012        32     1.452     1.048   1.49  24
         7    139.1047   1006.3055 299.9027020 +22.7239499     708.7463     72.86741      2.213     6.65     91.79599     20.51114     41.02248        14     1.447     1.078  25.56   0
         8     74.8563   1009.7592 299.8816053 +22.7056615     5690.805     72.68242     18.128   115.27     72.54278     20.51114     190.5641      2724    20.673    18.906 -48.98  27
         9     68.0096    952.2419 299.8981793 +22.6871115     5758.892     72.70094     31.097   121.71     32.26063     20.51114     1297.208      4509    23.533    17.465 -60.13  27
        10    623.7976    985.9966 300.0601717 +22.8634807     9565.537     72.47839      2.365     5.67     6.662017     20.51114     419.9694        53     1.751     1.595   1.67   3
        11      2.0125   1001.1755 299.8617577 +22.6813390     785.6113     60.37946      8.474     9.31     -1.47005     20.51114     43.03145        15     2.353     1.028 -76.73  27
        12    209.0953    983.4583 299.9318969 +22.7383951     4918.463     72.77497      7.509    22.75     66.35903     20.51114     108.1024       330     5.548     4.567 -66.41   3
        13    488.4298    975.1219 300.0215410 +22.8197775     441.4625     72.70094      1.868     4.52     6.814804     20.51114     30.26543         7     1.254     0.462 -81.28   0
        14    644.9274    971.5464 300.0714550 +22.8656647     343.1043     72.70094      2.041     4.32      6.70541     20.51114     36.02623         5     1.183     0.449  65.75   0
        15    917.6321    970.2122 300.1569209 +22.9469947     725.9536     72.68242      2.384     4.57     6.201538     20.51114     46.95546         9     0.955     0.856  67.64   2
        16    191.5718   1001.7158 299.9205099 +22.7383753     1703.327     72.70094      0.487    27.75     85.60169     20.51114     50.45936       109     5.741     3.724 -31.78  19
        17    641.6387    952.8227 300.0765187 +22.8593023     6964.246     72.71945      2.112     4.94     6.868227     20.51114     328.7316        53     1.621     1.584  23.80   0
        18    161.8829    990.6128 299.9148878 +22.7262832     2277.815     72.68242      8.157    17.62     77.89765     20.51114     61.55655        65     4.158     2.076 -63.30   3
        19    154.3114    948.0137 299.9263844 +22.7117919     1038.985     72.64536     11.255    11.45     38.38615     20.51114     33.36652        17     2.975     1.228  87.97   1
        20    522.4301    947.5588 300.0410922 +22.8220582     338.2274     72.73796      1.347     4.32     6.846265     20.51114     28.70678         5     1.240     0.429 -54.97   0
        21    476.0899    999.7339 300.0096946 +22.8231423     488.6433     72.81196      2.063     5.97     6.740013     20.51114     33.89896         6     1.409     0.711 -44.02   0
        22    148.4744    946.4847 299.9250665 +22.7096022     864.1158     72.79346      8.426     8.37     36.54444     20.51114     34.98779        14     1.556     1.259  38.29   1
        23    550.1970    943.6553 300.0510102 +22.8292612     1543.119     72.64536      2.090     5.77     6.811665     20.51114     81.32629        27     1.429     1.321 -72.10   0
        24    190.3701    984.1252 299.9258562 +22.7329688     3897.583     72.71945      9.074    26.30     68.97678     20.51114     73.09663       269     5.261     4.600 -30.11   3
        25    228.0593    972.4315 299.9413809 +22.7409205     7275.953     72.71945      7.931    29.04     52.35369     20.51114     165.0291       647     9.344     4.985  60.57  18
        26    445.0000    939.9377 300.0194581 +22.7966564     823.9099     72.64536      1.935     5.38     7.008369     20.51114     62.02954        14     1.348     0.746  69.15   2
        27    442.3240    940.6959 300.0183785 +22.7960717     504.6461     72.84893      1.578     4.39     7.008922     20.51114      57.3577         7     1.019     0.709  67.11   3
        28    374.6153    937.9807 299.9981835 +22.7749901      6534.26     72.68242      2.091     4.61     7.303562     20.51114     396.0331        53     1.623     1.568  11.72   0
        29    144.1830    938.9304 299.9261882 +22.7061477     776.0667     72.71945      4.567     4.88     30.09842     20.51114     31.54853         5     1.258     0.536 -60.59   0
        30    130.7976    936.4210 299.9228421 +22.7014121     910.2414     72.64536      3.264     3.84     27.33584     20.51114     28.13243         5     1.576     0.269 -40.77   1
        31    407.4933    924.6730 300.0127442 +22.7810290     479.3733     72.83044      2.269     5.65     7.095886     20.51114     37.34478         9     1.355     1.041  12.93   0
        32    920.9410    917.1703 300.1752005 +22.9327445      2188.05     72.71945      2.187     5.43     6.778375     20.51114     100.7126        38     1.606     1.526 -20.30   0
        33    570.7924    912.9061 300.0674230 +22.8266056     355.7867     72.58974      2.019     6.73     6.940975     20.51114     29.94311         7     1.571     0.808 -44.36   0
        34    219.9984    998.9540 299.9302492 +22.7461112      569.981     72.70094      1.723     6.14     80.49954     20.51114     46.94672        11     1.436     0.739  58.08   0
        35    345.5890    997.4885 299.9697999 +22.7833628     597.5761     72.64536      2.299     5.45     7.524169     20.51114     44.76189        10     1.370     0.612 -80.75   0
        36    709.7544    906.1626 300.1129187 +22.8663142     808.2018     72.73796      2.389     6.00     7.125807     20.51114     42.96368        12     1.259     0.932   8.02   0
        37    162.0163    997.6420 299.9126435 +22.7283394     3067.022     72.71945      6.164    23.21      84.3465     20.51114     70.42022       155     4.943     3.027  20.98  19
        38    536.7913    990.5150 300.0315970 +22.8386956     2255.362     72.64536      2.104     4.94     6.691761     20.51114     145.7478        37     1.584     1.495  62.94   0
        39      1.9836   1017.0516 299.8565859 +22.6858825     1102.741     60.17845      5.527     7.00    -5.194731     20.51114     49.06955        15     1.497     0.919  84.19  27
        40      2.4054   1011.0483 299.8586693 +22.6842878     1063.022     62.41861      9.275    10.74    -3.797976     20.51114     43.67451        21     2.825     1.138  81.18  27
        41    744.4787    900.0027 300.1257462 +22.8749492     1041.372     72.60829      2.010     6.23     7.116278     20.51114     66.94649        20     1.315     1.202 -20.48   0
        42    766.8077    893.6372 300.1347773 +22.8798106     11438.92     72.71945      1.991     4.47     7.083043     20.51114     609.8735        63     1.625     1.534 -44.84   0
        43    957.9323    893.7000 300.1943734 +22.9370784     331.2639     72.79346      1.691     5.87     6.691154     20.51114     32.12449         8     1.153     0.840  38.78   0
        44    812.6741    893.8683 300.1490045 +22.8936180     402.4577     72.77497      1.686     4.66     6.985033     20.51114     34.73572         6     0.957     0.643  13.92   0
        45    898.6107    888.3755 300.1775951 +22.9177815     311.4262     72.70094      1.558     4.30     6.800782     20.51114     24.61502         5     1.016     0.519  44.57   0
        46    628.8572    983.6317 300.0625174 +22.8643182     9103.589     72.71945      2.106     5.19     6.658381     20.51114     467.8602        51     1.641     1.536  67.28   3
        47     78.8616    884.9425 299.9234298 +22.6710638     816.6166     72.75647      2.968     5.67     14.10653     20.51114     51.51777        11     1.442     0.804 -80.83   0
        48    724.8044    986.2589 300.0915664 +22.8938293     704.6323     72.66389      2.676     5.05     6.487336     20.51114     42.36832         6     1.463     0.493  51.88   2
        49    959.0975    875.9982 300.2004916 +22.9323397     355.2814     72.60829      1.918     3.86     6.688301     20.51114     37.96458         5     1.294     0.330  59.68   0
        50    775.2747    875.9587 300.1431641 +22.8772684     1289.501     72.68242      2.024     5.11     7.128505     20.51114      74.8618        28     1.414     1.347 -17.46   0
        51    627.7620    872.8521 300.0981933 +22.8321768     556.7272     72.71945      1.958     4.32     7.063251     20.51114     39.88438         9     1.168     0.795  25.58   0
        52    813.4688    868.8782 300.1573759 +22.8866758     902.3202     72.81196      2.036     7.44     7.089066     20.51114     59.14573        19     1.627     0.951  72.00   0
        53    921.7783    866.7038 300.1918681 +22.9184921     384.5247     72.60829      1.615     4.89     6.781838     20.51114     33.35292         8     1.343     0.505 -59.47   0
        54    861.6825    860.2312 300.1752241 +22.8986330     481.5974     72.70094      1.823     5.50     6.898468     20.51114     40.91925         8     1.234     0.692  13.65   0
        55    713.3089    859.0869 300.1293295 +22.8538564     632.5745     72.86741      1.643     6.59     7.159377     20.51114     58.72039        20     1.550     1.119  74.61   0
        56    724.2529    856.4689 300.1335921 +22.8563832     600.4791     72.71945      1.937     6.71       7.1565     20.51114     36.78978        14     1.189     1.062  81.23   0
        57    425.8685    855.6121 300.0409136 +22.7667130     4141.387     72.71945      1.888     4.21     7.102869     20.51114     313.0251        37     1.459     1.374 -22.84   0
        58    469.9610    844.0505 300.0583998 +22.7766110     356.8623     72.71945      1.468     3.96     7.144077     20.51114     39.41584         6     0.766     0.586 -44.96   0
        59    151.0829    841.4870 299.9600068 +22.6802610     731.7381     72.81196      1.924     5.89     10.79358     20.51114     55.13614        16     1.293     1.048  10.02   0
        60    128.2180    838.4771 299.9538753 +22.6725392       1494.1     72.70094      2.034     4.50     10.50606     20.51114     123.0182        27     1.422     1.386   7.78   0
        61     60.4109    839.7443 299.9323839 +22.6525626     370.8238     72.70094      1.875     3.44     8.898698     20.51114     27.26244         5     0.767     0.447 -70.68   0
        62   1000.1264    827.7542 300.2289775 +22.9307581     2114.145     72.70094      2.132     6.20     6.511682     20.51114     114.4921        34     1.631     1.399 -23.00   0
        63      4.1741    828.6315 299.9185171 +22.6325034     617.9904     69.77166      2.446     3.34     6.494606     20.51114     41.66255         5     0.933     0.372  84.95  16
        64    954.2150    826.2048 300.2151528 +22.9165655     2226.171      72.5712      2.047     5.05     6.800302     20.51114     123.8447        30     1.532     1.254  -9.90   0
        65    659.8475    826.8347 300.1231487 +22.8285734     453.4233     72.73796      1.866     4.91     7.116994     20.51114      38.1695         8     1.245     0.548 -12.85   0
        66    737.6553    820.0576 300.1496043 +22.8499375     677.0789     72.75647      1.808     6.89     7.123324     20.51114     41.38409        16     1.292     1.030  14.17   0
        67    161.2787    819.7906 299.9702277 +22.6770934     362.6416     72.66389      1.471     3.19      8.96084     20.51114     51.59628         5     0.966     0.438 -83.55   0
        68    605.8659    813.8460 300.1105482 +22.8086675     4676.149     72.70094      1.775     3.85     7.100215     20.51114     314.6232        34     1.334     1.305 -43.37   0
        69    408.2744    810.8336 300.0499884 +22.7485825      706.669     72.70094      1.730     4.94     7.194004     20.51114     56.56359        12     1.146     1.014  35.63   0
        70    156.0541    807.6786 299.9725387 +22.6720508     1359.183     72.73796      2.130     4.59      7.89773     20.51114     113.6074        25     1.425     1.330  62.84   0
        71    626.4311    806.3542 300.1193907 +22.8126777      840.514     72.75647      1.847     4.73     7.100414     20.51114     51.35342        18     1.148     1.110 -16.26   0
        72    424.7214    805.9674 300.0566900 +22.7521155     241.4745     72.68242      1.390     3.80     7.202359     20.51114     33.11051         5     0.826     0.503 -41.22   0
        73    175.9581    804.8175 299.9796581 +22.6771992     355.7772     72.71945      1.471     5.05     7.616931     20.51114     46.84051         6     1.001     0.721  76.77   0
        74    998.9920    793.9127 300.2396215 +22.9206895     1118.949     72.60829      2.015     6.03     6.478723     20.51114     67.25098        26     1.478     1.325  87.54   0
        75    781.8726    793.6518 300.1719718 +22.8555954     4141.938     72.70094      1.868     4.10     7.192489     20.51114     270.5819        39     1.423     1.392 -29.90   0
        76    514.1389    790.4684 300.0895702 +22.7744652     160.0567     72.75647      1.011     4.12     7.398477     20.51114      36.9155         5     0.909     0.533 -48.81   0
        77    190.7665    787.1981 299.9899884 +22.6765836     546.7036     72.66389      1.960     4.69     7.352332     20.51114     48.69812        10     1.226     0.679  40.61   0
        78    498.8206    786.2752 300.0861619 +22.7686701     583.0448     72.70094      1.691     5.74     7.368459     20.51114      47.8712        12     1.111     0.835  10.11   0
        79    145.3559    783.7589 299.9769839 +22.6619782     1062.953     72.77497      2.071     5.29     7.256102     20.51114     68.80508        21     1.366     1.216 -17.12   0
        80    294.8958    775.9866 300.0260240 +22.7045884     53730.61     72.62683      1.866     3.83     7.295428     20.51114     4283.616       100     1.598     1.561  28.50   0
        81    560.3362    779.1989 300.1076218 +22.7850725     479.1995     72.70094      1.682     6.19     7.455863     20.51114      45.1118        12     1.336     0.805  37.48   0
        82    965.9920    774.8163 300.2355277 +22.9053193     729.5999     72.62683      1.564     5.16     6.726384     20.51114     57.11987        19     1.225     1.138  -8.23   0
        83    552.9489    775.2085 300.1066171 +22.7817127     1579.331     72.70094      1.724     3.88      7.50228     20.51114     118.0217        25     1.316     1.193 -10.09   0
        84    224.0000    774.4136 300.0044788 +22.6828800     520.5269     72.49696      1.669     4.69      7.38785     20.51114     44.68568         7     1.279     0.501  77.12   2
        85    581.8481    771.3217 300.1168829 +22.7892558     985.2552     72.70094      1.596     3.49     7.397988     20.51114     86.20163        16     1.079     0.982 -70.10   0
        86    592.5082    769.8380 300.1206862 +22.7920238     539.5356     72.70094      1.480     5.33      7.35808     20.51114      45.7551        14     1.253     0.820 -12.77   0
        87    698.0189    765.9067 300.1548444 +22.8225050     356.3939     72.62683      1.440     5.33     7.158521     20.51114     39.33463         8     1.241     0.647 -26.30   0
        88    344.6749    753.2571 300.0488992 +22.7129863     31771.95     72.73796      1.812     3.75     7.282329     20.51114     2320.817        76     1.508     1.495 -63.54   0
        89    735.8378    756.5575 300.1696714 +22.8311472     651.2294     72.79346      1.542     4.20     7.148476     20.51114     63.00171        13     1.092     0.874 -20.09   0
        90    358.9311    753.8218 300.0531528 +22.7174220      2103.02     72.70094      1.952     3.69     7.278226     20.51114     168.1095        33     1.516     1.258 -28.84   2
        91    356.1961    748.0601 300.0541733 +22.7149478     734.1541     72.66389      2.268     4.86     7.282492     20.51114     60.04403        11     1.201     0.763 -52.35   2
        92    867.8503    749.4769 300.2131400 +22.8686488     2863.476     72.70094      1.852     4.33     7.312051     20.51114        179.7        31     1.343     1.303 -87.55   0
        93    799.9708    746.5670 300.1929142 +22.8474847     2118.665     72.71945      0.619     0.99     7.225916     20.51114     1106.369         6     0.496     0.305  88.97   0
        94    625.9338    745.1127 300.1391342 +22.7949355     983.0404     72.79346      1.642     4.48     7.383143     20.51114      82.7699        19     1.239     1.159 -60.38   0
        95    462.5441    745.7436 300.0880335 +22.7461579     477.3969     72.77497      1.951     5.22     7.381384     20.51114     36.35833         6     1.140     0.675 -70.26   0
        96    227.1570    745.1365 300.0149721 +22.6754230     721.3179     72.70094      1.670     4.40     7.324819     20.51114     73.22449        14     1.297     0.833 -38.28   0
        97    473.0012    740.1395 300.0931104 +22.7476823     778.3508     72.66389      1.530     3.58     7.418794     20.51114     77.46648        14     1.009     0.974  73.88   0
        98    874.2356    737.0356 300.2191739 +22.8669847     538.9698     72.77497      1.619     7.06     7.270337     20.51114     52.81123        14     1.629     0.885  19.43   0
        99    419.4986    735.0226 300.0781138 +22.7301781     563.8271     72.62683      1.760     6.16     7.299269     20.51114     40.36623        10     1.300     0.820 -67.73   0
       100     60.3690    734.8209 299.9664600 +22.6224461     544.7047     72.70094      1.837     5.37     7.150523     20.51114     42.20681         8     1.414     0.577 -24.18   0
       101    225.6501    729.0989 300.0197130 +22.6703676       508.71     72.77497      1.509     3.80     7.345233     20.51114     57.66161         9     0.912     0.867 -86.92   0
       102    548.4530    720.0826 300.1231256 +22.7645308     466.5948     72.73796      1.603     5.19     7.726754     20.51114     44.62529         8     0.986     0.781 -56.69   0
       103    517.7122    718.4597 300.1140775 +22.7548536     641.1804     72.77497      1.641     6.00     7.676541     20.51114     55.87431        12     1.343     0.755 -56.04   0
       104    934.2336    714.7844 300.2451214 +22.8785519       4562.7     72.68242      1.861     4.14     7.093077     20.51114     281.0351        40     1.466     1.384 -32.19   0
       105    539.7141    715.7034 300.1218260 +22.7606544     1313.771     72.88588      1.629     3.95     7.738873     20.51114     114.9186        19     1.156     1.114 -23.90   0
       106    459.5336    715.2506 300.0970016 +22.7364981     215.7255     72.68242      1.198     3.74     7.520869     20.51114     39.78226         5     0.977     0.412   8.67   0
       107    621.1150    710.9733 300.1487229 +22.7836834     367.9554     72.70094      1.499     4.14     7.555252     20.51114     38.97201         7     0.939     0.521 -41.84   0
       108    922.6951    706.2577 300.2442910 +22.8726459     1724.479     72.77497      1.724     4.00     7.256664     20.51114     136.4489        26     1.332     1.173  30.70   0
       109    151.8225    700.7352 300.0059643 +22.6400898     355.8872     72.68242      1.512     4.48     7.410325     20.51114     36.71806         7     0.877     0.651 -26.57   0
       110    285.6391    699.8049 300.0478910 +22.6799423     716.3798     72.71945      1.545     4.01     7.476506     20.51114     77.17529        16     1.211     0.958   8.30   0
       111    749.0660    697.3662 300.1930244 +22.8180988     2480.999     72.70094      1.776     3.81     7.475475     20.51114     180.1726        29     1.409     1.215   3.20   0
       112    953.9286    696.4024 300.2572384 +22.8791629      1662.12     72.64536      1.929     4.82     7.114816     20.51114     101.7622        26     1.363     1.314 -33.87   0
       113    831.5753    683.5168 300.2232523 +22.8388262      622.778     72.66389      1.907     5.97     7.584804     20.51114     43.87094        14     1.227     1.167  66.82   0
       114    134.9082    683.4271 300.0063259 +22.6300501     492.4212     72.64536      1.560     4.08     7.454916     20.51114     48.72497        10     1.001     0.727 -37.00   0
       115    867.5095    674.3829 300.2374276 +22.8469596     147916.8     72.62683      1.793     3.75     7.648588     20.51114     11563.36       167     1.647     1.559 -39.25   0
       116    374.1884    678.9648 300.0822168 +22.7004998      211.366     72.70094      1.457     4.61     7.528735     20.51114     28.23213         6     1.506     0.401  56.44   0
       117    630.7718    678.4095 300.1623090 +22.7772197     364.0415     72.70094      1.888     4.17     7.684682     20.51114     37.58914         6     0.721     0.689  81.81   0
       118   1014.5333    676.2617 300.2826953 +22.8915124     1215.001     72.73796      1.879     4.27     6.622041     20.51114      83.5155        22     1.249     1.176 -71.86   0
       119    719.9367    674.7328 300.1912943 +22.8028699     645.2816     72.75647      1.609     4.43     7.644863     20.51114     66.95261        15     1.242     0.956  19.75   0
       120    900.1371    667.2336 300.2499283 +22.8546726     491.2124     72.70094      1.634     5.39     7.642207     20.51114      45.2211         9     1.071     0.767  25.17   0
       121    553.6602    663.0214 300.1432811 +22.7496981     1676.646     72.66389      1.643     3.50     8.015883     20.51114        145.6        22     1.172     1.117 -38.84   0
       122    735.0052    660.4648 300.2006259 +22.8032819     9480.811     72.68242      1.648     3.31     7.712317     20.51114      791.283        45     1.331     1.308  83.86   0
       123    236.4426    655.2288 300.0470617 +22.6523963      4912.55     72.71945      1.802     3.44       7.6979     20.51114     457.3528        43     1.444     1.358  23.34   0
       124    318.5103    653.4739 300.0731661 +22.6764920     1199.759     72.86741      1.710     3.85     7.736826     20.51114     111.7872        19     1.249     1.019 -76.29   0
       125    194.0917    651.0401 300.0352485 +22.6384977     558.2015     72.70094      1.791     4.29     7.670556     20.51114     56.45333         9     1.042     0.866 -57.05   0
       126    526.7990    648.9389 300.1394872 +22.7376048     824.3676     72.66389      1.669     3.37     8.195481     20.51114     89.42383        15     1.124     0.925 -58.65   0
       127    518.4599    641.1192 300.1394291 +22.7328599     3460.379     72.75647      1.639     3.26     8.260615     20.51114     312.9556        33     1.292     1.258 -73.45   0
       128    508.6876    634.9545 300.1383872 +22.7281611     1525.022     72.68242      1.706     3.48     8.292167     20.51114     140.9629        21     1.190     1.053 -67.64   0
       129    902.4405    632.7695 300.2618395 +22.8454526     507.6474     72.71945      1.871     4.70     7.717115     20.51114     40.97133         9     1.066     0.948  43.17   0
       130    171.8471    630.9114 300.0348661 +22.6260502     786.9642     72.68242      1.858     5.47     7.723432     20.51114     60.13724        14     1.260     1.033  33.26   0
       131    186.3074    629.3906 300.0398571 +22.6299486     674.2234     72.62683      1.889     5.29     7.757896     20.51114     73.75813        15     1.558     0.897 -19.71   0
       132    955.1315    626.4819 300.2803225 +22.8594168     493.5883     72.81196      1.635     4.63     7.594531     20.51114     41.92439         8     0.924     0.658  51.00   0
       133    243.5268    626.5085 300.0585913 +22.6462737     431.3611     72.86741      1.850     3.00     7.841081     20.51114     58.22439         7     0.868     0.658  63.10   0
       134    212.0602    626.3652 300.0488494 +22.6368001     581.9889     72.71945      1.822     5.20     7.820523     20.51114     57.13143        10     1.230     0.875 -78.20   0
       135    433.5557    624.5689 300.1183629 +22.7026669     1833.288     72.75647      1.673     2.97     8.104353     20.51114     204.4839        25     1.250     1.119 -16.55   0
       136    532.6337    625.5808 300.1488895 +22.7326419     427.5792     72.70094      1.568     4.01     8.489429     20.51114     42.01593         7     1.101     0.487  -4.64   0
       137   1009.4193    622.3367 300.2986119 +22.8744730     556.4203     72.68242      1.890     5.07     7.388735     20.51114     57.16366        12     1.070     0.917  23.62   0
       138     87.3584    619.3109 300.0123616 +22.5973891        19945     72.70094      1.930     3.82     7.852874     20.51114     1729.306        71     1.602     1.532  12.86   0
       139    518.5059    620.0515 300.1462844 +22.7268209     903.7587     72.77497      1.433     3.01     8.491184     20.51114     101.3818        13     0.947     0.854  -5.06   0
       140    554.0001    619.1073 300.1576472 +22.7371826     316.4492      72.5712      1.299     2.08     8.567035     20.51114     48.33881         5     0.602     0.567 -89.98   0
       141    271.7502    611.2515 300.0723257 +22.6503522     452.1195     72.73796      2.007     4.85     7.925009     20.51114     38.83932         5     1.098     0.606 -68.45   0
       142    936.6365    606.3560 300.2810863 +22.8480932     1091.102     72.75647      1.786     4.54     7.750277     20.51114      80.6757        21     1.340     1.156 -33.78   0
       143     33.0572    603.7318 300.0005402 +22.5766353     1649.646     72.71945      2.281     6.07     8.653703     20.51114     105.8872        34     1.757     1.548 -58.81   0
       144    803.6049    604.6971 300.2401256 +22.8077922     559.7406     72.60829      1.971     3.06     7.794242     20.51114     49.23404         5     0.885     0.456  76.66   0
       145      8.6871    621.3705 299.9872397 +22.5743898     609.7015     72.70094      1.692     4.88     8.677232     20.51114     56.06781        11     1.209     0.736 -37.65   0
       146    275.0222    599.8487 300.0770459 +22.6480584     316.9232     72.70094      1.390     4.38     7.995285     20.51114     34.28143         6     0.968     0.703 -58.40   0
       147    876.5812    598.8826 300.2647756 +22.8279675     743.0439     72.66389      1.703     4.48     7.818306     20.51114     62.96869        14     1.071     0.997  64.14   0
       148    438.8083    592.9479 300.1302651 +22.6951570     702.0464     72.70094      1.454     2.78      8.36949     20.51114     82.56988        11     0.848     0.834  22.31   0
       149    586.2111    590.9819 300.1768141 +22.7387491     490.0726     72.66389      1.519     3.75     8.585081     20.51114     53.34063        10     1.136     0.819  58.99   0
       150    633.7943    589.9843 300.1919649 +22.7527140     461.9914     72.62683      1.471     4.16      8.33918     20.51114     48.56802        10     1.039     0.872  -3.04   0
       151    604.1992    589.6672 300.1828457 +22.7437591     592.3887     72.66389      1.535     2.70     8.478406     20.51114      64.2953        11     0.950     0.735 -71.16   0
       152    482.5252    588.6188 300.1452837 +22.7070108     926.3077     72.70094      1.651     4.10     8.548189     20.51114     86.16106        18     1.145     1.075  29.74   0
       153    916.6648    584.3840 300.2819886 +22.8357965     3226.009     72.68242      1.743     3.66     7.854752     20.51114     260.2649        32     1.324     1.259 -33.61   0
       154    448.1053    584.0738 300.1360409 +22.6953931     1809.403     72.84893      1.622     3.50     8.448403     20.51114     164.7183        23     1.203     1.109  47.38   0
       155   1014.2634    582.7822 300.3129674 +22.8645455     581.0346     72.68242      1.663     4.68     7.521827     20.51114     53.17306        13     1.254     0.984  65.32   0
       156     10.1644    577.4366 300.0019614 +22.5622236     5118.732     72.77497      1.970     4.05      8.89823     20.51114      466.749        45     1.591     1.439  37.51  16
       157    477.5709    574.9980 300.1481628 +22.7016131     331.1589     72.66389      1.412     4.32     8.637101     20.51114     49.13993         8     1.125     0.772 -16.39   0
       158    955.6145    574.6184 300.2973131 +22.8446456     277.3834     72.66389      1.459     3.81     7.763587     20.51114     34.60022         5     1.057     0.394  16.87   0
       159    311.6807    570.7285 300.0979063 +22.6506816     9248.603     72.83044      1.660     3.46     8.215548     20.51114     900.3111        45     1.343     1.324 -55.09   0
       160    434.1765    567.8917 300.1369572 +22.6865710     9265.448     72.62683      1.572     3.03     8.464375     20.51114     964.0234        47     1.313     1.278 -60.46   0
       161    845.8850    562.0109 300.2671711 +22.8081762     1960.157     72.64536      1.591     3.46     7.941889     20.51114     173.0943        28     1.386     1.125  78.21   0
       162     78.5386    563.7202 300.0276664 +22.5787870     427.3206     72.77497      1.569     3.48     8.466605     20.51114     47.02625         5     1.012     0.346 -67.85   0
       163    930.5276    559.4912 300.2943957 +22.8327866     12534.03     72.86741      1.744     3.55     7.926371     20.51114      1050.17        50     1.397     1.359 -51.88   0
       164    494.7526    557.5117 300.1591902 +22.7017359     11499.71     72.68242      1.565     2.99      8.83639     20.51114      1270.75        46     1.293     1.252  67.23   0
       165    664.1886    553.5375 300.2132694 +22.7513405     463.3693     72.64536      1.460     3.75     8.346422     20.51114     61.89087        10     1.047     0.742  10.91   0
       166    222.2024    552.9518 300.0758372 +22.6187601     1353.455     72.70094      1.768     3.61     8.288383     20.51114     122.4107        23     1.220     1.172  60.54   0
       167    379.7814    552.5652 300.1249979 +22.6658707     312.0751     72.70094      1.550     4.86     8.369872     20.51114     33.67166         7     1.069     0.626  24.10   0
       168    469.0292    550.7849 300.1533628 +22.6920974     422.7154     72.70094      1.407     3.28     8.766879     20.51114     52.89776         7     0.749     0.648   1.50   0
       169    426.4757    545.6594 300.1417763 +22.6778766     4605.156     72.75647      1.618     2.89     8.507186     20.51114     511.2763        37     1.305     1.261 -27.58   0
       170    769.4005    545.8994 300.2485482 +22.7806469     810.5341     72.53409      1.427     3.20     7.991378     20.51114     80.12029        14     0.961     0.917 -65.22   0
       171    404.6223    544.0399 300.1354982 +22.6708641     1189.399     72.73796      1.524     3.55     8.436679     20.51114     126.6504        17     1.129     0.961  82.92   0
       172    159.0847    543.4103 300.0593028 +22.5971019      739.769     72.66389      1.589     4.84     7.972443     20.51114     70.12354        14     1.237     0.964  -1.80   0
       173    846.3265    541.4149 300.2739948 +22.8023857     1664.179     72.70094      1.740     4.19     8.013892     20.51114      120.786        24     1.332     1.123 -45.56   0
       174    366.9651    539.3943 300.1252836 +22.6582470     338.5387     72.70094      1.463     3.51     8.394073     20.51114     43.91992         5     0.984     0.427  66.53   0
       175    726.7915    538.3629 300.2377096 +22.7657233     861.2905     72.70094      1.464     3.29       8.1616     20.51114     106.1423        16     1.067     1.002  -5.58   0
       176    543.0667    533.2559 300.1821122 +22.7092375     206471.3     72.75647      1.540     2.92     9.066821     20.51114     20029.06       196     1.584     1.477 -18.93   0
       177    229.1026    533.0286 300.0844503 +22.6151067      3522.33     72.64536      1.703     3.32     8.396374     20.51114     315.5615        33     1.305     1.283   6.38   0
       178    797.1589    534.1074 300.2610320 +22.7855664     343.1926     72.70094      1.445     3.89     7.991169     20.51114     34.48166         5     0.811     0.534 -36.56   0
       179    794.9734    529.9191 300.2617100 +22.7837078      561.467     72.68242      1.918     3.92      8.01893     20.51114     42.35374         8     0.862     0.729  -7.23   0
       180    433.9685    518.3519 300.1529725 +22.6722755     334.9467     72.73796      1.180     2.65     8.694166     20.51114     42.60015         5     0.849     0.474   5.03   0
       181    278.0999    515.7767 300.1052933 +22.6248353     397.3853     72.64536      1.172     3.98     8.447348     20.51114      58.7265         6     1.012     0.448 -24.82   0
       182    433.6771    513.4470 300.1544737 +22.6707789     2817.037     72.70094      1.653     2.87     8.717791     20.51114     303.3023        27     1.171     1.148  -6.40   0
       183    844.9977    510.3055 300.2836781 +22.7930416     310.9584     72.60829      1.433     5.72     8.132066     20.51114     34.58111         9     1.090     0.844 -32.30   0
       184    751.0140    502.2714 300.2569760 +22.7625983      475.209     72.70094      1.552     4.20     8.408261     20.51114     45.04839         9     0.964     0.678 -58.77   0
       185    830.7239    499.9418 300.2825895 +22.7857888     1665.115     72.75647      1.533     3.04     8.163823     20.51114      165.184        21     1.108     1.034   6.47   0
       186    701.8910    497.5414 300.2431965 +22.7465319     2644.143     72.77497      1.528     2.89     8.554342     20.51114     300.5267        23     1.151     1.060 -37.67   0
       187    946.0576    495.0641 300.3201545 +22.8189027     651.5673     72.75647      2.200     3.73     8.087913     20.51114     53.92384        10     0.913     0.842 -36.33   3
       188    944.7808    490.9015 300.3211071 +22.8173233     1005.809     72.62683      2.098     4.76     8.105123     20.51114     72.50144        15     1.376     0.961  24.29   2
       189    911.0466    494.2751 300.3094859 +22.8081987     291.8986     72.70094      1.468     3.79      8.13736     20.51114      36.3278         7     0.771     0.645  16.12   0
       190    606.9382    494.2437 300.2146734 +22.7171530     436.1163     72.70094      1.359     3.83     9.243204     20.51114      42.5669         6     0.940     0.447 -41.06   0
       191    489.3321    493.2477 300.1783601 +22.6816456     614.6232     72.70094      1.378     3.72     9.041489     20.51114     73.40031        12     1.067     0.845  59.04   0
       192    959.3445    491.6560 300.3254071 +22.8218983     1330.207     72.75647      1.796     4.70     8.086761     20.51114     108.6114        23     1.375     1.233  74.89   0
       193    830.9406    489.9013 300.2859157 +22.7829661     2336.937     72.79346      1.999     4.15     8.206056     20.51114      188.881        32     1.701     1.120  72.63   0
       194    584.3055    488.0200 300.2096412 +22.7085866     668.9179     72.62683      1.589     3.49      9.20084     20.51114     62.69737         9     0.936     0.774  31.37   2
       195    370.2354    487.5968 300.1431123 +22.6443461     325.7843     72.70094      1.483     4.38     8.531077     20.51114      35.4584         7     0.880     0.620 -78.12   0
       196    869.1661    485.1064 300.2993955 +22.7930278      4327.57     72.64536      1.557     3.10     8.224697     20.51114     405.7225        33     1.293     1.174 -75.38   0
       197    422.6195    486.5460 300.1597611 +22.6597369     243.9926     72.68242      1.623     4.93     8.791005     20.51114     33.76476         6     0.970     0.710  16.45   0
       198    529.7724    480.9972 300.1949314 +22.6902369     300.5677     72.64536      1.444     5.62     9.077929     20.51114     33.52499         8     1.064     0.836 -38.51   0
       199    960.9217    475.8867 300.3310170 +22.8178337     769.7401     72.84893      1.731     4.04      8.13959     20.51114     67.50356        13     1.152     0.827   2.17   0
       200    101.1557    474.9124 300.0635192 +22.5600697     1059.788     72.68242      1.941     3.73     8.616933     20.51114     90.59988        15     1.120     0.952  28.71   0
       201    957.1841    464.0745 300.3336838 +22.8133172     264.5121     72.70094      1.329     4.05     8.132817     20.51114     36.47339         6     0.947     0.495  53.73   0
       202    701.4536    459.9914 300.2552457 +22.7356046     490.8961     72.70094      1.498     3.07     8.805251     20.51114     61.91044         9     0.942     0.656  14.93   0
       203    310.7829    457.8588 300.1342581 +22.6179908     223.3877     72.64536      1.442     3.52     8.629671     20.51114     35.47851         5     0.899     0.620  64.54   0
       204    642.8175    455.6102 300.2383912 +22.7167901     686.3558     72.66389      1.497     3.66      9.06827     20.51114     74.32006        15     1.115     0.980  76.85   0
       205    590.0394    457.5025 300.2213307 +22.7015313     207.7695     72.68242      1.324     2.87     9.220053     20.51114     38.43014         6     0.774     0.498  -4.02   0
       206    621.9810    453.9250 300.2324446 +22.7100670     242.4762     72.70094      1.245     3.77     9.198516     20.51114     36.65859         5     1.049     0.389 -32.20   0
       207    957.1064    448.1569 300.3388248 +22.8087145     635.1666     72.70094      1.658     4.22     8.121464     20.51114     54.66888        13     1.124     0.951  57.51   0
       208    703.4984    447.8443 300.2598247 +22.7327240     842.5424     72.70094      1.368     2.97     8.866331     20.51114     111.6193        14     1.047     0.818 -35.54   0
       209    860.7104    443.9865 300.3101014 +22.7786699     1007.543     72.64536      1.647     4.02     8.265128     20.51114     99.40846        22     1.335     1.135  78.70   0
       210    845.0090    440.7146 300.3062652 +22.7730299     583.6186     72.64536      1.519     3.58     8.260763     20.51114     73.57179        13     1.173     0.781 -13.71   0
       211    589.1927    438.2052 300.2273283 +22.6957304     3406.738     72.55264      1.461     2.85     9.195854     20.51114     317.9413        29     1.185     1.128  88.64   0
       212    949.4232    437.4825 300.3398907 +22.8033447     389.1136     72.66389      1.378     4.57     8.144314     20.51114     44.81234         8     1.012     0.591  47.00   0
       213    595.1022    426.5926 300.2329373 +22.6941615     284.4917      72.5712      1.193     3.20     9.199749     20.51114     34.72209         5     0.741     0.444 -20.82   0
       214    429.4118    424.8687 300.1818884 +22.6440478     402.8642     72.71945      1.428     3.95     8.840175     20.51114     46.09045         9     0.899     0.761  71.59   0
       215   1000.6296    417.4559 300.3623702 +22.8129025     1568.765     72.70094      1.846     3.70     7.854229     20.51114     131.9715        25     1.275     1.266 -66.76   0
       216    958.9083    416.2395 300.3497433 +22.8000707     1011.098     72.70094      1.562     4.20     8.088548     20.51114     97.74506        18     1.232     0.995  54.13   0
       217    872.4879    417.3335 300.3224232 +22.7745275     502.9033     72.79346      1.471     2.77     8.279931     20.51114     69.63046         9     0.939     0.639  -0.45   0
       218    608.7932    414.4561 300.2411408 +22.6947715     287.2177     72.68242      1.316     3.40     9.212049     20.51114     34.44992         5     0.766     0.437 -22.35   0
       219    699.8840    412.2548 300.2702450 +22.7214083      1048.33     72.77497      1.424     3.09     9.015252     20.51114     112.9408        17     1.040     0.995 -83.87   0
       220    495.3934    412.7413 300.2063698 +22.6603230     458.5442     72.66389      1.679     3.75     9.027085     20.51114      61.1493         8     1.093     0.528  16.33   0
       221    203.3446    410.3483 300.1162451 +22.5721518     730.9965     72.73796      1.842     5.31     8.691653     20.51114      57.7835        15     1.216     1.077   0.05   0
       222     44.1107    408.4769 300.0673391 +22.5238946     281.2151     72.84893      1.526     4.14     9.068763     20.51114     29.29991         5     1.467     0.334 -41.00   0
       223    266.0304    405.8548 300.1372041 +22.5896427     3791.814     72.71945      1.608     3.19     8.812224     20.51114     389.5263        31     1.316     1.173  59.84   0
       224    999.2729    404.7525 300.3660682 +22.8088413       4288.6     72.70094      1.709     3.36     7.864895     20.51114     370.0057        33     1.338     1.269 -63.60   0
       225    213.2975    400.5650 300.1225147 +22.5723237     7427.827     72.70094      1.665     3.07     8.737642     20.51114     828.9041        41     1.325     1.303  74.82   0
       226    979.1793    395.9418 300.3626549 +22.8002949     1740.489     72.68242      1.564     3.46     7.978815     20.51114     152.3262        22     1.115     1.087  63.41   0
       227    354.0945    394.9082 300.1681606 +22.6128787     4871.663     72.86741      1.549     3.07     8.810968     20.51114     483.0887        34     1.269     1.188  81.42   0
       228    598.3785    391.7501 300.2452616 +22.6851252     18703.85     72.70094      1.499     2.76     9.113789     20.51114     2141.273        56     1.323     1.232 -69.62   0
       229    616.2197    391.7012 300.2508369 +22.6904525     783.8233     72.62683      1.977     7.11     9.124753     20.51114     62.45243        18     1.686     0.840 -37.43   0
       230    225.9831    389.1063 300.1301778 +22.5728328     204.6074     72.62683      1.319     3.67     8.813319     20.51114     34.73851         5     0.981     0.394 -61.33   0
       231    218.5944    378.8640 300.1312015 +22.5676767     312.7681     72.68242      1.541     3.28     8.830737     20.51114     43.54259         7     1.005     0.551 -12.80   0
       232    931.5981    374.5072 300.3547593 +22.7798926     757.2325     72.60829      1.510     4.12     8.255945     20.51114     84.82333        16     1.305     0.871  59.17   0
       233    152.9008    371.5469 300.1131419 +22.5458912     2099.749     72.79346      1.661     3.33     8.620908     20.51114     235.3928        28     1.412     1.123  39.36   0
       234    952.6705    361.9388 300.3654121 +22.7825803     1187.831     72.73796      1.483     3.37     8.136478     20.51114     112.2589        16     1.072     0.916 -50.00   0
       235    539.0141    361.1401 300.2366954 +22.6585512     6749.481     72.66389      1.463     2.85     8.854931     20.51114     737.9379        40     1.253     1.209 -54.30   0
       236    254.2370    360.5770 300.1482212 +22.5731011     701.7489     72.71945      1.611     2.63     8.911656     20.51114     71.67174         7     0.753     0.640 -71.45   0
       237    111.7271    354.0663 300.1060080 +22.5285326     507.6992     72.73796      1.712     4.03     8.618614     20.51114      68.5128        10     1.248     0.668  -4.03   0
       238    799.2985    353.1334 300.3204206 +22.7341582     349.2791     72.79346      1.650     5.12      8.29367     20.51114     28.52925         6     1.147     0.647 -16.80   0
       239    743.2687    350.1813 300.3039063 +22.7165417     1181.764     72.70094      1.600     3.21     8.590125     20.51114     119.6722        18     1.145     0.980  45.40   0
       240    653.2843    351.3182 300.2754867 +22.6899360     361.3298     72.83044      1.233     3.82      8.74359     20.51114     64.22643         7     1.074     0.618 -36.46   0
       241    445.6178    347.3094 300.2120929 +22.6266097     6182.375     72.62683      1.526     2.71     8.843579     20.51114     773.2819        37     1.283     1.146  70.82   0
       242    935.1479    342.4149 300.3662766 +22.7717203     700.1196     72.70094      1.660     3.96      8.21597     20.51114     53.68689        12     1.128     0.772  -4.81   0
       243    837.5359    341.9459 300.3359751 +22.7423815     1537.427     72.73796      1.597     3.06     8.263186     20.51114     158.5174        22     1.324     1.007  80.64   0
       244    430.3371    336.2895 300.2109088 +22.6188662     402.0168     72.79346      1.368     3.78     8.747009     20.51114     48.69393        10     1.028     0.690 -50.97   0
       245    512.4595    334.1770 300.2371687 +22.6428489     434.5485     72.70094      1.371     3.06     8.759923     20.51114     62.76856         7     0.984     0.548  15.89   0
       246    790.5921    333.3781 300.3241127 +22.7258700     383.3772     72.68242      1.730     5.41     8.331676     20.51114     37.55805         6     1.137     0.726   7.80   0
       247    492.8825    332.1391 300.2317320 +22.6364015     412.0054     72.79346      1.847     3.46     8.783938     20.51114     39.49904         6     0.901     0.605  21.98   0
       248    810.4418    329.8275 300.3314548 +22.7307882     498.8792     72.71945      1.488     3.06     8.272886     20.51114      69.6203        10     0.960     0.699   5.49   0
       249    333.1472    326.5748 300.1838039 +22.5869675     2426.719     72.71945      1.484     2.76     8.884333     20.51114     302.9762        24     1.131     1.107  59.32   0
       250     51.8288    323.8991 300.0971690 +22.5019186     961.3431     72.62683      1.604     3.48     9.000719     20.51114     96.02876        15     1.142     0.885  -5.92   0
       251    302.5149    315.8922 300.1777348 +22.5747227     30247.86     72.86741      1.613     3.07      8.92187     20.51114     3200.149        77     1.455     1.358  66.93   0
       252    837.3199    313.9112 300.3449999 +22.7342512     1492.606     72.83044      1.541     3.10     8.214825     20.51114     155.8095        20     1.173     1.021  50.46   0
       253    792.4432    311.8370 300.3316760 +22.7202271     403.8401     72.77497      1.584     3.33     8.322115     20.51114      36.8645         5     0.739     0.458 -70.60   0
       254      1.1056    303.3970 300.0880512 +22.4808297     546.4312     55.11051      1.029     3.25     9.432399     20.51114     138.7914         7     1.132     0.307  89.23  24
       255    752.6851    302.7609 300.3222213 +22.7057193     536.3516     72.68242      1.355     3.89     8.481215     20.51114      74.4841        10     1.162     0.680 -18.10   0
       256    176.8546    302.4831 300.1429887 +22.5332280     565.7567     72.73796      1.660     3.08     8.704983     20.51114     64.75659        10     0.947     0.744   2.05   0
       257    401.3409    301.8013 300.2130648 +22.6002698     462.0284     72.66389      1.185     2.96     8.635915     20.51114     58.66075         6     0.730     0.606   2.88   0
       258    713.0518    295.9114 300.3120856 +22.6918887     1856.788     72.71945      1.446     3.17     8.522842     20.51114     190.6486        24     1.235     1.040 -80.01   0
       259    928.2304    289.0704 300.3814178 +22.7543001     633.4725     72.70094      1.478     3.87     8.084246     20.51114      60.3049        13     1.086     0.867   9.35   0
       260    521.2965    290.6259 300.2540441 +22.6329732     362.5396     72.66389      1.321     3.43     8.454427     20.51114     41.28923         5     0.770     0.441 -18.40   0
       261    374.7752    280.3625 300.2117460 +22.5861522     2246.215     72.71945      1.702     3.45      8.73772     20.51114     218.7325        30     1.454     1.101  65.45   0
       262    587.2565    279.7845 300.2781084 +22.6496008     184.9783     72.68242      1.226     2.98     8.538874     20.51114     38.98313         6     0.740     0.561 -44.16   0
       263    813.8859    273.7542 300.3507124 +22.7156862     503.5147     72.68242      1.400     2.96     8.246627     20.51114     67.59467         8     0.874     0.632  16.33   0
       264    806.1596    274.2034 300.3481570 +22.7135038     242.1035     72.71945      1.386     4.48     8.272099     20.51114     26.25849         6     0.926     0.617 -66.05   0
       265    695.8823    271.4778 300.3146557 +22.6797224     400.7519     72.81196      1.522     4.64     8.535242     20.51114     48.96659         9     1.303     0.872  70.44   0
       266    713.3816    271.0520 300.3202490 +22.6848365     195.7758     72.68242      1.240     2.95     8.542878     20.51114     46.27593         7     0.740     0.687  65.40   0
       267    450.7050    259.7698 300.2420630 +22.6029676     1169.829     72.62683      1.530     3.78     8.484646     20.51114     150.0823        20     1.233     1.061 -67.34   0
       268    834.2617    253.3452 300.3636849 +22.7159097     316.6743     72.75647      1.333     4.01     8.186399     20.51114     39.39735         6     0.878     0.523 -42.19   0
       269    695.5014    251.6890 300.3209529 +22.6739160     2393.627     72.86741      1.621     3.07     8.573004     20.51114     249.8598        26     1.259     1.086  78.27   0
       270    956.8465    246.5038 300.4041497 +22.7506082     3218.381     72.71945      1.615     2.93     8.071139     20.51114     343.3044        33     1.385     1.180 -72.61   0
       271   1018.6514    241.4878 300.4250669 +22.7676476     592.6929     72.73796      2.093     4.70     8.073351     20.51114     39.21901         9     1.278     0.490  -4.85  16
       272    403.9837    235.6537 300.2353337 +22.5820459     640.0292     72.68242      1.424     2.81     8.528935     20.51114     89.87978        12     1.044     0.730 -15.79   0
       273    109.7441    230.1387 300.1455725 +22.4923380     457.6967     72.77497      1.527     3.37     8.746222     20.51114     68.61674        10     1.088     0.688 -32.10   0
       274     78.5334    229.4607 300.1360883 +22.4827929     1539.071     72.73796      1.967     3.84     8.863108     20.51114     151.5864        25     1.479     1.135 -15.87   0
       275    972.6462    227.3237 300.4152988 +22.7498126     521.1985     72.70094      1.651     4.39     8.114548     20.51114     43.44498         8     1.008     0.622  -4.01   0
       276    162.8944    221.4775 300.1649083 +22.5057711     503.5083     72.81196      1.698     4.22     8.735389     20.51114     64.06205         9     1.295     0.546  68.04   0
       277    838.8362    216.0192 300.3772125 +22.7065371     401.9897     72.71945      1.497     3.70     8.182352     20.51114     40.82519         5     0.826     0.476 -20.06   0
       278    767.0355    213.4679 300.3556464 +22.6843235     622.0842     72.70094      1.428     3.30     8.496421     20.51114     65.09679        11     1.066     0.725 -32.58   0
       279    857.1523    206.3677 300.3860546 +22.7092383     361.0118     72.73796      1.494     3.79     8.138454     20.51114     47.27725         5     0.871     0.474  47.39   0
       280    865.4232    202.3822 300.3899266 +22.7105653     2207.816     72.68242      1.638     2.96     8.121127     20.51114     229.5688        30     1.300     1.178  38.86   0
       281    283.8831    199.3227 300.2097280 +22.5356401     2192.943     72.81196      1.576     3.08     8.697909     20.51114     209.8356        25     1.189     1.153 -25.28   0
       282    361.8174    194.5301 300.2355367 +22.5575984     1026.367     72.71945      1.604     3.59     8.553556     20.51114     113.0758        16     1.149     0.977  75.22   0
       283    763.8688    194.2204 300.3608979 +22.6778379     568.1031     72.68242      1.279     2.70     8.549013     20.51114     65.81021        10     0.876     0.702  -0.34   0
       284    113.1559    194.4413 300.1582036 +22.4831035     338.0937     72.77497      1.800     3.91     8.741168     20.51114     36.06085         5     0.892     0.492   5.33   0
       285    870.7595    191.3253 300.3951754 +22.7089791     322.2752     72.68242      1.270     3.86     8.137883     20.51114     44.07757         8     0.931     0.639 -13.18   0
       286    178.6441    186.8438 300.1810321 +22.5005362     752.0613     72.73796      1.594     3.69      8.69056     20.51114     63.68391        13     1.052     0.824 -18.25   0
       287    716.4011    183.6431 300.3495261 +22.6605933     1708.232     72.70094      1.499     2.92     8.759809     20.51114     180.4132        21     1.150     1.069  49.18   0
       288    781.4689    183.5710 300.3698380 +22.6800387      433.632     72.68242      1.230     3.25     8.446884     20.51114     63.81987         8     1.030     0.495   0.13   0
       289    200.3128    180.1323 300.1899472 +22.5050972     561.8039     72.81196      1.367     2.70     8.709179     20.51114     65.63002         9     0.864     0.666 -16.46   0
       290    987.9878    176.4117 300.4365903 +22.7397440     840.0104     72.58974      1.500     3.46     8.320268     20.51114     95.71989        15     1.087     0.936 -14.69   0
       291    720.2954    175.2722 300.3534533 +22.6593499      697.366     72.81196      1.311     2.93     8.789035     20.51114     80.28484        11     0.939     0.759 -78.63   0
       292    489.9808    176.4901 300.2812897 +22.5907787      284.883     72.62683      1.158     2.89     8.331608     20.51114     41.97982         6     0.772     0.499  -2.11   0
       293    640.9549    174.3893 300.3290078 +22.6353570     1188.998     72.71945      1.456     2.65     8.536977     20.51114     154.4637        19     1.063     1.047  76.44   0
       294    462.1747    170.9790 300.2744159 +22.5808708     331.7194     72.68242      1.466     3.08     8.337373     20.51114     39.80963         7     0.851     0.635  27.22   0
       295    836.6593    166.0741 300.3927221 +22.6915122     1547.861     72.73796      1.669     2.89     8.233889     20.51114     140.5495        24     1.266     1.163  53.23   0
       296    848.4153    165.3722 300.3966167 +22.6948264     830.6569     72.71945      1.483     3.15     8.213445     20.51114     89.42445        12     0.993     0.811  -1.41   0
       297    567.1557    165.9787 300.3087370 +22.6108534      902.277     72.75647      1.407     3.68     8.205849     20.51114     102.0415        12     1.067     0.782  56.93   0
       298    894.8827    164.3757 300.4114362 +22.7084371     396.3682     72.66389      1.658     4.25     8.174146     20.51114     40.82275         6     0.781     0.660  41.17   0
       299   1009.4030    156.0276 300.4498815 +22.7402785     1732.606     72.66389      1.804     3.42      8.47252     20.51114      145.379        29     1.350     1.257  63.64   0
       300    965.3900    155.4292 300.4363377 +22.7269462     1238.976     72.70094      1.746     4.04     8.321342     20.51114     131.5429        26     1.322     1.281 -44.78   0
       301    199.2369    148.1201 300.1999864 +22.4955745      918.213     72.66389      1.589     4.05     8.697862     20.51114     78.69604        17     1.180     1.062  13.86   0
       302     61.0233    142.7977 300.1587308 +22.4526482     2256.754     72.64536      1.793     3.64     8.979951     20.51114     219.2574        29     1.389     1.232  26.37   0
       303    884.5881    140.4355 300.4159828 +22.6984672      638.843     72.70094      1.450     2.83      8.25046     20.51114     86.52732        12     0.992     0.815  -4.36   0
       304     10.5893    140.0116 300.1439565 +22.4367395     435.3616     72.58974      1.524     3.73     9.336022     20.51114     60.76083         9     0.960     0.660 -17.05   0
       305    218.5071    136.1029 300.2098749 +22.4978912     5649.854     72.88588      1.697     3.09     8.733451     20.51114      584.846        38     1.349     1.307  77.04   0
       306    200.0283    137.3256 300.2037304 +22.4927089     429.0033     72.71945      1.606     4.14     8.703487     20.51114     36.44502         6     0.914     0.760  52.85   0
       307      2.8489    130.7135 300.1445635 +22.4317492     997.9902     64.56027      1.546     3.39     9.392935     20.51114     111.0645        16     1.114     0.982 -20.20  24
       308   1017.5256    124.0571 300.4627776 +22.7335016      18265.7     72.75647      1.777     3.39     8.632971     20.51114     1785.036        61     1.550     1.400 -83.85  16
       309    201.9516    127.2666 300.2075880 +22.4903937      602.328     72.70094      1.427     4.08     8.709892     20.51114     61.72932         9     0.999     0.626 -23.34   0
       310    862.7219    117.9983 300.4164317 +22.6854693     3497.283     72.60829      1.600     3.14     8.313293     20.51114     353.9496        34     1.361     1.191 -71.27   0
       311    966.4470    116.8136 300.4491813 +22.7161446     2973.479     72.70094      1.784     3.71     8.481616     20.51114     259.9245        35     1.433     1.271  86.94   0
       312    412.3004    113.4669 300.2775221 +22.5494032     793.1877     72.79346      1.817     3.40     8.160064     20.51114     61.47179         9     0.949     0.650 -33.83   0
       313    165.0693    113.7800 300.2004856 +22.4754723      335.823     72.68242      1.499     3.89     8.668009     20.51114     48.16655         6     0.910     0.479  34.34   0
       314    526.3712    111.1846 300.3137869 +22.5828871     430.0689     72.71945      1.722     3.43     8.191564     20.51114     49.40907         6     1.040     0.528 -19.60   0
       315    336.3851    104.9319 300.2566548 +22.5242240     831.4829     72.71945      2.452     3.60     8.171968     20.51114     71.05234         9     1.024     0.660 -17.17   0
       316    102.5788    102.0651 300.1848479 +22.4533904     583.6931     72.68242      1.458     2.81     8.641356     20.51114     70.65414        10     0.992     0.603 -22.91   0
       317    463.5468    100.4099 300.2977101 +22.5609864     1648.988     72.70094      1.519     2.81     8.169571     20.51114     198.1001        19     1.111     0.994  72.55   0
       318    391.9191    100.8378 300.2752684 +22.5396707     463.7448     72.66389      1.293     2.47     8.122556     20.51114     60.37597         6     0.838     0.467 -33.01   0
       319    525.3979     99.2520 300.3173498 +22.5791635     473.7943     72.68242      1.628     3.52     8.184569     20.51114     44.18906         5     0.756     0.474  78.01   0
       320    207.0940     96.0353 300.2193063 +22.4829563     422.0595     72.70094      1.520     3.57     8.723978     20.51114     64.62639         7     1.049     0.472 -30.75   0
       321    633.5163     85.9443 300.3553490 +22.6076854     277.7211     72.79346      1.873     4.69     8.567905     20.51114     32.23636         5     1.046     0.596 -10.72   0
       322    109.5342     85.6463 300.1923297 +22.4507549      321.005     72.70094      1.975     3.39      8.63794     20.51114     36.94998         5     1.028     0.323 -67.08   0
       323   1023.0656     84.0328 300.4774756 +22.7236323     220.6859     59.95432      1.266     2.74     8.747123     20.51114     36.00517         5     0.609     0.604 -69.61  24
       324    897.9048     84.5398 300.4382491 +22.6863584     396.6298     72.79346      1.922     4.16     8.423272     20.51114     39.57092         5     0.908     0.543  44.70   0
       325    237.4998     79.9457 300.2339778 +22.4874353     6008.586     72.79346      1.687     3.30     8.601607     20.51114     604.2959        43     1.465     1.302  70.15   0
       326    743.4427     81.1975 300.3911541 +22.6392029     341.5729     72.70094      1.502     3.12     8.808352     20.51114     38.68483         5     0.728     0.462  70.96   0
       327     88.4758     79.7346 300.1876971 +22.4427491     769.3843     72.79346      2.005     5.65     8.681245     20.51114     58.24174        14     1.260     0.973 -16.82   0
       328    866.8929     77.9400 300.4307120 +22.6751852     310.6003     72.77497      1.353     4.52     8.393541     20.51114     34.64533         8     0.894     0.650 -44.49   0
       329    210.2426     74.0361 300.2274125 +22.4775752     320.1841     72.75647      1.390     4.15      8.71001     20.51114     36.42473         6     0.923     0.532  -0.88   0
       330    713.2208     71.8274 300.3847670 +22.6274665     164.6205     72.70094      1.261     4.36     8.857527     20.51114     29.65089         5     0.777     0.695  53.20   0
       331    253.2756     71.3783 300.2416615 +22.4896955     268.6926     72.68242      1.274     3.91      8.41094     20.51114     36.42178         6     0.872     0.503 -42.46   0
       332    483.7055     65.4445 300.3153159 +22.5569622     6457.905     72.71945      1.629     2.90       7.9653     20.51114     797.8037        41     1.394     1.233  77.04   0
       333    369.3260     65.3691 300.2797253 +22.5227082     826.2225     72.71945      1.690     3.70     7.934464     20.51114     75.52377        13     1.061     0.914  67.90   0
       334    736.1336     55.5756 300.3971755 +22.6296426     753.1737     72.68242      1.571     4.60      8.86581     20.51114     85.79141        14     1.241     0.945 -63.92   0
       335    828.8370     54.3232 300.4264914 +22.6570065     393.0336     72.66389      1.252     3.74     8.428286     20.51114     68.11325         9     0.989     0.718 -27.41   0
       336    535.1497     48.0578 300.3369723 +22.5673544     479.4163     72.75647      1.646     5.15      7.84947     20.51114     45.40081         9     1.117     0.672 -77.84   0
       337    176.9659     49.2245 300.2250985 +22.4604789     496.7979     72.71945      1.352     4.17     8.682467     20.51114     50.47342         8     1.227     0.447 -31.27   0
       338    612.0403     45.6410 300.3617124 +22.5896638     6201.646     72.77497      1.547     2.92     8.405543     20.51114     711.6567        38     1.346     1.185  83.09   0
       339    387.0473     44.5829 300.2919753 +22.5220345     1443.709     72.73796      1.547     2.93      7.82264     20.51114     179.9893        24     1.248     1.084  54.76   0
       340    653.0082     42.9967 300.3753368 +22.6011584     750.6487     72.51552      1.453     3.47     8.723348     20.51114     97.14769        13     1.198     0.688  77.24   0
       341    722.7276     40.1897 300.3979796 +22.6212047     398.7144     72.70094      1.806     4.31     8.878312     20.51114      38.7049         5     0.930     0.650 -67.13   0
       342    669.1968     38.8966 300.3817107 +22.6048210     526.9734     72.60829      1.588     4.59     8.849173     20.51114     57.70296        10     1.119     0.961 -45.59   0
       343    938.8395     36.7769 300.4664954 +22.6848452     571.7097     72.73796      1.483     4.34     8.567415     20.51114     77.92207        12     1.320     0.776  48.73   0
       344    135.6498     37.2090 300.2161404 +22.4446536     765.5512     72.70094      1.679     4.04     8.658589     20.51114      72.8724         9     1.178     0.543 -26.22   0
       345    977.7673     36.6614 300.4786820 +22.6964492     374.7829     72.73796      1.375     2.66     8.631569     20.51114     39.61005         5     0.719     0.451  14.81   0
       346    707.5856     34.7183 300.3950311 +22.6151010     393.9556     72.68242      1.447     4.66     8.881948     20.51114     60.75314        10     1.279     0.844   8.83   0
       347    656.2637     30.6493 300.3803509 +22.5985789     2630.681     72.75647      1.513     2.69     8.750898     20.51114     308.4174        27     1.194     1.113 -79.69   0
       348    671.2916     29.1640 300.3855162 +22.6026467     858.0261     72.64536      1.826     5.92     8.869462     20.51114     72.87895        18     1.637     0.858  61.29   0
       349    297.1642     31.2373 300.2683206 +22.4912928     463.3541     72.77497      1.456     2.54     7.806663     20.51114     60.92278         8     0.786     0.676 -64.92   0
       350    742.5864     22.3372 300.4099539 +22.6220056     1508.674     72.66389      1.511     2.94     8.849059     20.51114     182.8951        22     1.158     1.074  41.75   0
       351    903.3748     20.9935 300.4605412 +22.6696977     452.9746     72.70094      1.860     4.20     8.528008     20.51114     33.94801         6     0.988     0.509  11.82   0
       352    158.1485    976.8412 299.9182046 +22.7212124     2146.972     72.70094      6.317    16.68     65.09107     20.51114     53.39001        65     3.066     2.522 -72.09   3
       353    155.0687    971.1740 299.9190897 +22.7186628     1906.736     72.68242     10.283    16.48     59.56592     20.51114     50.06786        47     3.749     2.014  57.88   3
       354     59.4136     14.6821 300.1997319 +22.4153493     525.0947     72.68242      1.655     4.19     8.540897     20.51114      42.3737         7     1.106     0.453 -31.01   0
       355    286.3083   1011.1928 299.9468969 +22.7695141     1026.308     72.60829      2.032     4.32     12.03323     20.51114     68.11845        13     1.174     0.783  78.81   2
       356    119.8596   1007.1498 299.8964439 +22.7184175     1420.167     72.75647      2.083    17.19     92.71685     20.51114     50.51333        42     3.777     2.175 -28.15  18
       357    123.8919   1004.2645 299.8986359 +22.7187999     553.1068     72.81196      1.739     3.12     89.95427     20.51114     40.93133         5     0.960     0.422  30.28   3
