#   1 NUMBER                 Running object number                                     
#   2 X_IMAGE                Object position along x                                    [pixel]
#   3 Y_IMAGE                Object position along y                                    [pixel]
#   4 ALPHA_J2000            Right ascension of barycenter (J2000)                      [deg]
#   5 DELTA_J2000            Declination of barycenter (J2000)                          [deg]
#   6 FLUX_APER              Flux vector within fixed circular aperture(s)              [count]
#   7 FLUXERR_APER           RMS error vector for aperture flux(es)                     [count]
#   8 FLUX_RADIUS            Fraction-of-light radii                                    [pixel]
#   9 FWHM_IMAGE             FWHM assuming a gaussian core                              [pixel]
#  10 BACKGROUND             Background at centroid position                            [count]
#  11 THRESHOLD              Detection threshold above background                       [count]
#  12 FLUX_MAX               Peak flux above background                                 [count]
#  13 ISOAREA_IMAGE          Isophotal area above Analysis threshold                    [pixel**2]
#  14 A_IMAGE                Profile RMS along major axis                               [pixel]
#  15 B_IMAGE                Profile RMS along minor axis                               [pixel]
#  16 THETA_IMAGE            Position angle (CCW/x)                                     [deg]
#  17 FLAGS                  Extraction flags                                          
         1    488.7096     15.1898 300.3326532 +22.5432335      1108.05     71.93887      1.652     3.06     5.827222     20.31166     121.6275        17     1.124     0.909 -75.20   0
         2    392.6322     13.5640 300.3032638 +22.5140100     699.8265     72.03056      1.416     3.48     6.800455     20.31166     83.62405        13     1.114     0.922  63.08   0
         3    774.9359     12.5568 300.4227035 +22.6281110     508.9366      71.9939      1.680     2.92     5.899063     20.31166     60.74544         8     0.940     0.595  42.95   0
         4    163.9902      3.2930 300.2354475 +22.4426040     3624.528     65.80478      1.621     3.05     6.604087     20.31166     361.8829        30     1.343     1.161  19.44  24
         5    732.0955      3.9202 300.4121437 +22.6128121     581.0026     68.32453      1.572     5.41      6.30796     20.31166     65.93822        11     1.207     0.872 -65.77  24
         6    124.2342   1006.9236 299.8973309 +22.7187468     1089.846      71.9939      2.541     8.03     91.74781     20.31166     50.74152        17     1.434     1.258 -89.34   3
         7     76.5823   1009.4246 299.8817050 +22.7051621     5576.321      71.9939     18.193    96.14     70.83261     20.31166     175.0728      2683    19.242    18.039 -86.60  27
         8    154.3721    998.0999 299.9095708 +22.7252616     1158.113     71.93887      2.585    14.38     83.37847     20.31166     48.11626        26     2.978     1.930  36.95   3
         9    172.9662   1000.0337 299.9147234 +22.7313958     1396.197     72.06721      2.439    16.42     84.06782     20.31166     63.03465        44     3.519     2.128  62.94   3
        10     37.4159   1020.4126 299.8659586 +22.6965555     1125.622     70.28658      4.117     8.85     26.60357     20.31166     45.86463        16     1.918     1.139  41.90  26
        11    539.1263    991.1070 300.0315763 +22.8386718     2211.379     72.12215      2.061     5.39      4.56705     20.31166     121.6208        33     1.534     1.387 -10.20   0
        12    626.0021    986.4009 300.0601698 +22.8633690     9076.715     71.77351      2.233     5.25     4.247034     20.31166     476.0614        53     1.736     1.532  24.77   3
        13    631.2050    984.3333 300.0624634 +22.8643354     9789.374     71.97556      2.213     5.13     4.303176     20.31166     479.7537        59     1.720     1.633  47.49   3
        14    347.8100    996.8491 299.9701478 +22.7829405     484.0342     72.01223      1.758     6.01     4.451758     20.31166     43.41308         8     1.515     0.671  57.61   0
        15      4.0962   1015.8964 299.8570738 +22.6852592     2247.563     68.97837      8.372    21.98    -14.76644     20.31166     49.71053       133     5.316     2.524  71.97  27
        16    230.0819    972.7624 299.9413552 +22.7407139     7221.834     71.95721      8.189    31.36     49.63027     20.31166     155.7961       657    10.119     4.716  61.74  18
        17    726.4617    987.1743 300.0912256 +22.8937057     789.2404      71.9939      2.221     7.80     4.708158     20.31166     38.30247        17     1.566     1.087  70.77   0
        18    165.0151    987.2654 299.9164038 +22.7253491      1048.58     71.97556      6.700    12.71     72.88959     20.31166      54.4127        21     2.535     1.773 -53.15   3
        19    156.7191    965.6566 299.9208518 +22.7166640     1098.056     72.03056      6.197     9.16     54.04959     20.31166     43.25331        18     1.930     1.596 -50.42   3
        20    159.8879    976.5179 299.9183049 +22.7207290      2211.75     72.10384      6.654    17.10     64.14306     20.31166     68.67484        85     3.861     2.105  74.91   3
        21    192.0524    985.8027 299.9252870 +22.7330427     3880.704      71.9939      8.235    34.74      69.1804     20.31166     80.55426       323     7.596     4.410  88.82  19
        22    490.1532    976.6491 300.0210275 +22.8198379      382.007     72.03056      1.784     4.62     4.288717     20.31166      39.2624         5     1.362     0.445   7.74   0
        23    919.6055    970.2598 300.1569577 +22.9467291     634.3043     71.95721      1.895     6.75     4.855732     20.31166     39.92481        12     1.448     0.884  45.76   0
        24    135.9847    950.9725 299.9191803 +22.7062319     1011.207     72.01223     13.575    12.74     40.06338     20.31166     46.95113        20     2.612     1.729 -22.97   3
        25    138.5686    953.0501 299.9193080 +22.7076030     1166.708     72.03056     10.507    12.15      41.9403     20.31166     45.87208        25     3.154     1.302 -43.84   3
        26    140.1781    956.7540 299.9186040 +22.7091479     1400.935     72.03056      4.734     7.32     45.63531     20.31166     47.21996        19     1.691     0.888 -87.43   3
        27    135.0679    955.9263 299.9172843 +22.7073772     1082.589     72.06721      9.712    11.29      44.6639     20.31166       62.563        25     4.837     0.734  43.51   3
        28    524.8195    948.7076 300.0409101 +22.8222152     419.1042     71.92051      2.085     4.11     4.564397     20.31166     39.04273         5     1.153     0.665  24.35   0
        29    170.1176    987.6776 299.9178563 +22.7269984     801.3908     72.10384      4.145     9.49     73.29707     20.31166     45.69122        15     2.714     0.926 -69.23   3
        30    643.9795    953.4745 300.0764803 +22.8593078     7087.699      71.9939      2.100     4.76     4.600444     20.31166     360.9808        55     1.639     1.590 -18.28   0
        31    552.3656    944.3414 300.0509094 +22.8292213     1525.214     72.01223      1.929     4.73     4.598203     20.31166     95.10974        27     1.374     1.288 -15.85   0
        32    164.9090    995.1058 299.9138208 +22.7275651     2258.735     72.15874      5.558    14.48      80.2328     20.31166     64.29565        59     4.023     1.449  75.92   3
        33    446.4141    940.8961 300.0190363 +22.7964632     1013.078     71.90215      1.981     5.37     4.728273     20.31166     64.84635        17     1.319     0.986  -4.37   0
        34    376.8611    938.4783 299.9981720 +22.7749106     6652.973     72.06721      2.042     4.56     5.069492     20.31166     466.1354        48     1.585     1.530  -8.80   0
        35    161.6750    996.5017 299.9123613 +22.7269949     2183.033     72.12215      4.169    10.48     82.35738     20.31166     74.31985        45     2.559     1.458  67.38   3
        36    123.4595    927.3786 299.9229581 +22.6957086     1129.801     71.97556      4.795     4.32     19.27744     20.31166     33.33128         5     1.276     0.417  77.51   2
        37    166.1574   1005.8163 299.9107255 +22.7310105     939.9494     72.01223      3.563    11.70      90.2393     20.31166     41.65477        21     2.184     1.746 -17.56   3
        38    409.6243    925.6968 300.0125259 +22.7810695     514.6445     71.90215      1.919     5.49     5.048159     20.31166     37.50579         8     1.240     0.685  31.22   0
        39    287.6717   1011.7782 299.9465800 +22.7691809     1079.933     72.01223      2.149     6.17     7.286877     20.31166      67.4269        27     1.582     1.279  11.39   0
        40    923.1818    917.4651 300.1752434 +22.9326371     2232.056     71.97556      2.205     5.44     4.929296     20.31166      111.961        41     1.652     1.594 -18.55   0
        41    574.6406    914.5316 300.0675414 +22.8273439     494.8645     71.97556      2.091     5.30     4.691072     20.31166     43.21003         8     1.235     0.785 -78.98   0
        42    222.8796    999.8329 299.9303110 +22.7463155     831.3137     71.97556      1.846     5.92     79.35221     20.31166     61.44086        18     1.503     1.107 -49.76   0
        43    712.5214    906.6971 300.1130526 +22.8664235     897.9581     72.10384      2.340     8.65     4.996604     20.31166     46.89825        18     1.664     1.257  74.23   0
        44    746.8394    900.8237 300.1256600 +22.8750216     1055.049     72.03056      1.893     5.25     5.037266     20.31166     64.98212        19     1.333     1.056  15.32   0
        45    524.3144    901.3886 300.0561396 +22.8084841     451.7023     71.93887      2.091     4.84     4.763193     20.31166      26.5806         6     0.964     0.690 -16.70   0
        46    477.4498   1000.5913 300.0092847 +22.8228977     537.0135      71.9939      2.307     3.90     4.061157     20.31166     24.68041         5     1.048     0.415 -15.88   0
        47    769.1322    894.2751 300.1347392 +22.8798216     11598.58     72.06721      1.986     4.68     5.065395     20.31166     700.7556        62     1.623     1.515  -4.08   0
        48    200.3121    896.0804 299.9570305 +22.7097916     925.3348     72.12215      5.328     6.46     11.31295     20.31166     37.37311        12     1.898     0.617 -57.88   0
        49    815.0894    894.9089 300.1488629 +22.8937742     548.3861     72.15874      2.148     6.21     5.037064     20.31166     45.60249        10     1.165     0.930  53.30   0
        50    959.3182    894.3467 300.1940357 +22.9368210     519.3805     72.03056      2.197     5.51     4.989813     20.31166     38.92889         8     1.224     0.844  64.18   0
        51     68.3008    947.7222 299.8991972 +22.6849888     5300.811     72.12215     29.516   113.83      27.0152     20.31166     1151.141      4342    21.996    16.344 -58.42  19
        52    133.5387    893.1594 299.9372171 +22.6889207     607.3362      71.9939      4.958     5.04     14.72498     20.31166     27.03609         5     1.062     0.678  23.24   1
        53    198.8549    890.3889 299.9584277 +22.7077221     842.7725      71.9939      7.919     8.56      10.7872     20.31166     38.61494        12     1.840     1.113  62.33   1
        54    901.1452    887.5022 300.1781115 +22.9174290     399.7583     72.08553      2.359     5.90     4.968372     20.31166     32.17445         6     1.319     0.742  -5.51   0
        55     80.5239    885.6017 299.9231935 +22.6708465     836.3905     71.90215      3.026     6.95     12.41238     20.31166     47.91424        13     1.564     1.042 -46.25   0
        56    475.2607    882.7446 300.0469256 +22.7884263     418.3461     72.06721      1.643     3.35     4.916945     20.31166     45.13651         7     0.981     0.628  65.71   0
        57    821.3198    882.3984 300.1548734 +22.8920481     402.1328     71.90215      1.935     3.87     5.089475     20.31166     28.57087         5     1.028     0.418  15.77   0
        58    777.7683    876.4008 300.1432433 +22.8772765     1366.114     71.95721      1.890     4.64     5.155096     20.31166     87.63555        24     1.347     1.167 -11.06   0
        59    629.9589    873.6873 300.0980554 +22.8322015     542.5031     71.97556      2.193     5.83     5.006919     20.31166     33.68219         8     1.292     0.741 -26.73   0
        60    815.6279    869.7036 300.1572258 +22.8866968     952.0297     71.92051      2.269     6.36     5.168507     20.31166     55.92197        18     1.395     1.137   1.85   0
        61    181.7973    870.8201 299.9594847 +22.6969925     412.7188     71.93887      4.049     4.88     10.09484     20.31166      24.1784         5     1.280     0.527  62.25   0
        62    863.9109    861.0963 300.1750822 +22.8986898     430.0002     72.17704      1.769     5.19     5.029333     20.31166     37.68407        11     1.282     0.933   2.11   0
        63    715.4150    860.2592 300.1290527 +22.8539570     697.8702     71.95721      1.893     6.51      5.11616     20.31166     43.43914        14     1.271     0.937 -11.43   0
        64    428.1662    856.2111 300.0408890 +22.7666914     4212.237     71.97556      1.896     4.08     5.021828     20.31166     320.0911        42     1.450     1.422  11.65   0
        65    726.6490    857.4273 300.1334751 +22.8565102     545.2881     72.01223      1.617     4.60     5.111031     20.31166      47.0243        12     1.029     0.877 -13.90   0
        66    153.6963    841.9967 299.9601157 +22.6802958     718.3068     71.90215      1.582     4.56     8.999502     20.31166     73.91993        13     1.268     0.929  -2.70   0
        67    130.5387    838.6667 299.9539979 +22.6723935     1515.878     72.03056      2.032     5.06     8.761662     20.31166     103.3409        27     1.626     1.246  36.38   0
        68   1002.4108    828.5720 300.2288675 +22.9308297     2068.558      71.9939      1.986     4.63     5.320294     20.31166      148.604        34     1.564     1.336  30.64   0
        69    956.6058    826.7424 300.2151681 +22.9165862     2124.418     71.95721      2.061     4.67     5.323874     20.31166     111.5524        35     1.537     1.426 -86.15   0
        70    661.9526    827.0842 300.1231744 +22.8284100     474.5887      71.9939      1.950     4.69     5.020072     20.31166     33.36224         7     1.371     0.454  22.69   0
        71    740.2072    820.7739 300.1496164 +22.8500471     663.3408      71.9939      1.887     4.29     5.059161     20.31166     62.53325        14     1.250     1.043  -6.07   0
        72    163.4525    820.7391 299.9700585 +22.6771255     400.1291     72.04889      1.567     2.14     7.288989     20.31166     55.85877         5     0.694     0.462  69.09   0
        73    608.1990    814.4240 300.1105401 +22.8086655     4743.311     71.93887      1.822     4.03     5.105211     20.31166     375.1195        39     1.408     1.325  14.74   0
        74     98.1329    815.6245 299.9514125 +22.6560633     412.9229     71.97556      1.882     4.12     6.938227     20.31166     48.64192         5     1.045     0.464 -35.85   0
        75    410.4374    811.5595 300.0498835 +22.7485619     510.1655     72.06721      1.571     5.97     5.090071     20.31166     53.39278         9     1.248     0.805  -2.20   0
        76    158.6018    808.0898 299.9726611 +22.6720422     1369.662     71.90215      1.957     5.04     6.303989     20.31166     94.05791        24     1.488     1.234 -24.22   0
        77    628.9889    807.3654 300.1193119 +22.8128695     711.3153     71.97556      1.640     4.19     5.063287     20.31166     64.96815        12     1.164     0.779   1.73   0
        78    177.2011    805.8571 299.9791703 +22.6769809     386.5937     71.93887      1.730     4.01     6.037667     20.31166     34.68609         6     1.516     0.303  -6.74   0
        79    545.2407    798.0223 300.0962584 +22.7850870     315.5896     72.03056      1.843     5.07     5.036139     20.31166     32.30031         7     1.037     0.702 -18.66   0
        80   1001.3693    794.7648 300.2395313 +22.9208031       1224.2     72.01223      2.188     6.34     5.514053     20.31166     77.19691        21     1.542     1.118 -29.22   0
        81    784.2849    794.3827 300.1719363 +22.8556732     4131.216     71.95721      1.799     3.87     5.312778     20.31166     319.1584        33     1.333     1.286  21.44   0
        82    193.0689    788.1423 299.9898617 +22.6766588     568.3915     72.01223      1.875     4.56     5.642192     20.31166     47.76767         9     1.199     0.690  32.37   0
        83    501.3384    787.0768 300.0861424 +22.7687856     641.6302     72.04889      1.900     5.77      5.06989     20.31166     43.25504        12     1.242     0.754   1.14   0
        84    147.6117    784.2350 299.9769960 +22.6619032     995.5558      71.9939      1.977     5.54      5.66454     20.31166     82.02185        18     1.252     1.234  27.98   0
        85    562.9084    780.3074 300.1075187 +22.7852966     474.2823     72.15874      1.657     4.77     5.128336     20.31166     46.32283         8     0.983     0.656 -11.97   0
        86    297.2136    776.5414 300.0260272 +22.7045635     54092.69     71.97556      1.867     3.87      5.55563     20.31166     4828.199       103     1.607     1.547   5.01   0
        87    968.2148    775.4211 300.2354714 +22.9053163     764.6248     71.97556      1.734     5.66     5.514053     20.31166     61.97402        21     1.358     1.285  27.23   0
        88    555.2002    775.6536 300.1066300 +22.7816503     1667.843     71.93887      1.791     3.84     5.134723     20.31166     126.8189        25     1.265     1.148  57.31   0
        89    225.9832    774.4120 300.0045603 +22.6825915     638.6409     71.93887      1.990     4.79     5.549044     20.31166      44.9764        14     1.228     0.910  40.56   0
        90    583.7922    771.7809 300.1167952 +22.7891074     898.4547     71.95721      1.832     5.30     5.175577     20.31166     80.36271        15     1.212     1.108  78.16   0
        91    594.9738    770.4906 300.1206980 +22.7920879     434.6551     71.93887      1.616     5.48     5.190868     20.31166      49.3475        12     1.130     0.848  29.86   0
        92    914.5804    767.6769 300.2212534 +22.8870291      374.032      71.9939      1.644     5.12     5.482245     20.31166     36.71626         7     1.027     0.722  67.66   0
        93    700.1903    766.8878 300.1546558 +22.8225815     514.1376     71.92051      1.802     5.76     5.007672     20.31166     38.69884         9     1.245     0.752  38.69   0
        94    738.3071    757.0046 300.1697490 +22.8311628     804.0673     71.88379      1.715     4.38     5.042641     20.31166     69.13454        15     1.126     1.035  60.86   0
        95    346.9908    753.8359 300.0488943 +22.7129734     31810.44      71.9939      1.776     3.59     5.494704     20.31166     2817.601        74     1.512     1.455  -2.28   0
        96    361.1855    754.3729 300.0531374 +22.7173833      2055.53     72.01223      1.793     3.76     5.449904     20.31166     170.6711        25     1.383     1.141  66.67   2
        97    358.6161    748.7410 300.0541677 +22.7149966     688.1152     71.95721      1.904     3.51     5.450113     20.31166     59.17576        10     1.075     0.688 -59.76   2
        98    870.2054    750.1301 300.2131128 +22.8686974     2826.846     71.95721      1.820     3.94     5.401889     20.31166     184.8801        33     1.409     1.300  15.07   0
        99    899.2801    749.4056 300.2224178 +22.8771969     423.7587     71.92051      1.955     3.46     5.457638     20.31166     29.56999         5     0.751     0.460  16.83   0
       100    627.7354    745.8703 300.1389057 +22.7948358     938.8378     72.03056      1.752     4.83     5.193115     20.31166     66.39391        16     1.212     0.986 -37.23   0
       101    464.3402    745.8009 300.0880343 +22.7458467     449.6165     71.95721      1.811     4.44      5.15357     20.31166     42.41536         9     0.931     0.852  21.52   0
       102    229.8519    745.9027 300.0150270 +22.6755723     737.6129     72.06721      1.891     4.85     5.436055     20.31166     69.79085        13     1.299     1.034 -21.09   0
       103    475.2493    740.7106 300.0930850 +22.7476553     814.4036      71.9939      1.631     4.37     5.164362     20.31166     80.14175        19     1.236     1.119 -35.76   0
       104     35.0369    741.6952 299.9558237 +22.6159319     382.0819      71.9939      1.228     4.03     5.626114     20.31166     44.61581         8     0.983     0.588 -67.98   0
       105    876.3826    737.8511 300.2190296 +22.8670195     688.2095      71.9939      2.055     6.04     5.426399     20.31166     44.66557        13     1.204     0.938  51.78   0
       106    377.5063    736.9750 300.0638699 +22.7172831     367.3684     71.93887      1.531     4.65     5.341596     20.31166      43.7154         7     0.964     0.637  28.86   0
       107    332.9499    736.3561 300.0502042 +22.7037471     411.2717     72.03056      1.878     4.39     5.449179     20.31166     36.75693         7     0.901     0.609  29.20   0
       108     63.0710    735.2902 299.9666176 +22.6225048     600.5221     72.15874      1.898     4.80      5.61903     20.31166     39.84615         8     1.104     0.591 -58.61   0
       109    421.3741    735.1537 300.0781167 +22.7299110     431.6997     72.01223      1.635     3.84     5.184354     20.31166     40.38481         5     0.887     0.477  83.57   0
       110    853.9167    732.7850 300.2136683 +22.8588354      353.206     71.95721      1.428     4.95     5.428648     20.31166      44.1144         9     1.060     0.654  24.55   0
       111    227.1276    729.9730 300.0193552 +22.6701847     575.1085      71.9939      1.861     4.40     5.396882     20.31166      52.8187        11     1.086     0.729  17.22   0
       112    550.5082    720.4847 300.1230947 +22.7644041     526.6543     72.15874      1.855     5.28     5.289758     20.31166     34.18496         9     1.068     0.736 -25.10   0
       113    520.1177    718.6852 300.1142137 +22.7547798     666.0781     72.14045      1.570     3.62     5.284866     20.31166     76.50277        11     0.996     0.855 -45.42   0
       114    429.2629    717.7860 300.0862153 +22.7272903     371.2231     71.95721      1.683     5.69     5.280894     20.31166     33.71217         8     1.062     0.858  44.23   0
       115    936.5510    715.4541 300.2450777 +22.8786019     4574.424     72.03056      1.830     3.96     5.628102     20.31166     323.0972        38     1.427     1.343  26.77   0
       116    542.0935    716.1116 300.1218945 +22.7606268     1166.249     72.15874      1.518     3.43     5.292538     20.31166     100.2501        23     1.204     1.125  32.41   0
       117    461.9881    715.8018 300.0970487 +22.7365298     425.3292     71.81029      1.842     5.11     5.292252     20.31166     28.63585         7     1.014     0.727 -83.06   0
       118    623.7695    711.2586 300.1489157 +22.7837078     160.2857     72.01223      1.298     5.44     5.245823     20.31166      36.9309         7     1.328     0.630 -61.90   0
       119    925.0013    706.7488 300.2443025 +22.8726418     1762.123     71.95721      1.863     4.31     5.661102     20.31166     106.2668        28     1.470     1.175  50.43   0
       120    287.9485    700.4719 300.0478597 +22.6799565     884.9877      71.9939      1.909     4.68     5.391302     20.31166     75.60107        16     1.249     0.917   3.80   0
       121    153.7793    701.4484 300.0058110 +22.6400042      243.685     72.01223      1.249     3.48     5.462287     20.31166     30.27225         5     0.763     0.459 -18.25   0
       122    751.4984    698.0403 300.1930198 +22.8181769     2523.322      71.9939      1.754     3.68     5.285069     20.31166     190.8808        30     1.414     1.164   1.13   0
       123    956.1049    697.0457 300.2571599 +22.8791665     1689.698     72.01223      1.803     3.99     5.721415     20.31166     127.5831        25     1.428     1.119  43.76   0
       124    833.5891    683.8805 300.2232172 +22.8386959     601.2416     71.97556      1.778     6.51     5.723637     20.31166     42.26313        17     1.254     1.039  60.78   0
       125    136.4949    684.4947 300.0059438 +22.6299565     534.5432     72.15874      1.775     4.51     5.665921     20.31166     54.21083         8     1.293     0.499   1.14   0
       126    869.8552    674.9695 300.2374233 +22.8469959     148895.9     72.01223      1.751     3.59     5.680007     20.31166     10781.47       169     1.613     1.568 -26.28   0
       127    632.8002    679.1645 300.1621558 +22.7771961     427.1103     71.95721      1.700     4.89     5.258963     20.31166     36.06344         6     1.069     0.634  12.47   0
       128   1016.5906    677.0207 300.2825419 +22.8915196     1094.052     71.97556      1.727     4.56     5.825095     20.31166     79.73096        20     1.243     1.137 -51.22  16
       129    722.1113    675.4112 300.1912099 +22.8028734      839.644     71.93887      1.692     3.17     5.232069     20.31166     84.54254        16     1.052     1.003 -48.93   0
       130    903.1812    668.1337 300.2500399 +22.8550107     378.4616     71.97556      1.630     6.01     5.778185     20.31166     43.17929         9     1.096     0.927 -26.35   0
       131    556.0685    663.6993 300.1432737 +22.7497641     1724.715     72.08553      1.649     3.28     5.396274     20.31166     174.3312        22     1.174     1.054 -13.68   0
       132    737.3672    661.0865 300.2006188 +22.8033279     9469.142     71.95721      1.638     3.27     5.276761     20.31166     800.9586        43     1.322     1.300  55.76   0
       133    238.7448    655.8295 300.0470533 +22.6523924     5122.978      71.9939      1.783     3.65     5.388691     20.31166     422.4706        40     1.424     1.315  26.59   0
       134    320.8839    653.9480 300.0732195 +22.6764778     1265.791     72.03056      1.816     4.19      5.40788     20.31166     94.22592        23     1.322     1.144  53.24   0
       135    197.3009    651.8056 300.0354696 +22.6388113     422.1012     71.88379      1.604     3.17     5.405486     20.31166     47.06479         5     0.743     0.440 -77.46   0
       136    686.2519    649.9399 300.1883062 +22.7848146     1046.445     72.04889      0.532     0.80     5.312377     20.31166      680.618         5     0.465     0.327 -30.18   0
       137    529.2030    649.7380 300.1394405 +22.7377047     650.2632      71.9939      1.491     4.86     5.608242     20.31166     74.41008        10     1.067     0.752  15.33   0
       138    520.7339    641.7405 300.1394002 +22.7328704     3343.063     72.03056      1.621     3.33     5.705571     20.31166     314.0587        31     1.229     1.195   6.23   0
       139    511.1244    635.5218 300.1384271 +22.7282051     1435.048     72.10384      1.566     3.20     5.779871     20.31166     141.9556        20     1.148     1.047 -56.07   0
       140    706.2125    634.8174 300.1994395 +22.7864493     114.0965     71.95721      1.267     3.71     5.360946     20.31166     32.15073         5     0.901     0.440 -44.16   0
       141    904.4464    633.9950 300.2615235 +22.8455780     531.8729     71.97556      1.806     3.69     5.791352     20.31166     45.87846        10     1.022     0.660 -24.26   0
       142    174.4696    631.7069 300.0348966 +22.6261979     614.9427     72.12215      1.670     5.05      5.41366     20.31166     59.37475        11     1.053     0.791 -34.44   0
       143    188.7569    629.8106 300.0399556 +22.6299377     841.2056      71.9939      2.287     4.80     5.408329     20.31166     55.17234        13     1.220     0.939 -67.22   0
       144    958.3801    627.1897 300.2805617 +22.8597691     552.7499     71.97556      1.676     4.68     5.828893     20.31166     49.98014         9     1.059     0.643 -19.27   0
       145    214.6160    626.9111 300.0489398 +22.6368589     537.8375     71.92051      1.575     3.25     5.399089     20.31166     65.62258         9     0.986     0.907 -12.08   0
       146    534.9673    625.7567 300.1490245 +22.7325450     430.9257     72.03056      1.417     3.39     5.851685     20.31166     45.84829         7     0.868     0.690   3.20   0
       147    435.8435    625.2763 300.1183131 +22.7027037     1794.403     71.97556      1.644     2.99     5.841144     20.31166     167.1799        24     1.190     1.079   8.00   0
       148   1011.9257    623.2524 300.2985512 +22.8746663     686.2418     72.01223      1.731     5.96     5.827419     20.31166     52.75827        16     1.464     1.059  37.86   0
       149     89.6499    619.8962 300.0123599 +22.5973742     19813.14     72.06721      1.885     3.81     6.127717     20.31166     1571.168        73     1.606     1.544  18.37   0
       150     11.0816    622.0168 299.9872516 +22.5744188      677.994     71.97556      2.023     5.30     6.261609     20.31166     60.37981        14     1.381     0.968 -18.28   0
       151    520.8464    620.5399 300.1463206 +22.7268158     1020.857     72.03056      1.627     3.53     5.914307     20.31166     92.48778        15     1.064     0.905 -13.37   0
       152    555.7961    619.5172 300.1575387 +22.7369938     400.4594     71.92051      1.445     5.28     5.825211     20.31166     59.26697         8     1.104     0.714  25.59   0
       153    938.9131    607.2242 300.2809716 +22.8482022     1012.542     71.95721      1.597     3.38     5.823548     20.31166     91.84589        16     1.040     0.999   6.34   0
       154    604.1533    608.1677 300.1762893 +22.7482216       283.88     72.03056      1.242     4.00     5.504408     20.31166     34.00098         6     0.922     0.583 -20.76   0
       155    360.2069    607.4072 300.1005716 +22.6749047     180.8409     71.84705      1.316     3.47     5.506852     20.31166     27.83644         5     0.785     0.442  19.28   0
       156    805.6866    605.0568 300.2401181 +22.8076898     481.9165     72.08553      1.676     5.50     5.862503     20.31166     39.94057        11     1.219     0.761 -54.53   0
       157     35.9316    604.0908 300.0007952 +22.5767295       1539.6     72.12215      2.044     4.48     6.237319     20.31166     95.67747        28     1.424     1.323  90.00   0
       158    102.4707    604.4235 300.0213698 +22.5967795     393.5676     72.01223      1.803     3.07     6.057846     20.31166     47.23156         5     0.897     0.490 -82.62   0
       159    484.3796    601.3842 300.1411846 +22.7103878     422.0467     71.97556      1.276     3.26       6.0722     20.31166     57.56956         9     0.961     0.641   3.73   0
       160    878.6536    600.1849 300.2644578 +22.8281379     904.9278     72.01223      2.540     4.03      5.77988     20.31166     64.29916        14     1.228     0.824 -13.47   2
       161    623.4865    598.0080 300.1856123 +22.7510947     260.5266     71.90215      1.367     4.25     5.576593     20.31166     31.18464         5     0.780     0.658   1.34   0
       162    440.7364    593.5231 300.1301479 +22.6950525     678.5055     72.06721      1.456     3.22     5.998891     20.31166     65.55827        11     1.096     0.678   7.61   0
       163    588.5698    592.2080 300.1766168 +22.7389688     477.0872      71.9939      1.453     5.50     5.818542     20.31166     55.35624         9     1.118     0.762  37.95   0
       164    635.9930    590.7660 300.1918611 +22.7527607     661.5019      71.9939      1.955     4.83     5.625646     20.31166      60.3229        11     1.109     0.781  75.88   0
       165    606.6962    590.0191 300.1829750 +22.7437701     569.4326     71.90215      1.386     2.54      5.72447     20.31166     86.09339        10     0.867     0.768 -73.01   0
       166    484.8988    589.1845 300.1453077 +22.7070399     960.9343     71.90215      1.753     3.71     6.130123     20.31166     88.19853        17     1.101     1.044  17.80   0
       167    918.8873    585.0334 300.2819298 +22.8358282     3315.207     71.95721      1.700     3.55     5.826653     20.31166     259.5665        30     1.302     1.247 -80.26   0
       168    450.5528    584.7223 300.1360619 +22.6954669      1709.12      71.9939      1.570     3.30     6.057263     20.31166     176.7361        22     1.163     1.100  39.12   0
       169   1016.7152    583.5557 300.3129379 +22.8646870     723.5051     71.97556      1.756     4.52      5.84571     20.31166     66.69717        12     1.427     0.750  49.03  16
       170    816.1165    582.5242 300.2506877 +22.8043375     296.1443     72.08553      1.577     4.14     5.824281     20.31166     44.43284         6     1.007     0.485  -7.63   0
       171     12.5003    578.0212 300.0019777 +22.5622231     4911.385     71.93887      1.958     3.92     6.414449     20.31166      374.962        44     1.532     1.484   1.75   0
       172    957.7632    574.7656 300.2973941 +22.8445142     212.0645     72.06721      1.428     4.30     5.846543     20.31166     26.29263         5     0.841     0.627  44.00   0
       173    479.9586    575.5518 300.1481959 +22.7016446      343.761     72.03056      1.583     3.69     6.189405     20.31166     35.98305         6     0.789     0.497  -1.95   0
       174    314.0209    571.2932 300.0979247 +22.6506937     9180.662     71.92051      1.617     3.19     5.572117     20.31166     891.0178        49     1.384     1.312  28.53   0
       175    436.4590    568.3984 300.1369741 +22.6865560     9051.568     71.95721      1.591     2.98      6.05968     20.31166     1011.309        46     1.326     1.257  66.79   0
       176    419.0092    566.0113 300.1323165 +22.6806416      801.987     71.88379      0.427     2.28     5.998988     20.31166      628.549         5     0.401     0.394 -88.97   0
       177    683.7037    564.9941 300.2150980 +22.7596470     220.3402     71.90215      1.025     3.91     5.645627     20.31166     35.28329         5     0.859     0.511 -42.38   0
       178     80.5160    564.4623 300.0275194 +22.5787297     356.4916     72.08553      1.966     5.42     6.184291     20.31166     39.02303         6     1.343     0.618 -34.67   0
       179    848.2194    562.7008 300.2671368 +22.8082521     1868.472     71.92051      1.632     3.15      5.78869     20.31166     186.6095        25     1.237     1.126  26.53   0
       180    932.8831    560.1127 300.2943886 +22.8328541     12701.33     72.10384      1.673     3.35     5.852608     20.31166     1051.968        54     1.425     1.357  79.80   0
       181    497.0626    558.0671 300.1591992 +22.7017478     11738.34     72.04889      1.527     3.05     6.279757     20.31166     1037.708        45     1.296     1.238  82.70   0
       182    666.2555    553.9754 300.2132377 +22.7512553     615.9573     72.01223      1.689     3.35     5.752688     20.31166     63.01806         9     0.899     0.727 -71.24   0
       183    224.4107    553.4552 300.0758373 +22.6187126     1607.178      71.9939      2.000     3.57     5.668823     20.31166     139.9482        22     1.203     1.132  -6.91   0
       184    382.2732    552.5412 300.1252542 +22.6657651     284.1469     72.03056      1.724     4.40     5.827432     20.31166     36.60323         5     1.110     0.496   2.75   0
       185    470.9547    551.0819 300.1533369 +22.6919193     561.3448     71.97556      2.036     5.17     6.267908     20.31166     50.39375         9     1.086     0.697  25.16   0
       186    428.7013    546.2367 300.1417540 +22.6778673     4410.872      71.9939      1.571     3.02     6.088962     20.31166     416.2351        33     1.249     1.209 -28.22   0
       187    771.6388    546.5226 300.2485080 +22.7806729     881.8631     71.97556      1.605     3.74     5.761589     20.31166     88.23338        15     1.146     0.919 -76.59   0
       188    407.0753    544.5121 300.1355814 +22.6708919     1288.031     72.12215      1.605     3.03     5.981694     20.31166     148.7091        19     1.127     1.019 -63.08   0
       189    161.1142    544.0523 300.0592041 +22.5970384      777.535     72.01223      1.700     4.05     6.106169     20.31166     71.16448        16     1.237     0.892  14.31   0
       190    848.5583    542.0528 300.2739465 +22.8024187     1595.664      71.9939      1.660     3.70     5.786326     20.31166     123.6988        25     1.274     1.159 -29.33   0
       191     95.5639    541.7809 300.0395606 +22.5767333     210.5565     72.01223      1.389     3.50     6.122126     20.31166     36.91499         5     0.745     0.474  75.20   0
       192    948.6068    541.5706 300.3053151 +22.8322300     338.3137      71.9939      1.915     4.08     5.867948     20.31166     30.56898         5     0.962     0.494   1.89   0
       193    545.3887    533.8116 300.1821253 +22.7092587     206459.6     71.88379      1.539     2.96     6.339579     20.31166     22153.05       205     1.571     1.480 -15.11   0
       194    368.7337    540.0276 300.1251025 +22.6581145     449.1781     71.97556      1.530     3.62     5.785085     20.31166     46.56441         8     0.956     0.638  -9.45   0
       195    729.1027    539.0988 300.2376568 +22.7658022     754.4728     72.17704      1.347     3.22     5.742672     20.31166     88.27181        13     1.034     0.828  14.92   0
       196    933.2164    536.1322 300.3022786 +22.8260597     305.5651      71.9939      1.557     3.39     5.863198     20.31166     36.09948         5     0.989     0.337 -45.17   0
       197    231.5347    533.6328 300.0844883 +22.6151581     3493.615      71.9939      1.685     2.97     5.698826     20.31166     416.0872        36     1.311     1.282 -49.13   0
       198    797.5522    530.0808 300.2619262 +22.7837065     621.3152     72.01223      1.788     3.91      5.77336     20.31166     57.93385         8     0.927     0.707 -61.63   0
       199    576.4076    520.2574 300.1961882 +22.7146568     365.5849     71.97556      1.610     5.90     6.364784     20.31166     34.14658         8     1.231     0.796  77.01   0
       200    435.9754    514.1050 300.1544496 +22.6708191     2929.863     71.92051      1.631     3.01     6.122847     20.31166     245.2037        28     1.205     1.153 -75.59   2
       201    280.4609    516.3898 300.1053063 +22.6248728     420.2547     71.93887      1.423     4.04     5.680504     20.31166     56.54828         8     0.972     0.743  14.14   0
       202    885.9303    514.8500 300.2944352 +22.8057869     309.0306      71.9939      1.562     4.74     5.811199     20.31166     36.21195         5     1.015     0.628  33.65   0
       203    592.4312    511.6288 300.2039813 +22.7169774      330.727      71.9939      1.833     3.91     6.391624     20.31166     40.85102         5     1.079     0.630 -54.10   0
       204    847.2476    511.3881 300.2834929 +22.7932118     296.1234     72.01223      1.314     3.48      5.77942     20.31166     37.40685         5     0.771     0.454  16.56   0
       205    666.5089    510.5669 300.2274090 +22.7388586     293.4471     71.95721      1.534     4.26     6.043122     20.31166     35.60476         5     1.043     0.495   0.90   0
       206    864.3450    505.6977 300.2906730 +22.7966942     167.0282     72.08553      1.467     3.78     5.786437     20.31166     38.94269         5     1.025     0.399 -13.89   0
       207    752.9984    503.3299 300.2567183 +22.7626780     401.0205     71.92051      1.280     3.84     5.741072     20.31166     45.42425         5     0.900     0.469  -2.29   0
       208    833.1406    500.4396 300.2826471 +22.7858414     1827.485      71.9939      1.666     3.25     5.769282     20.31166     171.9732        22     1.183     1.120 -46.88   0
       209    704.1863    498.0003 300.2432315 +22.7465304      2711.79     71.82867      1.545     3.18     5.927731     20.31166     231.3522        28     1.205     1.149 -87.54   0
       210     63.7929    497.8898 300.0439311 +22.5546118     274.5416     71.90215      1.674     5.98     6.386647     20.31166     32.75075         6     1.072     0.938  76.63   0
       211    948.6669    495.6310 300.3202477 +22.8190396     496.2195      71.9939      1.664     3.74     5.901186     20.31166       44.018         8     0.907     0.671 -13.10   3
       212    947.3961    491.5616 300.3211722 +22.8174892     867.1176     72.03056      1.836     3.91     5.899762     20.31166     69.81388        14     1.048     0.925 -88.81   3
       213    609.1672    494.8109 300.2146547 +22.7171581     348.8171     71.97556      1.268     3.17     6.448658     20.31166     50.36839         7     0.968     0.511  21.35   0
       214    491.6037    493.9206 300.1783229 +22.6816877     675.9711     71.90215      1.519     3.27     6.328934     20.31166     82.42166        12     0.981     0.850  -4.86   0
       215    961.7359    492.3221 300.3254000 +22.8219996     1166.581     72.08553      1.621     3.44     5.932124     20.31166     115.0295        20     1.202     1.049  -9.24   0
       216    833.3418    490.4577 300.2859500 +22.7830322     2372.826     72.06721      1.905     4.15     5.765364     20.31166     190.1984        33     1.722     1.138  67.73   0
       217    586.6808    488.6864 300.2096368 +22.7086636     525.0973     72.14045      1.187     2.84     6.415405     20.31166     67.19122        11     0.926     0.767 -30.47   3
       218    586.4600    485.0256 300.2107562 +22.7075457     495.8175      71.9939      1.723     5.97     6.418372     20.31166     45.88991         9     1.203     0.867 -81.61   3
       219    871.4654    485.5994 300.2994181 +22.7930478     4579.851      71.9939      1.665     3.39     5.793852     20.31166      426.144        37     1.374     1.231 -88.80   0
       220    512.2812    484.8384 300.1877104 +22.6852730     180.0343     71.95721      1.372     4.30     6.326538     20.31166       29.802         5     0.849     0.620 -50.98   0
       221    532.2733    481.2084 300.1951153 +22.6902188     444.0667     71.97556      1.500     3.91     6.325474     20.31166     48.75713         6     0.769     0.571  38.30   0
       222    963.3746    476.5406 300.3310339 +22.8179520     741.7905      71.9939      1.584     4.00     5.947989     20.31166     79.20006        14     1.253     0.812   3.94   0
       223    103.4769    475.5741 300.0635099 +22.5601050     1054.945     72.01223      1.908     4.15     6.103467     20.31166     119.0856        21     1.357     1.135  88.63   0
       224    764.9956    469.8504 300.2713258 +22.7566474     477.4775     71.97556      2.050     4.06     5.745235     20.31166     44.47758         6     0.992     0.616  -6.06   0
       225    959.8658    465.3954 300.3335565 +22.8136971     331.9209      71.9939      1.452     4.87     5.940988     20.31166     47.67527         7     1.360     0.495 -22.37   0
       226    703.8160    459.8020 300.2555143 +22.7354417     547.6586     71.86542      1.600     3.73     5.927654     20.31166     54.62484        11     1.044     0.831 -82.05   0
       227    592.3916    458.1462 300.2213281 +22.7015992     233.8407      71.9939      1.305     4.30     6.412224     20.31166     43.49949         6     0.783     0.671 -17.42   0
       228    312.3489    457.9200 300.1342054 +22.6176408     271.5498      71.9939      1.624     5.32     5.696637     20.31166     37.86988         6     1.023     0.779  22.27   0
       229    644.8328    456.1875 300.2383041 +22.7167410     732.7435     71.97556      1.432     3.54     6.228383     20.31166     78.73701        11     0.998     0.708  -8.42   0
       230    959.4780    448.4148 300.3389466 +22.8086980     586.5073     72.01223      1.780     7.33     5.939399     20.31166     42.93316        14     1.544     0.975  57.82   0
       231    705.4852    448.0427 300.2598510 +22.7325617     843.8997     71.95721      1.603     4.05     5.884323     20.31166     90.53424        13     1.131     0.898  34.98   0
       232    863.1754    444.7065 300.3101045 +22.7788096      1055.48     71.93887      1.532     3.39     5.826544     20.31166     110.6386        19     1.212     0.963 -30.93   0
       233    847.2620    441.1211 300.3063044 +22.7730156     674.4295     72.06721      1.504     3.75     5.814722     20.31166     64.61458        13     1.037     0.929  20.70   0
       234    827.2339    441.8864 300.2998095 +22.7672407     301.3374     71.95721      1.394     3.74     5.793296     20.31166     35.72198         5     1.557     0.258 -22.86   0
       235    591.5040    438.6849 300.2273673 +22.6957413     3300.472     72.17704      1.553     2.76     6.391125     20.31166      402.984        32     1.238     1.160  41.17   0
       236    951.8093    438.1744 300.3398770 +22.8034582     500.0479      71.9939      1.483     3.20     5.922557     20.31166     60.22121        10     0.948     0.720 -26.01   0
       237     66.9819    430.6390 300.0667464 +22.5362671     318.1176     72.01223      1.801     5.30     6.398809     20.31166     34.45992         7     1.303     0.608 -17.04   0
       238    363.1310    426.9897 300.1600464 +22.6239741     246.2275     71.97556      1.515     4.91     5.800162     20.31166     29.29369         7     1.168     0.585 -76.25   0
       239    596.8447    426.5080 300.2329827 +22.6938416     157.0078     71.97556      1.398     4.45     6.383366     20.31166     32.09851         5     0.830     0.680  39.48   0
       240   1002.9082    418.1404 300.3623254 +22.8129871     1231.103     72.06721      1.663     3.32     6.048966     20.31166       115.26        21     1.228     1.062  38.83   0
       241    874.8371    417.8431 300.3224598 +22.7745761     461.1108     72.06721      1.459     3.87     5.860975     20.31166     54.95985        13     1.148     0.797   0.99   0
       242    961.3983    416.6954 300.3498395 +22.8001508     952.0759     71.90215      1.683     4.32     5.946015     20.31166     81.71183        17     1.179     1.055 -88.46   0
       243    702.2449    412.8390 300.2702648 +22.7214733     1168.716     72.06721      1.596     2.97      5.78286     20.31166     115.2544        17     1.040     0.985  57.19   0
       244    497.9990    413.0997 300.2065432 +22.6603855     478.6373     71.86542      1.510     4.69     6.318777     20.31166     49.57235         8     1.002     0.649  63.42   0
       245    205.9542    410.8797 300.1163695 +22.5722500     687.0834     71.97556      1.630     3.85     5.873408     20.31166     71.30326        14     1.268     0.731   6.98   0
       246     46.5650    408.2099 300.0676774 +22.5237088     264.0714      71.9939      1.602     5.40     6.588058     20.31166       42.158         6     1.360     0.826  71.11   0
       247    268.3660    406.4116 300.1372340 +22.5896700     3678.493     71.97556      1.595     2.90     5.730571     20.31166     443.0097        31     1.279     1.160  60.13   0
       248   1001.6419    405.3309 300.3660868 +22.8089240     4420.916     71.97556      1.707     3.23      5.94942     20.31166     426.1862        39     1.329     1.310 -65.93   0
       249    215.5821    401.1711 300.1225140 +22.5723477     7718.624     71.97556      1.656     3.26     5.874499     20.31166     744.9476        45     1.387     1.284  44.41   0
       250    594.3689    400.8589 300.2405339 +22.6857296     383.0507     72.01223      2.817     4.32     6.313156     20.31166      30.6686         5     1.121     0.475 -85.20   0
       251    981.5630    396.3065 300.3627484 +22.8003206     1857.259     71.95721      1.733     3.40     5.872223     20.31166     178.3663        27     1.290     1.231  65.25   0
       252    356.3904    395.4929 300.1681680 +22.6129082     4897.994     71.93887      1.568     2.90     5.798169     20.31166     564.8585        38     1.280     1.240   0.70   0
       253    600.6197    392.2762 300.2452662 +22.6851349     18664.37      71.9939      1.504     2.72     6.286866     20.31166     2166.885        55     1.312     1.241  59.51   0
       254    619.7646    391.2163 300.2515753 +22.6905630     863.5341      71.9939      2.672     6.90     6.195848     20.31166     62.66383        13     1.439     0.926 -67.88   2
       255    797.5280    383.2310 300.3095785 +22.7414854     401.2642      71.9939      1.513     2.76     5.786061     20.31166     49.55193         6     0.758     0.499 -88.85   0
       256    220.9675    379.6326 300.1311768 +22.5677770     364.7222     72.06721      1.476     3.81     5.912853     20.31166     31.60075         5     0.875     0.482  -0.06   0
       257    934.3254    375.1760 300.3548635 +22.7801088     810.9798     72.03056      1.636     4.59     5.843546     20.31166     64.46885        12     1.150     0.740  -9.84   0
       258    471.0700    374.5465 300.2106655 +22.6412433     325.7018     72.01223      1.286     3.72     6.189244     20.31166     35.64029         6     0.800     0.496   3.34   0
       259    155.3103    372.2402 300.1131548 +22.5459783     1952.183      71.9939      1.641     3.20     5.979527     20.31166     207.4805        25     1.216     1.162  22.77   0
       260    954.8891    362.4722 300.3654017 +22.7826081      1158.43     72.15874      1.497     2.76     5.761048     20.31166      151.115        19     1.139     0.994  59.63   0
       261    541.3091    361.6534 300.2367239 +22.6585741     6673.172     72.04889      1.549     2.97     6.157247     20.31166     716.4352        43     1.340     1.200  70.86   0
       262    256.0283    361.2130 300.1480589 +22.5729932     610.2737      71.9939      1.399     3.78      5.83351     20.31166     77.67844        11     1.110     0.779 -10.35   0
       263    800.9432    353.9587 300.3201402 +22.7340912     318.0219     71.97556      1.348     4.91     5.786061     20.31166     38.65356         7     1.122     0.607 -76.38   0
       264    113.8408    354.2472 300.1060969 +22.5283838     599.8483     72.04889      1.729     5.60     6.047131     20.31166     56.90451         9     1.395     0.635 -31.39   0
       265    745.5714    350.9429 300.3038531 +22.7166506     1178.332      71.9939      1.551     3.13     5.788045     20.31166     115.2098        18     1.112     0.978  45.95   0
       266    655.2462    352.3509 300.2752411 +22.6900159     399.3885     72.01223      1.132     2.77     5.820337     20.31166     54.56366         7     0.800     0.603 -28.64   0
       267    447.9629    347.9488 300.2120987 +22.6266806     6138.379     72.01223      1.462     2.95     6.009466     20.31166     656.2988        39     1.263     1.172  53.18   0
       268    840.0575    342.5512 300.3360395 +22.7425171     1554.137     72.04889      1.634     3.01      5.84443     20.31166     166.3833        25     1.252     1.194  82.26   0
       269    937.5134    343.0608 300.3662771 +22.7718260     556.5994     72.08553      1.537     4.71     5.811738     20.31166     49.36702        11     1.081     0.772 -25.32   0
       270    432.6266    336.6854 300.2109772 +22.6188512     363.4535      71.9939      1.432     3.11     5.927402     20.31166     59.65276        10     0.999     0.748  59.26   0
       271    515.3102    334.9232 300.2372967 +22.6431072     443.2769     72.14045      1.443     2.97     6.041026     20.31166     59.43562         7     0.932     0.593 -70.32   0
       272    813.0327    330.2540 300.3316000 +22.7308932     598.4387     72.01223      1.577     4.01     5.843551     20.31166     51.00464        10     0.908     0.802  62.55   0
       273    335.4369    327.1881 300.1838043 +22.5870110     2620.952     71.97556      1.585     3.06     6.038631     20.31166     275.5641        28     1.288     1.082  37.27   0
       274     53.8838    324.5052 300.0971047 +22.5018751     952.7646     72.17704      1.636     3.93     6.460465     20.31166     107.2367        19     1.277     0.998  36.64   0
       275    304.8510    316.5305 300.1777428 +22.5747871     30121.21      71.9939      1.577     2.94     5.945741     20.31166     3369.879        73     1.430     1.304  61.17   0
       276    839.7773    314.5270 300.3450424 +22.7343743     1280.203     72.03056      1.397     2.68      5.90511     20.31166     156.8864        16     1.055     0.871 -23.26   0
       277      1.9655    304.3382 300.0875090 +22.4805241     3303.872      59.5267      1.320     2.87     6.830264     20.31166     500.2816        23     1.289     0.843  86.57  24
       278    754.8223    303.2949 300.3221929 +22.7057198     495.8332     71.90215      1.461     3.70     5.843405     20.31166      57.9875         7     0.855     0.597  34.28   0
       279    179.3243    302.8716 300.1431226 +22.5332557      524.174     72.08553      1.686     3.20     5.987796     20.31166     59.24698         6     0.888     0.584  26.59   0
       280    403.4211    302.1104 300.2130988 +22.6001701     554.4693     71.92051      1.444     3.24       5.9336     20.31166     62.86926        11     0.950     0.815  16.67   0
       281    715.2102    296.4302 300.3120699 +22.6918900     1998.189      71.9939      1.591     3.02     5.785182     20.31166     194.8209        22     1.153     1.034  48.15   0
       282    930.4962    289.5397 300.3814477 +22.7543316     429.2873     72.06721      1.364     3.61     5.875156     20.31166     63.13561        10     1.029     0.818 -54.71   0
       283    784.3634    282.8160 300.3380458 +22.7086721     237.5251      71.9939      1.266     4.59      5.89122     20.31166     33.40328         6     1.040     0.576 -27.29   0
       284    377.2718    281.0110 300.2118013 +22.5862760     2261.247     72.01223      1.668     3.43     6.163279     20.31166     198.4021        27     1.408     1.054  52.66   0
       285    589.5746    280.2980 300.2781476 +22.6496438      414.214     71.95721      1.783     4.57     5.778813     20.31166     35.07669         7     0.920     0.645 -14.43   0
       286    816.1092    274.0788 300.3507792 +22.7156594     552.8246     72.14045      1.300     3.33      5.92479     20.31166     75.48418        10     0.973     0.717  37.17   0
       287    698.5135    271.6908 300.3148883 +22.6797795     502.0012     72.15874      1.718     2.82     5.768365     20.31166     62.90895         8     0.882     0.687 -36.94   0
       288    453.0152    260.4385 300.2420534 +22.6030481     1162.768     72.01223      1.394     2.65     5.817691     20.31166     142.9507        19     1.092     0.951  10.91   0
       289    835.8783    254.0782 300.3634307 +22.7158225     275.7844     72.12215      1.406     2.64     5.930385     20.31166     47.56493         6     0.886     0.437  53.48   0
       290    697.8326    252.3080 300.3209615 +22.6740026      2246.81     71.93887      1.482     2.89      5.78599     20.31166     252.9293        24     1.153     1.058  55.24   0
       291    959.1611    246.8770 300.4042278 +22.7506337     3193.172     71.97556      1.609     3.06     5.839639     20.31166      316.439        32     1.298     1.236  63.99   0
       292    506.1807    245.6423 300.2634076 +22.6147150     154.2443     72.01223      0.970     3.41     5.791421     20.31166     32.13562         5     0.794     0.425 -19.34   0
       293   1020.2514    242.0557 300.4248579 +22.7675194     467.5392      70.7546      1.532     2.69     5.754076     20.31166     51.46025         7     0.807     0.659 -15.78  16
       294    406.1535    236.1535 300.2353374 +22.5820364     644.8141     72.03056      1.542     4.17     5.896961     20.31166     71.35967         9     1.043     0.703  42.63   0
       295    111.8003    230.2204 300.1456827 +22.4921595     600.6463     71.92051      1.591     4.81     6.390962     20.31166     66.28242        13     1.069     0.943  17.16   0
       296     81.1721    230.0417 300.1362185 +22.4829307     1435.667     72.01223      1.908     4.00     6.410713     20.31166     111.8618        26     1.385     1.206 -42.59   0
       297    974.8930    227.3907 300.4154559 +22.7497330     570.3864     71.92051      1.680     4.40     5.880934     20.31166     49.20353        11     1.092     0.869  40.68   0
       298    818.7708    224.3064 300.3677487 +22.7021407     352.0934     71.92051      1.440     3.35     5.909014     20.31166     42.28511         6     0.905     0.567  62.77   0
       299    164.7763    222.5657 300.1646374 +22.5058334     508.2053     72.01223      1.662     3.56      6.37608     20.31166     55.44289        11     1.039     0.793  -2.39   0
       300    960.5331    220.5956 300.4131777 +22.7434827      388.392     71.97556      1.724     3.34      5.92483     20.31166      41.6762         5     1.006     0.321 -22.92   0
       301    841.0018    215.7135 300.3774684 +22.7063205     400.4547     71.92051      1.466     4.73     5.918825     20.31166     45.56549         9     1.011     0.776  44.23   0
       302    769.9052    213.6924 300.3559516 +22.6844666     613.6744     72.15874      1.702     5.89       5.8807     20.31166      56.4903        13     1.411     0.981 -30.52   0
       303    360.0013    213.7407 300.2282373 +22.5617750     412.8668     71.95721      1.645     4.38     5.912189     20.31166     42.12148         6     1.019     0.537 -49.68   0
       304    860.2433    206.9773 300.3863026 +22.7095641      352.919     72.04889      1.885     5.26     5.935683     20.31166     36.26029         7     1.123     0.696 -13.41   0
       305    867.6984    202.9018 300.3899494 +22.7106219     1982.398     72.19533      1.509     2.91     5.949702     20.31166      204.397        26     1.182     1.106  70.23   0
       306    286.1808    199.8443 300.2097690 +22.5356735     2134.189     72.01223      1.566     3.22     6.191319     20.31166     207.5128        25     1.233     1.102  66.23   0
       307    363.9043    195.2846 300.2354353 +22.5576404     1032.159     72.17704      1.657     3.95     5.918965     20.31166     94.59866        18     1.315     0.954  -9.47   0
       308    766.2075    194.7486 300.3609402 +22.6779117     541.2375      71.9939      1.235     2.68      5.88767     20.31166     75.79533        10     0.899     0.706  31.65   0
       309    116.3970    195.2336 300.1584539 +22.4834888     315.0674      71.9939      1.068     3.35     6.495274     20.31166      40.1313         5     0.761     0.427  67.68   0
       310    180.9592    187.2392 300.1811222 +22.5005345     737.3981     72.06721      1.680     5.21     6.389466     20.31166     71.81116        13     1.353     0.843  82.67   0
       311    718.8704    184.2720 300.3495780 +22.6607340     1648.254     72.06721      1.425     2.78      5.85038     20.31166     208.5722        23     1.182     1.088 -85.37   0
       312    783.5928    184.0765 300.3698210 +22.6800441     488.9825     71.93887      1.414     3.42     5.907534     20.31166     64.25192        13     1.044     0.879  39.52   0
       313    202.3469    180.5182 300.1899530 +22.5050107     584.5744     72.03056      1.410     3.78     6.268537     20.31166     74.27094        14     1.145     1.010   7.90   0
       314    990.6805    176.7428 300.4368036 +22.7398813     935.0842     72.03056      1.837     5.49     6.259397     20.31166     74.01067        18     1.447     0.971 -62.04   0
       315    643.3147    175.0767 300.3290087 +22.6354789     1288.344     72.10384      1.512     3.13     5.793159     20.31166     132.7371        21     1.316     0.975  87.28   0
       316    722.9489    175.7313 300.3536180 +22.6594982     670.3848     71.97556      1.464     3.54     5.860166     20.31166     73.40378        12     1.074     0.810 -30.81   0
       317    492.5479    176.3114 300.2816387 +22.5907054     272.7364     72.01223      1.374     3.49     5.784697     20.31166     37.76493         5     0.791     0.445 -70.10   0
       318    464.8835    171.2871 300.2746521 +22.5809790     350.3332     72.10384      1.343     2.25     5.809347     20.31166     50.09152         6     0.719     0.553 -56.98   0
       319    569.6495    166.7919 300.3087407 +22.6110488     1024.374      71.9939      1.609     2.62     5.791949     20.31166     122.1343        15     1.115     0.832  42.71   0
       320    838.7773    166.4118 300.3927575 +22.6914727     1364.791      71.9939      1.536     3.04     5.970006     20.31166      163.095        24     1.241     1.192  27.20   0
       321    850.9778    166.0115 300.3966927 +22.6950074     839.1289     71.97556      1.424     3.43     5.983935     20.31166     96.93604        14     1.132     0.834 -24.82   0
       322   1011.7498    156.5690 300.4499193 +22.7403765     1646.162     72.03056      1.645     3.31     6.394859     20.31166      181.203        25     1.300     1.098  45.65   0
       323    967.5512    156.1551 300.4362587 +22.7270396     1111.534     72.03056      1.502     2.94     6.397226     20.31166     114.3592        18     1.106     0.952  37.94   0
       324    201.8678    148.4277 300.2002051 +22.4956483     695.5839     71.97556      1.705     3.97     6.357905     20.31166     88.40889        16     1.290     1.101  58.42   0
       325    180.1509    149.4320 300.1931250 +22.4894319     1170.138     72.03056      0.653     0.84     6.485329     20.31166     620.3936         5     0.501     0.397  76.19   0
       326     83.7600    147.8995 300.1636490 +22.4601160     381.3391     71.97556      1.773     4.77     6.579965     20.31166     42.25724         6     1.397     0.462 -52.50   0
       327     63.5161    143.2516 300.1588621 +22.4527160     2208.141     72.03056      1.770     3.45     6.573833     20.31166     234.0216        29     1.357     1.260 -41.84   0
       328    886.4485    140.8660 300.4159083 +22.6983832     653.2189      71.9939      1.523     3.55     6.138164     20.31166     85.79922        12     1.073     0.843  56.71   0
       329     13.6575    140.3492 300.1443055 +22.4369440     390.9363     72.04889      1.364     2.31     6.555096     20.31166      52.7888         5     0.689     0.465 -78.99   0
       330    220.8322    136.7300 300.2098952 +22.4979678     5816.121      71.9939      1.639     3.21     6.321009     20.31166     571.8876        41     1.426     1.237  51.63   0
       331      5.3059    131.1673 300.1446855 +22.4318048     1211.372     71.77351      1.734     3.64     6.555431     20.31166     108.4216        21     1.273     1.130 -47.32  16
       332   1019.8607    124.6042 300.4628117 +22.7336023     18338.63     71.57088      1.770     3.49     6.470611     20.31166     1585.526        66     1.556     1.410 -80.19  24
       333    203.9049    127.3286 300.2076765 +22.4901968     565.8771     72.10384      1.585     4.46     6.449333     20.31166     67.96629        12     1.094     0.892 -37.36   0
       334    865.0097    118.4755 300.4164771 +22.6855284     3516.932     71.97556      1.624     3.52     5.978758     20.31166     411.1912        34     1.447     1.151  81.27   0
       335    968.7277    117.4834 300.4491600 +22.7162626     2739.487     72.12215      1.716     3.40     6.489549     20.31166     269.7096        32     1.375     1.205 -87.13   0
       336    414.7268    113.5738 300.2777400 +22.5493738     723.7374      71.9939      1.619     3.81     5.929339     20.31166     64.19473        13     1.121     0.928 -29.08   0
       337    167.2940    114.3888 300.2004830 +22.4755136     316.9497     71.93887      1.452     4.75     6.589964     20.31166     39.23192         8     1.078     0.651  10.22   0
       338    338.7050    105.5156 300.2566869 +22.5242968     811.8995     72.17704      2.160     3.18     6.083335     20.31166     64.07917        12     1.006     0.789 -23.64   0
       339    104.7824    102.7144 300.1848275 +22.4534351     563.9452     71.93887      1.535     4.40     6.601874     20.31166     59.74247         8     1.014     0.543 -14.31   0
       340    465.7811    100.9773 300.2977186 +22.5610364     1728.771      71.9939      1.478     2.82     5.854075     20.31166     210.8213        21     1.112     1.040  66.62   0
       341    393.5450    101.8123 300.2749569 +22.5396516     441.5788      71.9939      1.647     3.33      5.93997     20.31166     51.25954         9     1.018     0.642  19.33   0
       342    527.5217    100.2368 300.3171875 +22.5793038     451.8951     71.95721      1.663     4.26     5.829262     20.31166     44.60926         7     1.090     0.474 -41.95   0
       343    754.0299     90.5538 300.3909145 +22.6442974     323.9509     72.03056      1.208     3.42     5.908309     20.31166     51.89884         5     0.857     0.495  43.61   0
       344    637.3713     86.4007 300.3558959 +22.6081993     284.8349     71.95721      1.757     3.44     5.948368     20.31166     27.03758         5     1.035     0.331 -21.61   0
       345    900.2039     85.5744 300.4381187 +22.6865874     346.0244     71.95721      1.449     3.28     6.269452     20.31166     44.14972         5     0.729     0.485 -10.07   0
       346    239.7617     80.6018 300.2339719 +22.4875095     5938.369     72.01223      1.688     3.42     6.602247     20.31166     621.5317        45     1.472     1.306  45.88   0
       347    746.7685     81.4140 300.3916121 +22.6394958     356.9256      71.9939      1.994     3.11     5.940638     20.31166     47.55172         5     1.087     0.640 -23.56   0
       348     91.1463     80.6007 300.1877531 +22.4429981     807.0005     71.95721      2.132     5.19     6.621148     20.31166     72.22119        15     1.516     0.805 -17.93   0
       349    869.6228     78.3805 300.4309094 +22.6753712     346.9754      71.9939      1.497     4.08     5.947245     20.31166     37.38274         6     1.065     0.710   9.73   0
       350    211.9889     74.7933 300.2272143 +22.4775234     266.1079     71.86542      1.384     3.97     6.598348     20.31166     31.41957         6     0.930     0.486 -36.66   0
       351    255.2066     72.4082 300.2414317 +22.4897800     344.3748     71.84705      1.234     3.41     6.617096     20.31166     33.59423         5     0.746     0.451  19.20   0
       352      2.1646     71.5852 300.1630152 +22.4137521      195.258     60.51649      1.083     3.06     7.051185     20.31166     47.34708         5     0.719     0.478 -12.90  24
       353    486.0192     66.0755 300.3153301 +22.5570598     6260.672      71.9939      1.515     3.01     5.812304     20.31166      690.599        42     1.362     1.199  87.66   0
       354    371.3602     66.2758 300.2795655 +22.5227952     541.7342     71.95721      1.413     3.50     6.258804     20.31166     66.56561        11     1.000     0.812  59.19   0
       355    542.9974     61.2597 300.3346375 +22.5727279     377.3362     71.97556      1.424     4.24     6.193745     20.31166     40.34904         7     0.785     0.653  -3.77   0
       356    506.7188     59.7786 300.3238171 +22.5614446     273.4031     71.95721      1.411     4.84     5.954228     20.31166     29.24371         7     1.039     0.638  74.10   0
       357    679.8814     57.7395 300.3784315 +22.6126749     416.1964     72.08553      1.369     2.96     6.219866     20.31166     43.20339         7     0.711     0.678 -16.85   0
       358    738.4407     55.9710 300.3972595 +22.6296851     781.4297     72.01223      1.740     3.76     6.051974     20.31166     80.77447        12     1.087     0.843 -35.00   0
       359    830.9463     55.0882 300.4263922 +22.6571013     530.5189     72.01223      1.491     3.68     5.799356     20.31166     52.53787         7     0.963     0.532  26.64   0
       360    178.9251     50.2284 300.2248886 +22.4605631      527.751     72.01223      1.613     5.15     6.603069     20.31166      54.3041         9     1.308     0.690  20.61   0
       361    537.5632     48.9169 300.3369437 +22.5675524     347.8327     71.97556      1.283     4.87     6.269605     20.31166     47.16278         9     1.125     0.670 -62.94   0
       362    614.3895     46.2168 300.3617541 +22.5897654     6355.461     71.93887      1.573     2.93     6.363993     20.31166     676.9136        40     1.337     1.218 -89.47   0
       363    389.4711     45.1966 300.2920325 +22.5221576     1296.826     71.93887      1.448     3.04     6.478759     20.31166     142.2873        23     1.220     1.100  35.50   0
       364    655.5304     43.7653 300.3753693 +22.6013698     924.0302      71.9939      1.567     3.23      6.38556     20.31166     107.3844        18     1.183     0.955 -13.37   0
       365    725.1697     41.5363 300.3977987 +22.6215625     294.5633     72.01223      1.317     2.36     6.167776     20.31166      43.7259         5     0.702     0.469 -18.99   0
       366    671.7542     40.0974 300.3816141 +22.6051687     639.3145     72.01223      1.584     2.54     6.427221     20.31166     72.50454         7     0.830     0.522 -46.26   0
       367    941.0394     37.8346 300.4663284 +22.6850595     486.4633     72.03056      1.549     4.57     6.637608     20.31166     47.42342         7     1.104     0.665  26.76   0
       368    138.2090     37.4051 300.2163804 +22.4446848     708.1894     71.84705      1.586     3.79     6.603856     20.31166     67.89592        13     1.025     0.931  -2.30   0
       369    710.0547     35.3964 300.3950758 +22.6152745       574.03     71.95721      1.400     3.03     6.283566     20.31166      61.4517         7     0.809     0.614 -22.02   0
       370    658.6785     31.1587 300.3804346 +22.5986855     2785.914     71.97556      1.564     2.90     6.520404     20.31166     317.2766        27     1.206     1.152  83.65   0
       371    298.9607     31.9987 300.2681373 +22.4912675     373.4589     72.01223      1.416     3.67     6.695165     20.31166     48.63616         8     0.941     0.719  72.77   0
       372    673.7845     30.1839 300.3854586 +22.6029244     913.7028     71.95721      1.926     4.59     6.524936     20.31166      78.4095        15     1.410     0.885  59.46   0
       373    745.0494     22.8948 300.4100358 +22.6221461     1432.289     72.04889      1.443     2.79     6.128379     20.31166     188.6896        22     1.137     1.084  35.38   0
       374    905.3409     21.5746 300.4604573 +22.6697051     352.5201      71.9939      1.301     3.42     6.298613     20.31166     31.98761         5     1.113     0.304  21.36   0
       375    227.4002     18.5455 300.2502303 +22.4659748     366.2073     71.90215      1.576     5.41     6.610249     20.31166      116.144         7     1.771     0.466 -19.76   0
       376    682.9707     16.2845 300.3928246 +22.6016742     865.9393      71.9939      1.642     3.16     6.604046     20.31166     88.05816        13     1.079     0.819 -31.68   0
       377    211.7082    983.8649 299.9320299 +22.7383848     4729.156     72.10384      8.572    35.65     65.21608     20.31166     86.34314       395     7.606     4.638 -54.46  19
       378      4.9973   1001.1269 299.8621575 +22.6812967     1736.403     71.23808     13.182    25.76    -9.284108     20.31166     43.46009       118     7.971     2.311  68.42  27
       379     61.7637     15.1869 300.1998096 +22.4154054     582.6688     71.97556      1.669     3.49     7.173577     20.31166     57.35737        10     1.018     0.778   1.69   0
       380     36.2154   1010.5743 299.8687855 +22.6933753     1111.317     72.01223      7.505    10.31     24.17442     20.31166     39.31381        16     2.449     1.210  15.75  19
       381    120.4564   1009.2100 299.8954128 +22.7182685     521.5175     71.97556      2.180     3.53     93.61602     20.31166     39.96835         5     0.879     0.491 -87.31   3
