#   1 NUMBER                 Running object number                                     
#   2 X_IMAGE                Object position along x                                    [pixel]
#   3 Y_IMAGE                Object position along y                                    [pixel]
#   4 ALPHA_J2000            Right ascension of barycenter (J2000)                      [deg]
#   5 DELTA_J2000            Declination of barycenter (J2000)                          [deg]
#   6 FLUX_APER              Flux vector within fixed circular aperture(s)              [count]
#   7 FLUXERR_APER           RMS error vector for aperture flux(es)                     [count]
#   8 FLUX_RADIUS            Fraction-of-light radii                                    [pixel]
#   9 FWHM_IMAGE             FWHM assuming a gaussian core                              [pixel]
#  10 BACKGROUND             Background at centroid position                            [count]
#  11 THRESHOLD              Detection threshold above background                       [count]
#  12 FLUX_MAX               Peak flux above background                                 [count]
#  13 ISOAREA_IMAGE          Isophotal area above Analysis threshold                    [pixel**2]
#  14 A_IMAGE                Profile RMS along major axis                               [pixel]
#  15 B_IMAGE                Profile RMS along minor axis                               [pixel]
#  16 THETA_IMAGE            Position angle (CCW/x)                                     [deg]
#  17 FLAGS                  Extraction flags                                          
         1    409.2095     22.7403 300.3408842 +22.5071167     2323.043     72.41159      1.277     2.15      4.35005     20.43993     377.2586        21     1.187     0.828  84.13   2
         2    883.8279     11.2310 300.4924424 +22.6459035     445.9066     72.44851      1.212     2.09     4.460084     20.43993     67.56525         6     0.690     0.546 -64.03   0
         3     45.7896      4.9723 300.2336576 +22.3931195     170.1699     71.68792      1.168     4.26     5.417381     20.43993      35.5423         6     0.881     0.589  -0.78  16
         4    117.2639      2.4303 300.2566888 +22.4138115     1100.351     62.35216      1.278     2.55     5.114597     20.43993     135.6956        17     1.030     0.894  -4.74  24
         5    658.9907   1009.3761 300.0980987 +22.8652449     233.1474     72.44851      1.204     4.52     3.081904     20.43993     37.63212         6     0.838     0.692  18.68   0
         6    523.9565   1023.7440 300.0513804 +22.8288485     598.2807     55.95614      1.169     3.19     2.063375     20.43993     107.0648         9     1.129     0.425   5.46  24
         7    125.9700   1021.0000 299.9285131 +22.7085811     1140.963     68.95014      6.014     9.25     16.47857     20.43993     41.03825        12     1.878     1.272  58.64  26
         8    112.4532   1021.8707 299.9240302 +22.7047710     1096.597     65.57108      4.399     6.36     16.78874     20.43993     36.66457         9     1.618     0.702  85.62  27
         9    104.6378   1019.2722 299.9224481 +22.7016793     1278.786     72.41159     10.108    10.16     16.53655     20.43993     37.42481        20     2.713     1.060  43.64  19
        10     93.4231   1022.7272 299.9178394 +22.6993008     785.9007     61.53199      5.883     7.10     17.18692     20.43993     39.19183        12     1.465     0.963  15.89  25
        11     67.9811   1020.2586 299.9107400 +22.6909519     3350.646     71.12624     19.612    42.44     17.23669     20.43993     81.05151       453    11.369     4.397 -13.14  27
        12     41.1145    997.5359 299.9097919 +22.6763729     3579.531     72.54072     13.093    52.19     14.35956     20.43993     82.75085       876    12.547     6.024 -33.11  19
        13    894.7058    998.0986 300.1752162 +22.9327068     2142.556     72.63281      1.603     3.43     3.167759     20.43993      167.718        26     1.248     1.125  -4.43   0
        14    545.2187    995.5317 300.0671829 +22.8271387     273.9675     72.44851      1.437     3.99     2.303972     20.43993     49.36039         6     0.873     0.521  42.15   0
        15    393.0044    994.1789 300.0202593 +22.7810697     400.4124     72.41159      1.353     3.03     3.051857     20.43993     47.13643         8     0.825     0.655  48.53   0
        16    683.7870    987.0598 300.1130864 +22.8662820     747.4607     72.41159      1.729     5.79     3.217494     20.43993     58.85014        17     1.498     0.934  59.09   0
        17   1010.4127    985.8604 300.2152812 +22.9638844     322.2194     72.41159      1.434     3.10     3.635499     20.43993     46.52137         7     0.856     0.725   5.16   0
        18    495.6281    982.3358 300.0560440 +22.8084736     472.7867     72.44851      1.640     3.70     2.438939     20.43993     56.01954         9     0.996     0.771  45.30   0
        19    718.2391    981.1984 300.1257257 +22.8749348     959.9023     72.46696      1.498     3.29     3.198067     20.43993     98.97475        18     1.161     0.970 -21.57   0
        20    875.3375    978.9713 300.1754052 +22.9214098     291.4769     72.44851      1.310     4.17     3.163168     20.43993     30.23619         6     1.271     0.390  77.21   0
        21     42.1035   1017.0389 299.9037506 +22.6822567     5022.451     72.43005     18.238    55.48     17.21032     20.43993     108.6525       813    17.751     4.812 -21.99  27
        22    740.6138    974.8658 300.1347574 +22.8798291     11323.28     72.39313      1.472     2.91      3.17427     20.43993     1218.958        42     1.222     1.167 -54.24   0
        23    931.7747    974.5767 300.1944308 +22.9370702     381.4084     72.41159      1.419     5.18      3.32292     20.43993     51.33838        10     0.986     0.770  81.85   0
        24    786.0740    974.9886 300.1488815 +22.8934987     457.6846     72.46696      1.388     4.28     3.125103     20.43993     49.50679         9     0.811     0.769  28.30   0
        25     51.9817    966.7081 299.9232008 +22.6708055     802.7341     72.37466      1.888     5.94       9.8575     20.43993     67.27464        17     1.335     1.050  67.39   0
        26    791.8914    962.5654 300.1547382 +22.8916785     559.0996     72.43005      2.068     6.47     3.095371     20.43993     40.41066        11     1.449     0.810 -29.77   0
        27    445.5079    963.1906 300.0466798 +22.7879429     542.8802     72.37466      1.687     3.45     2.931169     20.43993     50.86665        10     0.979     0.797  26.48   0
        28    749.2880    956.9750 300.1432834 +22.8772974     1386.194     72.39313      1.370     3.01      3.11238     20.43993     142.5827        16     1.010     0.938 -29.63   0
        29     42.2959    957.8043 299.9230903 +22.6653457     245.0119     72.35619      1.517     5.01     8.348592     20.43993     35.64537         7     1.034     0.687  84.30   0
        30    932.0356    956.0834 300.2005320 +22.9318401     381.9406     72.43005      1.584     4.90     3.412772     20.43993     41.36382         7     1.112     0.610  74.40   0
        31    601.3185    954.1075 300.0981313 +22.8320898     584.9653     72.59599      1.647     3.10     2.724287     20.43993     50.73608         7     0.743     0.641  71.99   0
        32    787.1662    950.3730 300.1572343 +22.8867627     806.5119     72.46696      1.448     3.66     3.072757     20.43993     87.59044        11     1.091     0.695 -32.91   0
        33    380.9109   1006.4510 300.0125026 +22.7809578     404.4377     72.46696      1.481     3.93     3.031562     20.43993     46.57412        11     0.959     0.879 -39.00   0
        34    895.9032    947.3593 300.1921064 +22.9185031     488.7183     72.44851      1.579     3.86     3.286532     20.43993     50.18034        11     1.076     0.808  11.94   0
        35    835.4462    941.4905 300.1751714 +22.8986915     627.8596     72.43005      1.690     3.95     3.097764     20.43993     50.66788        13     1.233     0.752  89.07   0
        36    686.9301    940.6843 300.1291605 +22.8539203     771.4435     72.55914      1.339     2.86     3.068557     20.43993     80.98842        11     0.898     0.763  73.77   0
        37    399.5959    937.2592 300.0408360 +22.7667289     4235.828     72.41159      1.427     2.60     3.194655     20.43993     545.6613        31     1.186     1.079 -36.62   0
        38    698.1187    937.2774 300.1337543 +22.8562987      534.062     72.55914      1.302     4.16     3.055606     20.43993     63.89744        11     1.050     0.736 -82.93   0
        39    177.7352    926.1008 299.9754855 +22.6969325     346.1011     72.54072      1.439     5.23     4.983696     20.43993     46.81712        10     1.188     0.819   1.09   0
        40     61.4210    925.3319 299.9395978 +22.6617859      206.787     72.44851      1.393     4.01     4.654466     20.43993     39.19518         5     0.951     0.483  82.78   0
        41    443.3287    925.1503 300.0583823 +22.7763810     358.3402     72.44851      1.560     4.05     3.189839     20.43993     41.42049         6     0.914     0.613 -23.99   0
        42    124.8504    922.9927 299.9600637 +22.6801628     685.2818     72.44851      1.461     3.46     5.663843     20.43993     82.89924        12     0.999     0.868 -50.90   0
        43    101.9777    919.9269 299.9539551 +22.6724161     1443.745      72.4854      1.507     3.34     5.734052     20.43993     193.0382        23     1.243     1.058 -63.86   0
        44     33.3850    921.5106 299.9321334 +22.6522714      432.679     72.39313      1.699     6.34     3.627585     20.43993     43.55722        10     1.395     0.809 -45.63   0
        45    973.7473    908.7070 300.2289589 +22.9307437     2029.564     72.50385      1.530     3.10     3.695795     20.43993     187.7885        23     1.149     1.064 -41.79   0
        46    928.0156    907.1835 300.2151941 +22.9165978     2060.928     72.41159      1.466     2.86     3.493721     20.43993     211.2143        25     1.150     1.084 -42.66   0
        47    633.5615    907.6229 300.1232993 +22.8284272     519.8582     72.46696      1.839     4.84     2.992378     20.43993     53.83668        10     1.066     0.963 -74.55   0
        48    711.5945    901.0388 300.1497455 +22.8499425     600.5455     72.46696      1.402     3.04     3.001462     20.43993     75.39366        11     0.964     0.784   2.56   0
        49    134.2066    901.3579 299.9700104 +22.6767721     406.1437     72.46696      1.237     3.10     4.858295     20.43993     57.91989         7     0.769     0.623   7.71   0
        50    579.6406    895.2365 300.1105411 +22.8086992     4779.802     72.52229      1.284     2.29     3.040982     20.43993      686.405        27     1.031     1.018  82.72   0
        51     69.1434    895.9002 299.9515731 +22.6556717     441.7986     72.54072      1.437     4.04     4.283754     20.43993     43.47369         7     1.097     0.713  19.90   0
        52    381.7983    892.5221 300.0498578 +22.7485601      547.813     72.35619      1.320     3.44     3.304367     20.43993     60.46786        10     0.867     0.814  42.62   0
        53    129.7026    889.1364 299.9725875 +22.6719173     1319.985     72.55914      1.491     3.29     4.470602     20.43993     131.1833        17     1.068     1.036 -11.81   0
        54    600.1976    887.7161 300.1193884 +22.8127083     738.6191     72.37466      1.290     2.54     3.032171     20.43993     97.31094        12     0.890     0.816  80.58   0
        55    398.5301    887.3570 300.0567431 +22.7521000     386.0064     72.41159      1.471     4.35     3.342721     20.43993     45.62599         9     0.936     0.783  78.87   0
        56    149.1659    886.0520 299.9796387 +22.6768770     410.0211     72.46696      1.547     3.82     4.318129     20.43993     50.63226         7     0.885     0.622  35.64   0
        57    516.9404    878.3569 300.0965160 +22.7850475     274.9767     72.43005      1.316     4.37     3.281388     20.43993     36.40868         7     0.879     0.619 -71.58   0
        58    755.6000    874.9080 300.1719577 +22.8556403     4147.358     72.31922      1.306     2.29     2.978085     20.43993     592.7028        29     1.123     1.034 -74.86   0
        59   1010.5991    874.8275 300.2514776 +22.9320614     233.0233     72.41159      1.412     3.40     3.869258     20.43993     36.97969         5     0.742     0.451  71.07   0
        60    972.4454    874.8552 300.2395689 +22.9206341     1096.645      72.4854      1.482     3.45     3.671637     20.43993     109.9492        15     1.052     0.896  47.02   0
        61    486.4578    871.4861 300.0892647 +22.7739315     313.2831     72.55914      1.599     3.73     3.347094     20.43993     33.50142         6     0.976     0.409  71.24   0
        62    163.9520    869.3214 299.9896766 +22.6765209     526.7563     72.44851      1.466     2.93     3.768617     20.43993     65.68571        11     0.966     0.833 -78.31   0
        63    472.6425    867.3886 300.0862986 +22.7686113     530.9069     72.44851      1.211     2.47     3.374162     20.43993     88.71117        11     0.896     0.747   8.98   0
        64    118.9177    865.4387 299.9769465 +22.6618876     1062.642     72.41159      1.507     3.55     3.652623     20.43993     114.0618        16     1.143     0.916 -89.50   0
        65    534.3545    860.9449 300.1076013 +22.7852770     512.2291      72.4854      1.307     3.82     3.390658     20.43993     57.98544        10     1.017     0.741  42.16   0
        66    268.6319    857.6805 300.0260014 +22.7046066      53460.6     72.44851      1.404     2.49      3.41928     20.43993     7258.495        91     1.309     1.282 -20.71   0
        67    939.4136    855.6165 300.2355281 +22.9052097     831.9204     72.39313      1.339     3.32     3.534339     20.43993     105.9203        15     1.162     0.862 -44.07   0
        68    526.6151    856.6158 300.1066008 +22.7817135     1529.858     72.41159      1.220     2.32     3.401409     20.43993     208.6201        16     0.946     0.858 -20.48   0
        69    196.7234    855.6750 300.0043009 +22.6824472     549.3756     72.54072      1.454     4.50     3.514437     20.43993     65.80926        11     1.143     0.744   2.47   0
        70    242.4592    855.2123 300.0186677 +22.6960432     387.8226     72.43005      1.398     3.29     3.415189     20.43993     39.14962         5     0.736     0.475  74.37   0
        71    555.4030    852.4824 300.1169065 +22.7891635     917.1075     72.37466      1.166     2.11     3.369718     20.43993     125.2124        13     0.938     0.760  66.92   0
        72    566.3013    850.9979 300.1207822 +22.7920067     486.6296      72.3377      1.106     2.11      3.32227     20.43993     93.96273        10     0.821     0.697  -8.64   0
        73    671.9608    847.4891 300.1548242 +22.8226902     494.1422     72.43005      1.325     2.29     3.121895     20.43993     82.48723         7     0.782     0.661  68.53   0
        74    709.3978    837.4456 300.1697526 +22.8310347     810.0209     72.44851      1.218     2.64     3.032626     20.43993      92.4147        13     0.940     0.828  48.44   0
        75    318.3468    834.8876 300.0488744 +22.7129920     31343.86      72.4854      1.331     2.34     3.471517     20.43993     4594.396        63     1.187     1.164  74.15   0
        76    332.5831    835.4257 300.0531266 +22.7174185     2038.135     72.46696      1.334     2.37     3.473818     20.43993     273.6834        18     0.984     0.915 -15.59   0
        77    841.4982    830.5743 300.2131501 +22.8686692     2756.005     72.39313      1.249     2.36      3.54377     20.43993     334.0147        22     1.003     0.993 -55.62   0
        78    329.4330    829.4482 300.0540914 +22.7147591     675.6341      72.4854      1.333     2.60     3.485815     20.43993     96.54866        10     0.944     0.691 -15.78   0
        79    871.4300    828.8025 300.2230565 +22.8771332      206.207     72.41159      1.050     3.66     3.647481     20.43993     35.61559         5     1.017     0.379  -7.33   0
        80    599.2259    826.6955 300.1389388 +22.7949098     1028.551     72.39313      1.318     2.52     3.274922     20.43993     124.1078        14     0.953     0.922 -85.99   0
        81    435.9461    826.7127 300.0881132 +22.7459347     390.5355      72.4854      1.155     2.02     3.489473     20.43993     65.91875         7     0.673     0.643  15.67   0
        82    200.9878    826.5742 300.0150928 +22.6753851     766.6376     72.44851      1.315     3.05     3.476416     20.43993     100.9824        12     1.021     0.741  66.80   0
        83      5.7669    822.5061 299.9557652 +22.6156098     511.5293     72.39313      1.484     3.70      3.46507     20.43993     76.09018        10     1.105     0.745 -64.11  16
        84    446.3339    821.6719 300.0929850 +22.7476054     960.9262      72.4854      1.353     3.11     3.498196     20.43993     107.1623        14     1.060     0.843  38.08   0
        85    595.0621    818.9674 300.1401564 +22.7914435     272.7495     72.44851      1.104     3.34     3.324353     20.43993     41.35966         7     0.887     0.515 -43.45   0
        86    847.6476    818.0958 300.2191263 +22.8669303     462.4364      72.4854      1.271     2.48      3.68196     20.43993      72.3401         9     0.881     0.633  39.42   0
        87    348.3328    817.5399 300.0638428 +22.7170157     281.6906      72.4854      1.292     2.88     3.513502     20.43993     52.24516         6     0.845     0.471 -89.82   0
        88    304.3881    817.2435 300.0502732 +22.7037436     281.6239     72.44851      1.252     3.35     3.504902     20.43993     38.66528         5     0.717     0.475  78.10   0
        89    392.2156    816.2812 300.0779017 +22.7298221     356.5004     72.43005      1.153     2.87     3.519348     20.43993     57.39837         8     0.797     0.697 -49.78   0
        90     33.9420    815.9751 299.9666397 +22.6221983     606.1323     72.44851      1.480     4.19     3.488401     20.43993     74.22836        10     1.058     0.739  -7.40   0
        91    600.9175    815.3668 300.1431507 +22.7921666     272.1389     72.41159      1.134     2.51      3.31992     20.43993     53.38183         7     0.701     0.663  14.09   0
        92    825.2559    812.9280 300.2138283 +22.8587343     443.2238     72.46696      1.138     2.19        3.648     20.43993     72.64413         8     0.782     0.623  42.44   0
        93    198.5247    811.0146 300.0193883 +22.6701852     456.5481     72.46696      1.187     2.78     3.468117     20.43993     81.72292         9     0.858     0.719  22.13   0
        94    521.7657    801.3754 300.1230614 +22.7644116     412.2273     72.46696      1.159     2.48     3.552217     20.43993      72.1869         9     0.811     0.717 -80.43   0
        95    491.3529    799.5352 300.1141946 +22.7547609     646.3838      72.4854      1.137     2.60     3.544776     20.43993     90.17889        12     1.028     0.661  43.97   0
        96    400.5617    799.0242 300.0861112 +22.7273768     299.0311     72.46696      1.067     2.20     3.552264     20.43993     58.61623         6     0.744     0.491 -82.96   0
        97    907.8349    795.8684 300.2451194 +22.8785893     4445.883     72.44851      1.326     2.42     3.800351     20.43993     630.6359        27     1.067     1.026  82.91   0
        98    511.8145    796.3334 300.1216041 +22.7599802     3582.778     72.41159      1.069     4.66     3.556917     20.43993     2171.304        14     1.312     0.471  22.44   0
        99    432.9830    796.8073 300.0969188 +22.7364679     163.7754     72.39313      1.200     4.17     3.549449     20.43993     49.74673         6     0.856     0.654 -32.26   0
       100    594.9584    791.6411 300.1490127 +22.7835715      357.338     72.54072      1.340     3.06     3.428198     20.43993      61.7394         7     0.847     0.681  60.96   0
       101    896.3907    787.3391 300.2443259 +22.8727102     1527.873     72.39313      1.202     2.34     3.801074     20.43993     232.0463        16     0.961     0.867   0.92   0
       102    275.6617    782.2838 300.0527118 +22.6850983     313.9355     72.54072      1.262     3.02     3.536075     20.43993     38.17445         5     0.735     0.448 -74.81   0
       103    259.2956    781.4231 300.0479034 +22.6799401     823.3964     72.35619      1.280     2.50     3.511816     20.43993     119.4397        12     0.925     0.728  50.65   0
       104    722.5095    778.6502 300.1929626 +22.8180913     2599.493     72.44851      1.189     2.09     3.155644     20.43993     349.7628        20     0.981     0.916 -33.34   2
       105    927.3647    777.3448 300.2572340 +22.8791235     1627.994     72.46696      1.281     2.46     3.651316     20.43993     194.7893        17     0.968     0.929  68.69   0
       106    107.7922    765.2203 300.0060867 +22.6298223     603.4847     72.41159      1.401     3.57     3.540432     20.43993     72.33266        11     0.987     0.796  58.32   0
       107    805.1315    764.3829 300.2233467 +22.8387651     737.8774     72.44851      1.631     3.94     3.828772     20.43993     67.91319        11     1.082     0.732  33.09   0
       108    388.1122    764.6823 300.0934075 +22.7137915     212.3961     72.55914      1.323     3.39     3.549161     20.43993     34.61421         5     0.783     0.425 -16.89   0
       109    841.0588    755.5079 300.2374305 +22.8469861     147239.8     72.52229      1.227     2.12     3.891589     20.43993     22833.77       141     1.270     1.215  84.20   0
       110    603.1841    759.4420 300.1620462 +22.7767985     404.7672     72.46696      1.291     2.34     3.506418     20.43993     58.12928         6     0.746     0.496  -2.08   0
       111    988.1047    757.1888 300.2827313 +22.8915368     1115.522     72.39313      1.322     2.79     3.480284     20.43993     139.4321        16     0.979     0.903  26.04   0
       112    693.5938    755.8891 300.1913578 +22.8028885     728.2397     72.35619      1.172     1.93     3.357327     20.43993     123.9492         9     0.785     0.640 -23.00   0
       113    873.9557    748.3084 300.2500263 +22.8547787     484.0356     72.43005      1.274     2.52     3.856023     20.43993     81.03728         9     0.934     0.613 -49.55   0
       114    527.2356    744.4969 300.1432625 +22.7497330     1602.707     72.44851      1.137     1.96      3.67212     20.43993      251.802        16     0.907     0.884  46.86   0
       115    708.5216    741.6905 300.2006253 +22.8032885     9347.099     72.59599      1.118     1.94     3.393884     20.43993     1519.978        36     1.038     0.967  77.66   0
       116    190.2679    743.3348 300.0388323 +22.6483029      86.3359     72.50385      1.052     3.76     3.576307     20.43993     39.34377         5     0.903     0.449  46.24   0
       117    209.9810    736.9900 300.0470226 +22.6523998     4930.142     72.41159      1.317     2.59     3.577353     20.43993     644.4147        27     1.089     0.986  47.99   0
       118    291.9467    735.0638 300.0731309 +22.6764436     1058.638      72.4854      1.292     2.51     3.617828     20.43993     163.4461        17     1.018     0.924   7.38   0
       119    167.9706    732.6315 300.0353829 +22.6385422     400.4942     72.44851      1.109     2.69     3.598314     20.43993     66.93915         8     0.854     0.722  80.49   0
       120    500.3264    730.3345 300.1394925 +22.7375987     739.0244      72.4854      1.123     2.41     3.650357     20.43993     121.9471        13     0.935     0.778 -72.99   0
       121     48.1882    724.6057 300.0007771 +22.6002877     285.6118     72.31922      1.366     4.71     3.619225     20.43993     36.60889         5     1.045     0.609 -65.65   0
       122    491.9455    722.5875 300.1394032 +22.7328622     3190.776     72.44851      1.142     1.84     3.683247     20.43993     578.8943        22     0.957     0.867  11.37   0
       123     17.1206    720.1364 299.9925809 +22.5896802     245.1961     72.54072      1.677     4.89     3.726337     20.43993     26.84812         6     1.138     0.594  67.72   0
       124    482.2357    716.4517 300.1383766 +22.7281895     1446.348     72.46696      1.147     1.99      3.72928     20.43993      241.914        14     0.859     0.807  46.15   0
       125    410.9974    715.5739 300.1164958 +22.7065698     272.0135     72.39313      1.177     2.69     3.635524     20.43993       65.357         8     0.940     0.549  42.95   0
       126    677.4243    715.0729 300.1995943 +22.7863248     172.7938      72.4854      0.985     2.83     3.469114     20.43993     43.00573         5     0.733     0.443  67.93   0
       127    875.8700    713.8054 300.2618432 +22.8454445     404.9454     72.41159      1.116     1.91     3.943124     20.43993     88.25183         8     0.754     0.605 -44.88   0
       128    145.4236    712.8221 300.0348170 +22.6260956     676.8326     72.43005      1.384     3.81     3.592653     20.43993     98.38293        13     1.129     0.792 -37.59   0
       129    392.9668    713.4620 300.1115733 +22.7005552      245.146     72.44851      1.007     2.89     3.650715     20.43993     53.39968         5     0.838     0.489  48.20   0
       130    159.6727    711.0745 300.0398131 +22.6298710     633.4396     72.50385      1.334     2.61     3.599607     20.43993     105.4933        10     0.951     0.644  23.86   0
       131    216.5665    708.1224 300.0584556 +22.6460982     218.2848     72.43005      1.336     3.24     3.660404     20.43993     39.57728         5     0.743     0.444 -68.30   0
       132    185.5750    707.7300 300.0489504 +22.6366855     545.0452     72.44851      1.237     2.21     3.627005     20.43993     105.9036         9     0.833     0.702  75.05   0
       133    928.8768    707.3585 300.2804658 +22.8594775     597.4974     72.41159      1.308     3.05     3.647593     20.43993     71.32822         8     0.868     0.647   2.08   0
       134    406.9623    706.0956 300.1183222 +22.7026402     1734.488     72.43005      1.215     1.98     3.680114     20.43993     327.0288        18     0.930     0.886  57.71   0
       135    506.1738    706.5413 300.1490489 +22.7325253     442.0156     72.44851      1.033     1.83     3.785058     20.43993      82.2173         6     0.690     0.498  -2.74   0
       136    440.7774    705.6833 300.1289770 +22.7126650     211.8772     72.41159      1.269     4.49     3.729383     20.43993     36.60883         8     0.945     0.638 -81.33   0
       137     60.9365    701.2167 300.0123411 +22.5974098     19720.06     72.43005      1.427     2.79     3.770911     20.43993     2236.602        54     1.263     1.205  63.80   0
       138    982.8667    703.2417 300.2986412 +22.8744721     708.9802     72.43005      1.293     2.90     3.600935     20.43993     100.2454        10     0.898     0.761  86.09   0
       139    491.9260    701.2952 300.1463202 +22.7267469     971.8703     72.59599      1.113     2.11     3.838257     20.43993     173.7782        12     0.896     0.733 -89.56   0
       140    526.9466    700.6309 300.1574361 +22.7370591     382.2887     72.46696      1.234     3.60      3.78507     20.43993      55.4027         7     0.848     0.599 -25.20   0
       141    409.4735    698.0359 300.1217239 +22.7010812     338.1327     72.39313      1.425     2.55     3.715286     20.43993     53.10424         5     0.732     0.582  -4.96   0
       142    245.1897    693.2443 300.0721905 +22.6504204     285.5624     72.44851      1.255     3.78     3.732392     20.43993     42.64707         9     0.951     0.732 -83.21   0
       143    575.4348    688.9733 300.1763206 +22.7482538     252.3183     72.46696      1.026     1.73     3.718742     20.43993     56.80109         6     0.699     0.495  86.69   0
       144    909.9769    687.4400 300.2810493 +22.8480933     975.0064      72.4854      1.194     2.53      3.90383     20.43993     131.0973        14     0.943     0.818 -18.10   0
       145      6.8831    685.4459 300.0006794 +22.5766633     1403.887     72.41159      1.781     4.56     4.346076     20.43993     100.6437        23     1.406     1.034 -84.14  16
       146     73.0214    685.7405 300.0211262 +22.5966005     317.8231     72.43005      1.226     2.81     3.772673     20.43993     61.35152         7     0.734     0.709  39.75   0
       147    776.7333    685.4673 300.2401589 +22.8075952     468.4559     72.50385      1.062     2.02     3.881609     20.43993     94.80795         6     0.759     0.485  45.73   0
       148    455.3408    682.0723 300.1411848 +22.7102586     505.8793      72.4854      1.101     2.35     3.921646     20.43993     83.12518         8     0.789     0.641  26.18   0
       149    313.8787    680.2234 300.0977809 +22.6672946     177.3976     72.41159      1.423     6.31     3.799962     20.43993     28.39134         7     1.323     0.846  57.50   0
       150    247.9160    681.4788 300.0768630 +22.6478641     276.3397     72.55914      1.150     1.97     3.774657     20.43993     54.77341         6     0.717     0.500   0.19   0
       151    850.2395    680.1201 300.2648062 +22.8280899     742.4278     72.41159      1.257     2.13     4.120296     20.43993     119.5263         9     0.793     0.659 -17.12   0
       152    845.8524    679.9189 300.2635041 +22.8267173     461.5542      72.4854      1.378     2.02     4.112869     20.43993     71.14555         5     0.725     0.475 -38.60   0
       153    412.0424    674.3246 300.1302317 +22.6950490     748.7878     72.43005      1.105     2.11     3.821321     20.43993     135.9124         9     0.785     0.674  62.70   0
       154    560.0925    672.8806 300.1767760 +22.7390347     531.8167     72.59599      1.242     2.43     3.756171     20.43993     85.28861         8     0.790     0.613  46.35   0
       155    607.2646    671.4421 300.1919305 +22.7527659     552.5122     72.43005      1.123     2.09     3.717847     20.43993     87.39428         7     0.810     0.512  56.60   0
       156    577.7698    670.9272 300.1829145 +22.7437746     523.4351     72.44851      1.114     2.20     3.747873     20.43993     101.0604         9     0.849     0.626  57.02   0
       157    456.1039    670.1421 300.1453007 +22.7070643     856.7814     72.52229      1.185     2.16     3.988884     20.43993     150.9324        10     0.784     0.717  88.85   0
       158    890.0294    665.5333 300.2819524 +22.8358242     3266.248     72.44851      1.176     2.03     4.096773     20.43993     536.9421        22     0.944     0.911  39.85   0
       159    421.7373    665.6375 300.1360720 +22.6954644     1754.738     72.46696      1.139     2.09     3.849092     20.43993     300.7906        16     0.944     0.782  25.19   0
       160    988.0355    663.3351 300.3132283 +22.8645570     656.0138     72.44851      1.218     2.69      3.85265     20.43993     107.2543        11     0.900     0.735  63.99   0
       161    771.4603    661.6330 300.2462646 +22.7991710      75.8593      72.4854      0.937     3.43     3.903878     20.43993     40.41705         5     0.732     0.464 -71.33   0
       162    397.3526    660.3865 300.1301926 +22.6866440     295.6494     72.46696      1.346     2.55     3.830202     20.43993     57.86996         5     0.722     0.470  81.18   0
       163    450.8776    656.5445 300.1480947 +22.7015951     339.8642      72.4854      1.221     1.96     3.976142     20.43993     52.66232         5     0.681     0.445  25.74   0
       164    929.3384    655.3561 300.2975172 +22.8446792     404.7649     72.44851      1.142     2.09      3.98399     20.43993     59.02846         5     0.672     0.464  14.32   0
       165    285.1218    652.4297 300.0978736 +22.6506949     9013.578     72.44851      1.194     2.18     3.869431     20.43993     1288.991        38     1.080     1.032 -57.21   0
       166    542.8091    653.4790 300.1777028 +22.7282839     263.0443     72.41159      1.173     2.95     3.878614     20.43993     38.87382         5     0.734     0.463 -19.25   0
       167    407.6232    649.3809 300.1369653 +22.6865668     9022.396     72.44851      1.128     2.00      3.83397     20.43993      1346.92        37     1.067     0.969  43.44   0
       168    485.8652    646.3997 300.1622801 +22.7091766     277.0859     72.43005      1.348     4.14     4.097273     20.43993      37.1086         5     0.913     0.537  48.24   0
       169   1012.1219    644.5163 300.3268590 +22.8663662     764.9164     72.55914      1.242     2.35     3.875996     20.43993     124.8196        13     0.938     0.813  89.24   0
       170    653.8418    645.5628 300.2148479 +22.7593010     265.9937     72.54072      1.030     1.77     3.707028     20.43993      59.0066         5     0.638     0.480  17.31   0
       171    819.3184    643.2240 300.2671632 +22.8082275      1948.99     72.41159      1.171     2.01     4.098668     20.43993     301.7863        18     0.950     0.835 -88.24   0
       172    903.9197    640.5740 300.2943970 +22.8328172     12418.59     72.43005      1.190     1.98     4.114167     20.43993     2152.793        42     1.102     1.011  70.74   0
       173    468.1984    638.9882 300.1591913 +22.7017517     11504.63     72.26374      1.150     1.87     4.062217     20.43993     2234.625        36     1.000     0.934  69.88   0
       174    637.6790    634.8510 300.2132962 +22.7513806     557.7599     72.44851      1.024     1.97     3.812998     20.43993     107.5536         7     0.682     0.619 -81.94   0
       175    195.6683    634.5409 300.0758790 +22.6187256     1337.431     72.46696      1.217     2.18     3.759908     20.43993     211.7122        16     0.931     0.866  73.11   0
       176    117.8090    634.1749 300.0518021 +22.5952574      331.381     72.44851      1.426     4.86     3.592283     20.43993     32.23511         6     1.010     0.662  86.48   0
       177    830.0195    631.6749 300.2742527 +22.8081176     76.55868     72.44851      1.254     4.51     4.144794     20.43993      27.3792         6     0.877     0.660  35.48   0
       178    442.5791    631.6971 300.1535892 +22.6919764     473.8027     72.37466      1.175     2.35     3.955886     20.43993     76.63632         8     0.813     0.656 -83.20   0
       179    399.8768    627.1826 300.1417707 +22.6778742     4377.152     72.44851      1.168     1.95     3.841507     20.43993     807.3842        23     0.944     0.893  53.91   0
       180    742.6815    627.0458 300.2485408 +22.7806140     605.9255     72.43005      0.949     1.64     3.900486     20.43993     172.9442         7     0.671     0.570  86.41   0
       181    378.2696    625.4871 300.1356002 +22.6709071     1203.053     72.57757      1.187     2.11     3.842192     20.43993     169.2866        14     0.886     0.803 -57.25   0
       182    132.5323    625.0393 300.0593461 +22.5970560     827.6086     72.41159      1.285     2.06     3.596826     20.43993     126.9403        13     0.875     0.829  81.55   0
       183    819.7689    622.4518 300.2740558 +22.8023970     1518.144     72.46696      1.195     2.17     4.116084     20.43993     226.6392        19     1.051     0.869 -25.85   0
       184    516.4874    614.6937 300.1821164 +22.7092597     200826.1     72.63281      1.113     1.84     4.096088     20.43993     34848.02       191     1.288     1.272 -72.87   0
       185     66.5664    622.6976 300.0396124 +22.5765883     305.2999     72.43005      1.257     3.61     3.803995     20.43993     51.42292         6     0.975     0.385  69.63   0
       186    340.3837    621.1677 300.1252200 +22.6583042     310.9253     72.43005      0.991     1.83     3.862712     20.43993     64.91895         5     0.646     0.472  74.82   0
       187    700.1631    619.5536 300.2377301 +22.7657189     808.8786      72.4854      1.059     1.99     3.802498     20.43993     145.1332        10     0.774     0.694  82.63   0
       188    793.8909    617.9906 300.2674409 +22.7933609      286.498     72.37466      1.163     1.80     4.028676     20.43993     58.00242         5     0.588     0.546  -1.21   0
       189    202.6069    614.7252 300.0844759 +22.6151241     3442.692     72.39313      1.218     2.13     3.827897     20.43993     554.9616        23     1.005     0.976  77.65   0
       190    769.7000    615.5700 300.2606893 +22.7854161     297.3338     72.39313      0.990     3.45     3.987353     20.43993     40.51126         5     0.729     0.472  15.69   0
       191    477.3205    615.2054 300.1697601 +22.6976621     153.5666     72.37466      0.843     2.16     4.121801     20.43993     43.51274         5     0.712     0.437  73.03   0
       192    768.4592    610.5419 300.2619370 +22.7836003     512.9667     72.52229      0.963     2.20     3.994028     20.43993     89.94886         6     0.750     0.497  85.76   0
       193    382.2016    611.3961 300.1414030 +22.6680433     372.5795     72.22673      1.194     2.47     3.846989     20.43993     38.68309         5     0.689     0.475  13.69   0
       194    407.0974    594.9656 300.1544877 +22.6707952     2726.331     72.44851      1.187     1.91     3.901873     20.43993     488.1765        22     1.004     0.861  83.50   2
       195    251.4225    597.3780 300.1052884 +22.6247935      407.879     72.44851      0.969     2.31     3.945716     20.43993     64.90189         5     0.675     0.460  68.62   0
       196    856.5703    594.5137 300.2946071 +22.8053999     390.3519     72.44851      1.328     2.82     4.286671     20.43993     60.24329         6     0.866     0.431  71.12   0
       197    818.2427    591.4178 300.2836668 +22.7930264     385.7175     72.46696      1.199     2.23     4.116167     20.43993     58.41957         6     0.749     0.493   1.26   0
       198    724.5022    583.6796 300.2569716 +22.7627127     333.2363     72.57757      0.862     2.33     3.967111     20.43993     74.54872         5     0.680     0.457  66.25   0
       199    804.0164    581.0118 300.2826149 +22.7857748     1590.254     72.39313      1.133     1.91     4.054961     20.43993      337.761        13     0.864     0.736  67.20   0
       200    675.2191    578.7765 300.2432129 +22.7465340     2537.677     72.44851      1.129     1.81        3.893     20.43993     494.3553        21     0.990     0.828  68.84   0
       201     34.9640    579.3059 300.0438967 +22.5546624     236.4776     72.44851      1.096     3.33     3.982569     20.43993     42.53155         5     0.813     0.492 -60.32   0
       202    919.6097    575.9311 300.3202998 +22.8189483     587.8017     72.43005      1.290     2.83     4.155978     20.43993     75.46762         9     0.964     0.667 -18.31   2
       203    918.3103    571.9142 300.3212001 +22.8174050     755.2176      72.6144      1.333     3.07     4.162003     20.43993     95.07452        11     1.060     0.650  45.82   3
       204    884.5062    575.4822 300.3095010 +22.8083029     278.3245      72.6144      1.237     3.46     4.261403     20.43993     52.64552         6     0.906     0.414  69.66   0
       205    579.9991    575.3878 300.2146616 +22.7170186     423.7023     72.26374      1.068     1.82     4.224122     20.43993     88.17577         7     0.673     0.609   2.21   0
       206    462.5082    574.8595 300.1782624 +22.6816413     595.0845     72.52229      1.020     1.95     4.211646     20.43993     132.4391         8     0.784     0.584  36.10   0
       207    932.6387    572.7505 300.3253961 +22.8219376     1227.976     72.46696      1.090     2.00     4.123095     20.43993     240.4417        14     0.893     0.757  58.22   0
       208    804.4174    571.5145 300.2858263 +22.7831671     2153.935     72.41159      1.110     1.91     4.054961     20.43993     345.0527        16     0.929     0.779  47.47   2
       209    557.5030    569.3245 300.2096282 +22.7085340     766.4313     72.59599      1.648     3.38     4.250059     20.43993      88.5888         8     1.016     0.602 -87.38   2
       210    395.8876    567.8729 300.1598044 +22.6596588     493.6824     72.59599      1.248     4.48     3.971206     20.43993      71.2228        10     1.239     0.733  57.27   0
       211    842.4957    566.1818 300.2994274 +22.7930447     4139.883     72.35619      1.104     1.98     4.221092     20.43993     661.2279        24     0.974     0.911  84.53   0
       212    483.0575    565.6657 300.1876449 +22.6851641     230.1363      72.4854      1.115     3.87      4.32891     20.43993     44.07221         7     1.098     0.435  56.55   0
       213    580.0358    563.0198 300.2186921 +22.7134790     255.5636     72.46696      0.981     1.63     4.273551     20.43993     69.70892         5     0.581     0.529  -0.70   0
       214     74.5103    556.9099 300.0634579 +22.5601076      1140.18      72.6144      1.344     2.17      3.94928     20.43993      163.294        17     1.026     0.935  70.41   0
       215    934.3397    556.5544 300.3311898 +22.8177939     738.5972     72.46696      1.059     1.73     4.121651     20.43993     139.6848         9     0.797     0.617 -37.45   0
       216    873.9908    554.2671 300.3131170 +22.7990580     270.5177     72.44851      1.128     2.50     4.294537     20.43993     57.03225         6     0.808     0.596  40.31   0
       217    735.4180    550.2988 300.2712199 +22.7563977     346.7209     72.35619      1.101     2.12     4.034726     20.43993     52.89792         5     0.650     0.486  79.06   0
       218    340.7847    550.0147 300.1484668 +22.6380090     409.4546     72.39313      1.402     2.70     3.836425     20.43993     42.63979         5     0.777     0.485  30.94   0
       219    122.3954    548.7861 300.0809748 +22.5721458      291.156     72.30073      1.238     2.32     3.926462     20.43993     45.05428         5     0.702     0.453 -69.89   0
       220     67.0041    546.8677 300.0643888 +22.5549754     446.8563     72.43005      1.280     2.52     3.992853     20.43993     85.65825         8     0.811     0.722  -3.81   0
       221    930.5408    545.3527 300.3336451 +22.8134375     288.1134     72.50385      1.080     2.52     4.125982     20.43993     58.71475         5     0.702     0.474  72.64   0
       222    774.2288    540.6634 300.2864436 +22.7652602     161.3441     72.44851      0.993     3.88     4.043611     20.43993      36.9009         5     0.940     0.459 -47.00   0
       223    674.7173    540.9722 300.2553410 +22.7355282     480.9198     72.44851      1.137     2.20     4.044284     20.43993     90.11426         8     0.781     0.611  55.83   0
       224    563.7284    538.3614 300.2216273 +22.7015113      358.775     72.41159      1.173     3.11     4.347697     20.43993     69.38046         9     0.960     0.705 -86.98   0
       225    283.4031    539.1917 300.1341386 +22.6176936      301.777     72.26374      1.222     3.47     3.867775     20.43993     33.62455         5     0.774     0.449  71.75   0
       226    615.8503    536.7687 300.2383735 +22.7166777     804.8334      72.4854      1.107     1.95     4.314763     20.43993     167.6763        11     0.878     0.672  45.19   0
       227   1023.1001    534.3326 300.3660940 +22.8379937     884.3596     59.63416      1.138     2.38     3.992425     20.43993     144.1457        12     0.831     0.780  67.85  24
       228    930.4354    528.9717 300.3389349 +22.8086992     530.9668     72.46696      1.094     2.42     4.104561     20.43993     98.95574         9     0.845     0.648  29.78   0
       229    676.7045    528.9475 300.2598670 +22.7326706     845.3629     72.52229      1.134     1.89     4.051877     20.43993     172.6519        10     0.796     0.678  38.16   0
       230    833.9021    525.0811 300.3101039 +22.7786634     966.4036     72.57757      1.139     2.01     4.152137     20.43993     175.9493        10     0.773     0.697  -8.68   0
       231    818.2070    521.5500 300.3063593 +22.7729468     771.0111     72.44851      1.232     1.97     4.095247     20.43993     123.2367        12     0.870     0.734 -57.09   0
       232    792.6572    522.4844 300.2980930 +22.7655603     250.3675     72.54072      1.100     3.44     4.043708     20.43993     44.80422         5     0.731     0.468 -18.13   0
       233    562.5074    519.6393 300.2273300 +22.6957702     3106.421     72.44851      1.041     1.89     4.347697     20.43993     499.4076        20     0.899     0.828 -75.09   0
       234    892.6306    519.2050 300.3303208 +22.7945688     148.6885     72.43005      0.857     3.05     4.173666     20.43993     35.43141         5     0.735     0.448 -71.96   0
       235    923.0157    518.2164 300.3401159 +22.8033865     495.5854     72.41159      1.070     1.93     4.103444     20.43993     98.08526         7     0.686     0.619  63.82   0
       236     38.4498    511.3193 300.0670675 +22.5362128      393.596     72.46696      1.283     2.61     3.988863     20.43993     69.21017         6     0.857     0.477 -42.55   0
       237    402.3796    506.7292 300.1816897 +22.6440578     351.2853     72.44851      1.221     2.30     4.051569     20.43993     66.06512         6     0.799     0.466  43.47   0
       238    334.1649    507.3735 300.1602614 +22.6237876     150.0696     72.44851      1.133     2.67     3.781517     20.43993     40.70073         5     0.842     0.481   4.11   0
       239    949.4846    505.1491 300.3526153 +22.8075597      204.893     72.43005      1.353     2.91     4.053964     20.43993     44.73009         5     0.933     0.346  -5.56   0
       240    973.7953    498.5868 300.3623290 +22.8129550     1232.016     72.31922      1.159     1.93     4.027808     20.43993     214.5301        14     0.877     0.804 -50.11   0
       241    845.5231    498.3472 300.3224119 +22.7744646     416.6977      72.4854      0.934     1.81     4.130898     20.43993     93.09951         5     0.629     0.471  66.49   0
       242    932.2700    497.0646 300.3498736 +22.8000805     958.7155      72.4854      1.195     2.09      4.05735     20.43993       179.19        14     0.944     0.800 -17.26   0
       243    582.5737    495.2459 300.2415021 +22.6947811     222.3873     72.46696      1.068     3.44     4.347697     20.43993     50.69532         5     0.867     0.478 -41.76   0
       244    673.0480    493.4754 300.2702523 +22.7213879     1021.606     72.44851      1.052     1.83      4.07266     20.43993     189.7071        12     0.836     0.693  85.56   0
       245    468.8951    494.2675 300.2064345 +22.6604236     424.3322     72.59599      1.077     1.67     4.265998     20.43993     94.23702         7     0.656     0.589  27.42   0
       246    177.0476    492.0032 300.1164053 +22.5722537     601.2321     72.43005      1.226     2.66     3.917569     20.43993     106.2101        11     0.981     0.762  51.59   0
       247     16.8921    490.5269 300.0671257 +22.5237813     302.8019      72.6144      1.452     3.94     3.982435     20.43993     37.57124         5     0.894     0.496   4.40   0
       248    239.4221    487.5789 300.1372312 +22.5896935       3751.2     72.44851      1.161     2.10     3.867775     20.43993      542.085        23     1.030     0.890  83.54   0
       249    972.4714    485.8029 300.3660693 +22.8088846     4460.917     72.39313      1.127     1.90     4.018767     20.43993     762.0231        26     0.974     0.917  82.58   0
       250    186.5950    482.4145 300.1224873 +22.5723667     7651.975     72.31922      1.186     2.11     3.914633     20.43993     1087.148        34     1.081     0.971  58.90   0
       251    327.3948    476.5401 300.1681717 +22.6129089     4852.673     72.41159      1.103     2.03     3.782596     20.43993     708.2903        25     0.988     0.886  77.15   0
       252    952.4901    476.8987 300.3627302 +22.8003416     1997.751      72.6144      1.168     1.78     4.022857     20.43993     351.1509        16     0.900     0.802  25.24   0
       253    571.6012    473.1633 300.2452591 +22.6851516     18195.48     72.44851      1.081     1.85     4.353045     20.43993      3197.14        40     0.997     0.914  68.82   0
       254    588.8798    473.1541 300.2506419 +22.6903277     717.0789     72.43005      1.557     4.63     4.350588     20.43993     83.14445        13     1.368     0.669 -36.79   0
       255    414.5085    473.0269 300.1964110 +22.6380210     296.1871     72.39313      0.952     1.92     4.129556     20.43993     46.37239         6     0.713     0.500 -87.69   0
       256    198.2240    471.2151 300.1297395 +22.5726417     270.5927     72.44851      1.264     5.04     3.900737     20.43993     37.95824         8     0.920     0.781   6.98   0
       257    768.4185    463.5023 300.3097008 +22.7413550     484.1725     72.37466      1.084     2.83     4.003593     20.43993     67.32428         6     0.824     0.493  88.63   0
       258    191.4271    460.3090 300.1311690 +22.5674740     299.2411     72.41159      1.249     3.56     3.903924     20.43993     59.36472         5     0.870     0.419  43.47   0
       259    905.1772    455.4080 300.3549578 +22.7799956     822.3979     72.44851      1.260     2.02      4.01621     20.43993     135.5974        10     0.877     0.665 -50.94   0
       260    442.0712    454.3042 300.2110682 +22.6409098     291.2915     72.55914      1.526     4.10     4.194019     20.43993     61.91143         6     1.442     0.333  59.80   0
       261    614.8688    454.4671 300.2648042 +22.6927502     198.5782     72.50385      0.911     1.77     4.332913     20.43993     66.01479         5     0.674     0.454  24.57   0
       262    126.2749    453.4874 300.1131366 +22.5459741     2048.748     72.57757      1.190     2.27     3.929874     20.43993     273.9212        17     0.951     0.856   5.65   0
       263    512.2125    442.6305 300.2366886 +22.6585841     6460.551     72.44851      1.095     1.80     4.340472     20.43993     1204.118        29     0.995     0.898  74.37   0
       264    925.8428    442.8077 300.3654942 +22.7825639     1162.082     72.46696      1.108     1.96     4.005525     20.43993     247.5527        12     0.841     0.754  60.62   0
       265    227.0746    442.0348 300.1481850 +22.5729221     750.8006     72.43005      1.362     2.99     3.905694     20.43993     112.6256        11     1.004     0.715 -31.80   0
       266    772.5596    434.6241 300.3203709 +22.7342994     506.7898      72.4854      1.540     3.93     3.875271     20.43993     75.27271        11     1.097     0.937  40.84   0
       267     84.9315    435.2081 300.1062273 +22.5283281     575.5591     72.43005      1.496     2.27     3.934137     20.43993     65.81898         8     0.802     0.609  52.96   0
       268    716.3533    431.6237 300.3038328 +22.7165985      1212.05     72.46696      1.145     1.99     4.010142     20.43993     189.1509        17     1.077     0.794  85.69   0
       269    625.9994    432.7777 300.2753147 +22.6898568     486.5059     72.37466      1.071     1.88     4.328582     20.43993     125.3032        10     0.795     0.701  76.45   0
       270   1003.5449    429.5121 300.3940459 +22.8020111     274.0727      72.4854      0.955     2.61     4.005227     20.43993     63.61147         7     0.818     0.628  70.70   0
       271    418.8890    428.9056 300.2121039 +22.6266689     6104.845     72.63281      1.132     1.84     4.134199     20.43993     1255.146        26     0.942     0.906  75.66   0
       272    996.2590    427.3573 300.3924731 +22.7992101     253.2549     72.43005      1.286     3.51     4.004488     20.43993     34.99695         5     0.767     0.463  11.62   0
       273    908.0668    423.3115 300.3662836 +22.7716374     528.7876     72.55914      1.080     2.15     3.959631     20.43993     93.52561         9     0.816     0.635  60.00   0
       274    810.7268    423.2172 300.3359701 +22.7424555     1415.579     72.44851      1.165     1.84      3.82785     20.43993     282.4903        12     0.840     0.723 -70.91   0
       275    486.0144    415.4833 300.2373509 +22.6429369      427.212     72.41159      1.197     1.97     4.320446     20.43993     69.49495         8     0.741     0.636 -83.37   0
       276    389.9705    412.3134 300.2084951 +22.6132363     1329.519     72.44851      0.530     0.85     4.028876     20.43993     865.9822         6     0.463     0.300 -88.20   2
       277    387.5261    409.6229 300.2086083 +22.6117311      1203.32      72.4854      0.826     3.16     4.021749     20.43993     343.8211         6     0.637     0.456 -63.09   2
       278    783.4676    410.5494 300.3315887 +22.7306503     547.1284     72.43005      1.073     2.19     3.801632     20.43993     101.1884        10     0.868     0.690  47.23   0
       279     64.9818    410.1794 300.1081570 +22.5151638     176.3521     72.44851      1.031     3.75     3.941065     20.43993     33.12156         5     0.805     0.501  62.63   0
       280    306.3994    408.0610 300.1838820 +22.5869597     2626.599     72.41159      1.189     2.10     4.257652     20.43993     396.3353        20     0.995     0.899 -88.03   0
       281     24.9488    405.7237 300.0971685 +22.5018760     1031.788     72.44851      1.342     2.25      3.98741     20.43993      162.777        14     0.962     0.827  15.76   0
       282    654.4042    402.8648 300.2938754 +22.6897766     295.9598     72.44851      1.202     2.29      4.25999     20.43993     47.73866         5     0.706     0.446 -68.10   0
       283    275.7285    397.6354 300.1777298 +22.5747709     29414.29     72.44851      1.155     1.93     4.329354     20.43993     5336.887        60     1.158     1.007  66.81   0
       284    810.3871    394.7889 300.3450963 +22.7341854     1544.197     72.35619      1.171     2.14      3.82619     20.43993      259.619        15     0.949     0.791 -74.88   0
       285    765.9713    392.5615 300.3319779 +22.7202410     374.4587     72.46696      1.160     2.94     3.812984     20.43993     50.05549         6     0.767     0.494   4.58   0
       286    851.3178    382.6224 300.3618049 +22.7429484      403.486     72.41159      2.091     3.38     3.861836     20.43993     33.73889         4     0.711     0.466   0.51   2
       287    725.7543    383.7930 300.3222943 +22.7056743     541.7117     72.46696      1.035     1.74     3.850562     20.43993     105.7799         6     0.674     0.521  33.41   0
       288    149.7951    384.0220 300.1430027 +22.5330989     544.7175     72.41159      1.198     1.90     3.907384     20.43993     94.42928         7     0.677     0.626 -78.58   0
       289    374.2174    382.9990 300.2131132 +22.6000984     554.4999     72.35619      1.205     2.46     4.032535     20.43993     75.29427         8     0.789     0.651 -41.84   0
       290    686.1229    377.1523 300.3121043 +22.6918937     2035.479     72.44851      1.130     1.84     3.965903     20.43993     397.6542        16     0.922     0.793  89.90   0
       291    494.3642    371.9578 300.2540829 +22.6329415     333.1639     72.50385      0.973     2.00     4.294044     20.43993     71.31918         7     0.693     0.615  87.02   0
       292    901.3087    369.8121 300.3815496 +22.7542378     577.4707     72.39313      0.948     1.99     3.942692     20.43993      125.588         8     0.789     0.570  82.62   0
       293    347.9140    361.8826 300.2117873 +22.5861510     2198.226     72.57757      1.341     2.54     4.233642     20.43993     344.8413        19     1.168     0.810  71.70   0
       294    787.1207    354.5767 300.3509022 +22.7156616     716.5455     72.41159      1.097     1.72     3.853445     20.43993     135.2346         9     0.766     0.627  33.67   0
       295    686.4857    352.3379 300.3202741 +22.6848736     332.4138     72.57757      1.063     2.88     3.805812     20.43993     53.81874         6     0.846     0.471   3.15   0
       296    669.2220    352.0588 300.3149873 +22.6796215      352.362     72.44851      1.115     3.16     3.838969     20.43993     74.29807         8     0.907     0.616  63.59   0
       297    509.3365    349.1761 300.2661395 +22.6308864     224.0234     72.43005      1.032     3.12     4.295484     20.43993     41.16753         5     0.719     0.683 -13.92   0
       298    747.7092    345.3772 300.3416078 +22.7012135       264.38     72.37466      1.043     2.86     3.814521     20.43993     37.35232         5     0.726     0.447 -19.10   0
       299    423.8322    341.3904 300.2420578 +22.6030246     1207.141     72.44851      1.075     2.02     3.827652     20.43993     217.2428        14     0.943     0.751  55.71   0
       300    935.1494    337.1886 300.4026939 +22.7549937     249.9075      72.4854      1.050     2.31     4.008035     20.43993     81.45222         8     0.804     0.695 -75.25   0
       301    807.0516    334.3647 300.3636757 +22.7158228     290.9941     72.46696      1.255     3.15     3.855758     20.43993     46.83411         6     0.814     0.605  41.56   0
       302    668.6276    333.0340 300.3209785 +22.6739778      2249.98     72.46696      1.125     1.94     3.835367     20.43993     407.6405        17     0.903     0.773 -83.16   0
       303    929.8098    327.2897 300.4042425 +22.7505494     3214.228     72.39313      1.111     1.90     4.008879     20.43993     539.1678        23     0.990     0.872  67.99   0
       304    476.2780    326.6374 300.2631672 +22.6145066     237.9236     72.43005      1.332     3.78      4.25137     20.43993      45.1562         5     0.939     0.436 -46.26   0
       305    991.0682    322.0276 300.4250557 +22.7673769     320.8843     72.43005      0.986     1.77     4.021816     20.43993     91.24589         5     0.582     0.552 -86.82   0
       306    376.7253    317.0956 300.2352886 +22.5819294     641.5521     72.59599      1.272     1.72      4.17916     20.43993     128.9434        10     0.846     0.720  65.93   0
       307    999.2979    315.2260 300.4298308 +22.7678850     1546.612     72.39313      1.128     2.00     4.024951     20.43993     267.6906        15     0.897     0.765  63.09   0
       308     82.2602    311.3583 300.1456063 +22.4919945     604.4457     72.43005      1.273     3.28      3.89355     20.43993     78.19428        11     1.047     0.736  -2.42   0
       309    945.6567    307.6394 300.4155633 +22.7496450     482.4117     72.44851      1.097     2.00     4.015571     20.43993     86.71297         8     0.812     0.556 -64.97   0
       310     51.7049    311.2846 300.1361378 +22.4828092     1492.035     72.63281      1.599     2.99     3.934948     20.43993     148.8671        25     1.353     1.078  -9.33   0
       311    789.1407    304.1588 300.3678993 +22.7017780     444.1356     72.44851      1.743     4.77     3.827313     20.43993     43.95004         8     1.116     0.815 -62.04   0
       312    135.9125    303.1807 300.1649314 +22.5057377     556.2681     72.39313      1.621     3.72     3.916798     20.43993     56.12982         9     1.004     0.760  35.23   0
       313    422.0374    300.6890 300.2547113 +22.5907994     147.2033     72.43005      0.977     4.14     4.064237     20.43993      30.2891         5     1.062     0.461  65.28   0
       314    930.9812    300.3734 300.4133455 +22.7431625     219.7115     72.46696      1.061     2.32     4.013908     20.43993     64.61611         7     0.704     0.669  22.32   0
       315    811.4584    296.5419 300.3773273 +22.7062725     308.7832     72.52229      1.180     2.58     3.829836     20.43993     58.48267         6     0.802     0.497  86.96   0
       316    740.1644    294.2453 300.3558557 +22.6842610     657.2087      72.4854      1.047     1.73     3.795375     20.43993     128.9786         8     0.694     0.609 -66.26   0
       317    330.5102    294.1931 300.2283470 +22.5615009     392.3646     72.35619      1.110     2.51     4.409448     20.43993      70.2975         9     0.970     0.549  29.20   0
       318    831.1428    287.3726 300.3864390 +22.7095317     250.5206     72.44851      1.025     1.70     3.826308     20.43993     57.31504         5     0.673     0.433  24.78   0
       319     14.4796    286.7530 300.1325369 +22.4646057     151.1482     72.46696      1.069     4.25     4.071478     20.43993     36.52152         6     1.055     0.487  83.26   0
       320    838.3833    283.4015 300.3899848 +22.7105584     2196.222     72.33771      1.106     1.96     3.828716     20.43993     343.8193        18     0.957     0.805  80.54   0
       321    334.5428    276.1037 300.2354723 +22.5575160     973.5688     72.52229      1.201     2.46      4.41606     20.43993     134.6632        14     0.966     0.783 -14.78   0
       322     86.4465    276.4511 300.1582362 +22.4832333     388.7397      72.4854      1.322     2.64      4.04752     20.43993     56.49757         6     0.832     0.473  12.97   0
       323    736.7153    275.1227 300.3609877 +22.6777327     505.5256     72.55914      1.106     2.38     3.821007     20.43993     83.46795         7     0.731     0.606 -70.09   0
       324    256.9101    281.0294 300.2097318 +22.5356586     2122.587     72.41159      1.234     2.05     4.502264     20.43993     379.2371        19     1.025     0.818  58.82   0
       325    381.5851    272.1910 300.2513752 +22.5704923     362.5797     72.35619      1.171     3.42     4.302328     20.43993     43.60672         5     0.736     0.460 -72.18   0
       326    151.7156    268.3144 300.1811582 +22.5004700     655.1976     72.57757      1.176     2.61     4.123405     20.43993     111.9218        13     0.992     0.767  36.62   0
       327    269.8761    267.7494 300.2180731 +22.5357332      280.318     72.44851      1.228     3.03     4.488466     20.43993     61.41318         6     0.886     0.547  64.26   0
       328    689.4907    264.9344 300.3495819 +22.6606608     1573.329     72.57757      1.081     1.91     3.841186     20.43993     273.9771        15     0.920     0.749  77.01   0
       329      4.0926    265.9048 300.1360765 +22.4555087     194.7093     69.41394      1.134     3.96     4.506824     20.43993     38.44904         5     0.822     0.547  59.21  16
       330    754.4465    264.4437 300.3699785 +22.6799740     500.4501      72.4854      0.964     2.15      3.84826     20.43993     100.9647         8     0.760     0.645  67.90   0
       331    121.0306    264.4506 300.1728764 +22.4901602     310.3422      72.4854      1.374     2.89     4.155928     20.43993     39.37277         6     0.775     0.493  -6.75   0
       332    173.1864    261.3075 300.1901052 +22.5048966     593.9988     72.37466      1.251     2.93     4.246112     20.43993     76.57799        10     0.983     0.654 -40.82   0
       333    960.8836    257.1879 300.4366878 +22.7396985     765.7516     72.41159      1.188     2.65     4.076634     20.43993     140.5952        11     0.902     0.734  78.51   0
       334    693.4582    256.3399 300.3536071 +22.6593795     744.9619     72.52229      1.125     2.41     3.859347     20.43993     117.8547        13     1.044     0.682  64.81   0
       335    462.7429    257.1498 300.2815086 +22.5904941     323.9472     72.50385      1.049     1.91     4.342765     20.43993     68.84218         7     0.687     0.600  74.24   0
       336    613.9188    255.6034 300.3290725 +22.6353430     1247.846     72.35619      1.096     1.82     4.310086     20.43993     259.3221        14     0.931     0.729  72.30   0
       337    435.4759    252.0693 300.2746723 +22.5808642      313.325     72.52229      1.304     2.27     4.303128     20.43993     51.30687         6     0.747     0.498  86.10   0
       338    809.4396    247.0296 300.3927679 +22.6914371     1316.059     72.43005      1.100     1.96     3.880398     20.43993     248.4484        16     0.895     0.785  73.76   0
       339    540.1857    247.4717 300.3087540 +22.6109179     827.7369     72.44851      1.021     1.99     4.323326     20.43993     172.7124        11     0.859     0.651  71.04   0
       340    821.4810    246.2124 300.3967862 +22.6948077     791.8353     72.43005      1.136     2.22     3.869677     20.43993     109.0908        11     0.834     0.715 -16.70   0
       341    992.7419    243.3645 300.4511106 +22.7452600     233.7034     72.44851      1.258     3.45     4.183178     20.43993     39.68307         5     0.750     0.460 -13.87   0
       342    982.3522    237.0264 300.4499268 +22.7403275     1747.708     72.46696      1.179     1.94     4.171361     20.43993     296.6222        16     0.902     0.831 -73.66   0
       343    938.2676    236.2873 300.4364176 +22.7269189      1164.11     72.55914      1.158     2.34     4.044378     20.43993       183.43        14     0.945     0.840 -41.09   0
       344    172.2606    229.6911 300.2000767 +22.4955439     746.3293     72.54072      1.214     2.48     4.456135     20.43993      115.053        11     0.992     0.733  57.23   0
       345    841.3704    229.0850 300.4085439 +22.6958395      263.635     72.44851      1.224     3.47     3.859331     20.43993     38.33008         5     0.772     0.451  73.91   0
       346     34.1488    224.6004 300.1588146 +22.4526708     2111.501     72.41159      1.294     2.47     5.086532     20.43993     285.7916        20     1.031     0.940  55.08   0
       347    857.2464    221.2621 300.4160315 +22.6983438     856.9188     72.46696      1.152     2.01      3.88172     20.43993     128.2578        12     0.888     0.743  20.91   0
       348    191.5360    217.9418 300.2098801 +22.4979499     5623.158      72.4854      1.266     2.20     4.474863     20.43993     820.2744        28     1.093     0.942  66.75   0
       349    174.9583    208.9111 300.2076573 +22.4903877     619.4715     72.44851      1.304     2.40     4.457266     20.43993     92.12787         8     0.772     0.664  38.99   0
       350    990.3866    205.0552 300.4628075 +22.7335385     17942.73     72.44851      1.191     2.13     4.537746     20.43993     2927.044        47     1.111     1.024  68.47   0
       351    939.2596    197.9000 300.4491834 +22.7161781     2769.991     72.54072      1.178     1.95     4.306664     20.43993     517.0709        23     1.044     0.895 -83.26   0
       352    835.6266    199.2465 300.4164356 +22.6855420     3459.267      72.4854      1.095     1.94     4.143629     20.43993     547.6412        21     0.933     0.859  77.68   0
       353    384.9517    194.8011 300.2775346 +22.5492765     701.8183     72.43005      1.231     2.24     4.428327     20.43993     110.3497        10     0.835     0.711  12.96   0
       354    137.7424    195.1725 300.2005482 +22.4752867     302.9184     72.44851      1.211     2.76     4.481137     20.43993     49.62988         6     0.728     0.614  29.77   0
       355    309.0209    186.2719 300.2566834 +22.5240722     713.3292     72.46696      1.258     2.83     4.418581     20.43993     78.80117         9     0.871     0.647  57.93   0
       356     75.2441    183.5812 300.1848888 +22.4532215     776.7386     72.46696      1.430     2.71     4.738192     20.43993     80.08054        10     0.818     0.796 -63.44   0
       357    436.4845    181.8956 300.2977552 +22.5610109     1759.909     72.63281      1.163     1.96      4.44502     20.43993      286.169        17     0.970     0.761  86.20   0
       358    364.3866    182.0876 300.2752616 +22.5394626     409.8442     72.39313      1.086     2.60     4.443007     20.43993     66.38782         7     0.801     0.572  65.84   0
       359    497.8122    180.7320 300.3172188 +22.5790505     392.1508     72.44851      1.145     2.13     4.469561     20.43993     89.59145         7     0.837     0.509  61.55   0
       360    260.2070    177.6911 300.2442876 +22.5069783     140.4185     72.35619      0.991     4.00      4.38285     20.43993     42.17603         6     0.765     0.616  45.10   0
       361    180.0637    177.4539 300.2194496 +22.4828876     376.6675      72.4854      1.235     2.97     4.387568     20.43993     55.57251         6     0.774     0.497   3.47   0
       362    724.7440    171.2029 300.3909789 +22.6442808     325.9783     72.41159      1.045     1.88     4.386384     20.43993     82.91019         5     0.778     0.436  88.73   0
       363    309.2611    166.8055 300.2630731 +22.5185541     129.1939     72.41159      1.207     3.45     4.402637     20.43993     35.33842         5     0.983     0.350  42.42   0
       364    210.4759    161.8575 300.2339624 +22.4875261     6081.627      72.4854      1.257     2.05     4.334974     20.43993     886.2754        37     1.299     1.010  78.27   0
       365   1000.8661    162.3887 300.4799195 +22.7244041     3565.569     72.41159      1.221     2.07      5.31183     20.43993     615.7283        24     1.047     0.908  81.95   0
       366    716.8110    162.3441 300.3913813 +22.6393590     227.3904     72.43005      1.271     1.59     4.439084     20.43993     60.78714         5     0.648     0.449 -19.41   0
       367     61.5202    161.4225 300.1878131 +22.4427467     781.9853     72.41159      1.291     2.74     4.832994     20.43993     97.28242        14     0.986     0.854 -79.06   0
       368    839.6867    158.8445 300.4308090 +22.6751419     355.5452     72.43005      1.103     1.62     4.544945     20.43993     87.99975         5     0.669     0.431  70.41   0
       369    182.3587    155.9612 300.2271349 +22.4774052     241.6741     72.54072      0.919     2.23     4.353616     20.43993     64.45338         5     0.747     0.463  37.29   0
       370    225.8638    152.7234 300.2417091 +22.4895157     431.9984     72.52229      1.282     2.83     4.322901     20.43993     62.11211         7     0.792     0.649  77.86   0
       371    456.5653    147.0461 300.3153092 +22.5570162     6187.192     72.46696      1.158     1.99     4.508496     20.43993     984.5566        29     1.054     0.911  79.33   0
       372    341.8089    146.6622 300.2797303 +22.5225227     683.3983     72.39313      1.276     2.66     4.428553     20.43993     109.7591        11     0.930     0.753  62.30   0
       373    513.4402    141.3727 300.3348513 +22.5724241     166.4451     72.50385      1.003     2.83      4.49818     20.43993     57.07859         5     0.715     0.442  66.23   0
       374    870.3758    165.2496 300.4382981 +22.6861704      362.905     72.44851      1.150     3.79      4.50076     20.43993     68.64433         6     0.915     0.452  54.72   0
       375    707.7736    140.5889 300.3956229 +22.6303996     391.3141     72.44851      1.199     2.73     4.442163     20.43993     43.16402         5     0.710     0.462  18.21   0
       376    650.3611    138.1965 300.3785148 +22.6125200      251.918      72.4854      0.955     2.67     4.372451     20.43993     62.21597         5     0.727     0.445  71.58   0
       377    709.2506    136.5619 300.3973893 +22.6296843      970.944     72.44851      1.266     2.01     4.450226     20.43993     141.2662        13     0.945     0.714  49.70   0
       378    801.4911    135.2841 300.4265465 +22.6569337     508.7794      72.6144      1.011     2.51     4.548335     20.43993     86.70831         7     0.862     0.470  76.46   0
       379    869.8336    132.7946 300.4486574 +22.6766760      267.075     72.43005      1.214     3.29     4.546107     20.43993      38.8388         6     0.757     0.557  46.03   0
       380    149.4597    130.9419 300.2250247 +22.4603605      478.238     72.52229      1.020     2.29     4.458685     20.43993     76.39978         7     0.834     0.578 -63.70   0
       381    507.9056    129.3352 300.3370329 +22.5673076     489.7568     72.55914      1.110     1.64     4.516868     20.43993     96.00027         6     0.660     0.508 -60.02   0
       382    584.8995    127.0280 300.3617514 +22.5897059     6158.848     72.37466      1.180     2.00      4.46283     20.43993     1154.887        26     1.055     0.852  70.50   0
       383    359.7056    126.0791 300.2919734 +22.5219734     1600.404     72.57757      1.200     2.06      4.44058     20.43993     268.8055        16     0.945     0.805  74.00   0
       384    626.0219    124.5263 300.3753685 +22.6013023     791.9795     72.44851      1.131     2.01     4.429815     20.43993     141.9731        10     0.865     0.621  62.16   0
       385    695.4806    121.8566 300.3978693 +22.6213342     388.8826      72.4854      1.200     2.81     4.416965     20.43993     67.88383         8     0.883     0.649 -80.94   0
       386    641.9056    120.5424 300.3816075 +22.6049139     579.0618     72.50385      1.278     1.96     4.400256     20.43993      100.529         7     0.781     0.533  79.87   0
       387    108.8989    118.5130 300.2164511 +22.4446337     731.4137      72.6144      1.439     2.75     4.800998     20.43993     102.7357        14     1.010     0.874  -8.64   0
       388    911.7137    117.9317 300.4665361 +22.6849370     469.5521     72.54072      1.192     2.20     4.545365     20.43993     77.21802         8     0.852     0.573  23.35   0
       389    680.5177    115.8967 300.3951412 +22.6151408     561.6992      72.6144      1.066     2.08     4.371081     20.43993     90.47152         6     0.724     0.499  86.38   0
       390    629.1795    111.8888 300.3804508 +22.5986158     2679.882     72.37466      1.157     1.94     4.432383     20.43993      543.968        19     0.957     0.819  88.86   0
       391    270.0996    112.5598 300.2684896 +22.4912400     454.6286     72.43005      1.232     2.45     4.331506     20.43993     77.62023         8     0.834     0.624 -47.71   0
       392    644.1740    110.8770 300.3854489 +22.6028152     882.5437     72.46696      1.616     4.34     4.403045     20.43993     91.08933        17     1.344     0.962  54.33   0
       393    715.6570    103.4243 300.4101334 +22.6220768     1511.578     72.44851      1.123     2.03     4.517009     20.43993     249.5398        15     0.955     0.793 -40.63   0
       394    875.9992    102.0422 300.4605542 +22.6696783     282.1458     72.44851      1.242     1.63     4.547296     20.43993     62.78732         5     0.568     0.545   0.07   0
       395    653.4657     96.6789 300.3929477 +22.6015166     638.0557     72.55914      1.130     2.15     4.394736     20.43993     112.3425         9     0.871     0.583 -87.08   0
       396    459.1825     96.1829 300.3326206 +22.5431874     983.1054     72.43005      1.128     1.99     4.567571     20.43993     194.3012        12     0.844     0.718  63.39   0
       397     32.0395     96.2611 300.1997886 +22.4152045     524.9306     72.44851      1.245     2.16     5.097596     20.43993     76.39458         7     0.691     0.631 -37.37   0
       398    363.1107     94.2746 300.3033475 +22.5138580     857.5361      72.6144      1.243     2.05     4.436381     20.43993     148.2705        12     0.916     0.685  54.36   0
       399    745.2653     92.7886 300.4228079 +22.6278837     322.2003     72.41159      0.980     1.93     4.615649     20.43993     86.03779         5     0.673     0.437 -82.97   0
       400   1005.9183     90.8330 300.5047060 +22.7053339     2239.067     72.41159      1.240     1.88     4.182586     20.43993     448.5046        20     1.024     0.863  59.89   0
       401    134.4284     84.3619 300.2354593 +22.4424815      3716.15     72.44851      1.265     2.25     4.715574     20.43993     459.8986        27     1.151     0.966  41.36   0
       402    702.4506     84.4314 300.4121786 +22.6126629     562.2569      72.4854      1.020     2.36     4.550716     20.43993     101.6338        10     0.810     0.764  39.00   0
       403    265.1632     85.0752 300.2758679 +22.4818673     139.8261     72.39313      1.039     3.67     4.380477     20.43993     37.63334         5     0.789     0.515 -34.37   0
       404    460.2197     81.7121 300.3376362 +22.5393404     293.7139     72.39313      0.993     2.30     4.541435     20.43993     62.02019         6     0.674     0.636   0.49   0
       405    556.9004     81.2787 300.3678711 +22.5681730     309.6618     72.57757      1.163     2.66     4.481989     20.43993     59.67215         7     0.826     0.583  32.91   0
       406    695.6575     76.5136 300.4126300 +22.6083529     909.7344     72.55914      1.071     2.12     4.578261     20.43993     154.2152        12     0.877     0.709  55.64   0
       407    250.3289     76.3447 300.2740864 +22.4749147      1010.47     72.46696      1.118     2.27     4.480615     20.43993     162.3569        14     0.952     0.782  59.22   0
       408    733.4963     71.5701 300.4260220 +22.6182600     749.2629     72.39313      1.422     4.01     4.700257     20.43993     80.57213        13     1.247     0.697  81.96   0
       409    656.9282     71.2734 300.4022651 +22.5952506     594.0282     72.50385      1.295     3.12     4.543648     20.43993      76.2166         9     1.005     0.618  64.47   0
       410    753.5220     67.7930 300.4334867 +22.6231690     2128.893     72.37466      1.110     1.86     4.691207     20.43993     369.3437        19     0.967     0.815  83.46   0
       411    459.1477     66.2693 300.3423103 +22.5345821     421.9486     72.44851      1.178     2.83     4.508677     20.43993     68.81636         7     0.720     0.653  49.94   0
       412    136.7940     63.2815 300.2430299 +22.4371379     1029.044     72.37466      1.333     2.53     4.713794     20.43993     128.9767        15     1.048     0.850  57.06   0
       413    928.3181     61.0898 300.4901486 +22.6735580     793.5101     72.55914      1.297     2.40      4.50968     20.43993     111.2377        11     0.935     0.696  67.66   0
       414    701.8704     60.3273 300.4198145 +22.6055597     857.2832     72.52229      1.156     2.02     4.700895     20.43993     153.3234        13     0.998     0.739 -81.18   0
       415    409.2019     58.5391 300.3292750 +22.5174000     376.5116     72.41159      1.261     2.92      4.42605     20.43993     47.08075         5     0.726     0.454 -21.39   0
       416    459.7508     53.0837 300.3467735 +22.5309741     273.9581     72.43005      1.160     2.43      4.48473     20.43993     47.04458         7     0.740     0.621 -88.99   0
       417    152.3798     52.9190 300.2512336 +22.4388337     281.5486     72.43005      1.208     3.44     4.535729     20.43993     38.88786         5     0.801     0.428 -70.26   0
       418    286.6785     50.0591 300.2939125 +22.4782570     368.1167      72.4854      1.084     1.99     4.365355     20.43993     74.73434         7     0.678     0.630  59.30   0
       419    786.7604     44.4988 300.4513983 +22.6264207     242.2601     72.44851      1.293     3.24     4.671006     20.43993     45.45165         7     0.877     0.598  72.59   0
       420    689.7974     42.7261 300.4217606 +22.5968850     233.7845     72.35619      1.026     2.55     4.799882     20.43993     63.93575         7     0.834     0.586  78.98   0
       421    554.3998     45.2902 300.3787623 +22.5570812     871.1707     72.31922      1.045     1.77     4.481989     20.43993     178.6774        14     0.867     0.771  59.14   0
       422    163.8511     42.9481 300.2580318 +22.4394084     499.5995      72.4854      1.188     2.29     4.449409     20.43993     80.58543         6     0.707     0.546 -55.10   0
       423    348.7335     41.5864 300.3159599 +22.4944151     146.3035     72.41159      1.003     3.71     4.377136     20.43993     51.18269         5     0.868     0.456  47.47   0
       424    717.4510     40.0207 300.4312530 +22.6043859     687.5037     72.44851      1.157     2.19      4.83251     20.43993     122.8176         9     0.766     0.683  46.10   0
       425    526.1060     38.3800 300.3721944 +22.5466221     1871.948     72.37466      1.199     2.14     4.484648     20.43993     289.5701        16     0.913     0.859 -74.26   0
       426    249.0040     35.9703 300.2867654 +22.4629219     584.4366     72.41159      1.193     2.28     4.793327     20.43993     100.3949         9     0.786     0.685  50.05   0
       427    483.4834     32.1052 300.3609616 +22.5320539     1456.744     72.63281      1.229     2.26     4.480255     20.43993     197.7532        17     0.961     0.839 -89.62   0
       428    588.7848     28.8976 300.3947835 +22.5626661     1301.957      72.3377      1.214     1.96     4.481989     20.43993     248.6415        14     0.900     0.753  66.48   0
       429    184.0103     28.0999 300.2691117 +22.4411858     612.5118     72.35619      1.227     2.35     4.689325     20.43993     94.87134        10     0.841     0.722  70.54   0
       430    417.5837   1021.3598 300.0190569 +22.7962397     1188.157     67.63855      1.807     3.62     2.949328     20.43993     96.91692        17     1.095     1.027  46.46  16
       431    233.0541     25.9412 300.2850579 +22.4552621     419.5798     72.50385      1.283     2.76     5.074001     20.43993     65.58456         9     0.782     0.749  65.25   0
       432     56.2365     20.7722 300.2317812 +22.4007871     1366.738     72.46696      1.347     2.61     5.360049     20.43993     175.0937        18     1.059     0.900  49.40   0
       433    663.2484     21.4732 300.4203813 +22.5828267     113.5583     72.44851      0.933     2.88     4.890682     20.43993     44.27327         5     0.717     0.475  16.78   0
       434    899.7411     19.9499 300.4945772 +22.6531733     290.0023     72.50385      1.135     2.18     4.469358     20.43993     60.61295         7     0.742     0.608  88.46   0
       435    540.0829     17.2873 300.3833842 +22.5447455     420.1693     72.55914      1.154     2.17     4.479751     20.43993     71.70454         8     0.756     0.634  38.77   0
       436    198.9907     15.0052 300.2780135 +22.4419142     292.2403     72.30073      1.389     4.45     4.953459     20.43993     44.66816         7     0.900     0.626 -44.56   0
       437    678.5118     13.2594 300.4277987 +22.5850348     198.6099     72.52229      0.975     3.05     5.023322     20.43993     36.89427         5     0.732     0.445  66.97   0
       438    191.4671   1022.2820 299.9484482 +22.7286180     699.1086     63.79353      4.557     5.97     11.55987     20.43993     37.89234         6     1.519     0.661  17.19  24
       439    348.4227   1019.5417 299.9981365 +22.7749579      6630.36     72.44851      1.604     3.03     3.054764     20.43993     654.0726        38     1.297     1.213  23.86  16
