#   1 NUMBER                 Running object number                                     
#   2 X_IMAGE                Object position along x                                    [pixel]
#   3 Y_IMAGE                Object position along y                                    [pixel]
#   4 ALPHA_J2000            Right ascension of barycenter (J2000)                      [deg]
#   5 DELTA_J2000            Declination of barycenter (J2000)                          [deg]
#   6 FLUX_APER              Flux vector within fixed circular aperture(s)              [count]
#   7 FLUXERR_APER           RMS error vector for aperture flux(es)                     [count]
#   8 FLUX_RADIUS            Fraction-of-light radii                                    [pixel]
#   9 FWHM_IMAGE             FWHM assuming a gaussian core                              [pixel]
#  10 BACKGROUND             Background at centroid position                            [count]
#  11 THRESHOLD              Detection threshold above background                       [count]
#  12 FLUX_MAX               Peak flux above background                                 [count]
#  13 ISOAREA_IMAGE          Isophotal area above Analysis threshold                    [pixel**2]
#  14 A_IMAGE                Profile RMS along major axis                               [pixel]
#  15 B_IMAGE                Profile RMS along minor axis                               [pixel]
#  16 THETA_IMAGE            Position angle (CCW/x)                                     [deg]
#  17 FLAGS                  Extraction flags                                          
         1    251.2876      9.9501 300.2965016 +22.4554320      314.701     72.56925      1.069     2.12     5.938533     20.47399      74.2984         7     0.700     0.639 -87.19   0
         2    680.3882      9.1130 300.4303061 +22.5837029     429.4286     72.51378      1.325     2.91     5.639279     20.47399     51.60775         6     0.772     0.625  60.86   0
         3    117.5985      4.4605 300.2567290 +22.4137948     1131.553     70.48764      1.304     2.55      5.64045     20.47399     141.4595        15     0.960     0.879  53.06  16
         4    659.7117   1011.0678 300.0983446 +22.8652500     350.0282     72.71698      1.224     3.04     2.817327     20.47399     43.92776         7     0.830     0.601  67.14   0
         5    418.1559   1023.2833 300.0191875 +22.7962671     815.9948     58.64574      1.260     2.91     3.899781     20.47399     110.5311        12     1.025     0.722   0.38  24
         6    348.7554   1021.5693 299.9981606 +22.7749434     6461.213     66.99471      1.536     3.16     3.500051     20.47399      588.588        34     1.214     1.188 -67.14  24
         7    125.4095   1023.2153 299.9282048 +22.7083526     515.7899     58.89681      4.853     5.24     17.04229     20.47399     29.35674         7     1.013     0.767  -6.95  27
         8    105.9824   1021.4595 299.9227413 +22.7020149     1053.624     67.29436      7.215     8.32     16.65127     20.47399     39.68679        11     1.757     1.101 -48.88  24
         9     71.4134   1021.0187 299.9121472 +22.6915058     3399.104     68.92897     17.639    42.30     15.46566     20.47399     84.82156       393    11.711     4.240 -20.30  27
        10     39.5097   1019.0206 299.9028894 +22.6813506     5463.617     72.51378     18.008    57.40     13.93081     20.47399     104.6188       773    17.297     5.285 -11.93  27
        11     41.8622   1000.3109 299.9097103 +22.6766977     3831.644     72.66161     15.953    59.20     12.06982     20.47399     82.14138       969    13.380     7.268 -13.44  27
        12    683.8618    989.1525 300.1129999 +22.8662081     762.7294     72.60621      1.745     5.39     2.957019     20.47399     73.70889        16     1.531     0.753  58.79   0
        13   1010.6840    987.6061 300.2153599 +22.9637693     499.9689     72.49528      1.767     6.37     3.196937     20.47399     48.79233        12     1.462     0.780 -51.72   0
        14    603.2402    984.7260 300.0893371 +22.8407522     207.8819     72.55077      1.539     5.41     3.050861     20.47399     30.47105         5     1.151     0.718 -12.75   0
        15    496.1275    984.2292 300.0561600 +22.8084704     411.9062     72.56925      1.495     4.11      3.05088     20.47399     51.36955        11     1.027     0.791 -34.67   0
        16    718.5770    983.2510 300.1257334 +22.8749283     1044.607     72.56925      1.514     2.79     2.954744     20.47399     112.4665        16     1.088     0.899 -21.12   0
        17    381.4985   1008.6381 300.0125533 +22.7810655     422.7035     72.56925      1.405     3.40     3.651553     20.47399     62.70978        10     1.028     0.901 -31.30   0
        18    894.9813   1000.0912 300.1752189 +22.9326642     2181.706     72.49528      1.549     3.25     2.878533     20.47399     166.6452        28     1.290     1.170  80.73   0
        19    740.9222    976.9474 300.1347459 +22.8798220     11303.25     72.60621      1.405     2.78     2.998127     20.47399     1215.435        46     1.203     1.166 -65.35   0
        20    786.4545    976.9009 300.1489463 +22.8934646     590.0312     72.66161      1.562     3.53      2.93072     20.47399     51.52162        11     0.937     0.851  34.43   0
        21    931.5131    976.1528 300.1944008 +22.9367468     478.4002     72.53227      1.788     4.73     3.045621     20.47399     42.77071         9     1.092     0.582  28.77   0
        22     52.5555    969.0538 299.9232050 +22.6709549     833.0684     72.58774      2.034     4.62     9.240809     20.47399     64.55848        12     1.138     0.844  38.42   0
        23    198.7087    968.0486 299.9689375 +22.7145560     1439.656     72.58774      0.705     2.29     6.862675     20.47399     650.8042         8     0.697     0.339  -1.34   0
        24    446.0554    964.9371 300.0468601 +22.7879120     425.4359     72.62469      1.392     3.13     3.453477     20.47399      62.0753         8     0.957     0.667  69.15   0
        25    792.1613    964.5103 300.1547579 +22.8916205     404.8857     72.55077      1.232     3.73     3.016831     20.47399     48.61736         6     0.799     0.500  -0.39   0
        26     42.4305    960.2987 299.9229101 +22.6654058     277.0663     72.51378      1.400     6.19     7.973022     20.47399      36.8531         9     1.324     0.815 -27.36   0
        27    749.4477    958.9999 300.1432439 +22.8772294     1328.285     72.55077      1.321     2.50     3.201252     20.47399     165.9284        20     1.065     0.981 -39.94   0
        28    932.5319    958.0131 300.2006234 +22.9318454     473.0506     72.58774      1.462     4.45     3.127752     20.47399     47.45209         8     1.066     0.582 -35.40   0
        29    601.9757    956.1522 300.0982445 +22.8321769     504.6398     72.56925      1.381     2.83     3.232396     20.47399      65.4862         8     0.839     0.610 -52.64   0
        30    127.4587    955.5950 299.9508518 +22.6895931     459.6629     72.53227      2.535     5.47     8.829955     20.47399       36.235         7     1.809     0.467  27.58   0
        31    787.5205    952.6353 300.1571773 +22.8868211     822.0241     72.51378      1.523     3.12     3.126909     20.47399     84.11611        13     0.969     0.886 -32.23   0
        32    896.0747    949.6674 300.1919745 +22.9185196     259.3541     72.64315      1.497     3.79     3.139319     20.47399     36.16198         5     0.841     0.491 -51.16   0
        33    835.7473    943.8431 300.1750670 +22.8987597     648.1733     72.60621      1.586     3.82     3.152004     20.47399     70.76595        13     1.075     0.895 -61.27   0
        34    687.0854    942.8528 300.1290749 +22.8538922     728.7527     72.58774      1.319     3.27     3.377212     20.47399     94.08241        11     1.005     0.745  34.71   0
        35    290.3713    942.8016 300.0056463 +22.7348383     202.2953     72.53227      1.226     2.80     3.946431     20.47399     34.26461         5     0.725     0.451 -72.16   0
        36    399.9107    939.2409 300.0408689 +22.7666956     4147.491     72.56925      1.389     2.74     3.576026     20.47399     479.6752        29     1.111     1.087 -68.06   0
        37    698.5450    939.7014 300.1336697 +22.8564252     601.4196     72.66161      1.338     4.16     3.424901     20.47399     68.72953        12     1.106     0.806 -65.87   0
        38    178.3509    928.3796 299.9755214 +22.6970749      397.226     72.56925      1.487     4.63      4.73996     20.47399     39.64681         7     0.851     0.715  70.00   0
        39    443.3283    927.0811 300.0583325 +22.7762383      317.676     72.69852      1.269     4.29      3.47975     20.47399      47.3302         7     0.770     0.681  57.52   0
        40    124.9092    925.0052 299.9600148 +22.6800618     738.2014     72.47677      1.473     4.02     5.466977     20.47399     88.78427        13     1.102     0.835 -37.01   0
        41     33.4321    923.8384 299.9319809 +22.6522574     351.3871     72.60621      1.511     4.33     4.560779     20.47399      51.4199         9     1.293     0.703 -22.87   0
        42    102.2805    922.0604 299.9539433 +22.6724231     1393.073     72.62469      1.462     2.97     5.762946     20.47399     186.3796        22     1.130     1.102 -49.56   0
        43    729.6539    918.7411 300.1501812 +22.8597411     194.1325     72.62469      1.038     3.40     3.614212     20.47399     36.95837         5     0.755     0.442  73.30   0
        44    974.0116    910.7530 300.2289394 +22.9307126     2164.011     72.58774      1.500     2.98     3.376159     20.47399      211.125        25     1.160     1.078  57.91   0
        45    634.0721    909.0721 300.1235602 +22.8282992     492.5299     72.62469      2.109     4.63     3.442583     20.47399     34.95203         6     0.905     0.672  43.18   2
        46    928.3440    909.2661 300.2151839 +22.9165964     2169.061     72.62469      1.426     3.00     3.320014     20.47399     199.9781        19     1.045     0.987  68.00   0
        47    404.6222    908.9958 300.0521771 +22.7594370     254.4268     72.53227      1.415     4.15     3.534016     20.47399     26.71927         5     0.805     0.612   0.54   0
        48    711.6245    903.3153 300.1495853 +22.8499076     664.3951     72.53227      1.315     3.29     3.569328     20.47399     78.23061        13     0.995     0.877  14.13   0
        49    134.8311    903.5639 299.9700743 +22.6768963     388.4353     72.58774      1.391     2.78     4.933777     20.47399      59.0743         6     0.852     0.606  82.16   0
        50    579.8936    897.3033 300.1105224 +22.8086712     4892.195     72.75386      1.312     2.33     3.459026     20.47399     682.9019        31     1.116     1.018 -72.00   0
        51    382.1177    894.5635 300.0498736 +22.7485451     568.4072     72.53227      1.225     3.16      3.50405     20.47399     84.58521        12     1.022     0.744 -80.80   0
        52    130.1039    891.3926 299.9725659 +22.6719888      1377.27     72.45826      1.495     3.37      4.73721     20.47399      138.403        22     1.150     1.089 -68.21   0
        53    600.4749    889.9715 300.1193154 +22.8127416     890.6619     72.58774      1.365     2.62     3.453027     20.47399     109.0318        13     0.914     0.849   7.35   0
        54    398.4636    888.7606 300.0568460 +22.7517863     245.4114     72.55077      1.193     3.48     3.508558     20.47399       44.863         5     0.742     0.473 -73.85   0
        55    149.0179    888.4231 299.9794085 +22.6768165     444.8779     72.55077      1.541     4.86     4.576267     20.47399     61.89443         6     1.162     0.576  21.73   0
        56    517.3170    879.8590 300.0967214 +22.7848946      363.759     72.66161      1.516     3.95       3.4971     20.47399     58.86501         5     0.953     0.695 -13.70   0
        57    973.0516    877.0240 300.2396164 +22.9207406     1252.698     72.58774      1.690     3.22     3.449547     20.47399     113.8729        18     1.140     0.953 -12.94   0
        58    755.9465    876.9971 300.1719562 +22.8556464     4197.376     72.53227      1.307     2.30     3.610322     20.47399     635.9151        26     1.064     0.996 -51.59   0
        59   1010.7071    877.2890 300.2512735 +22.9321026     398.8299     72.73542      1.580     4.58     3.463624     20.47399     33.10943         8     1.015     0.586  16.57   0
        60    487.0621    874.0598 300.0891933 +22.7741543     234.6068     72.60621      1.417     3.69     3.473607     20.47399     29.10596         5     0.629     0.623 -39.67   0
        61    164.4586    871.2706 299.9897869 +22.6765359      517.921     72.60621      1.421     3.09     4.340422     20.47399     53.99697        10     0.915     0.725  -2.31   0
        62    472.6049    869.4246 300.0862029 +22.7684874     566.1655     72.53227      1.358     3.05     3.478775     20.47399     76.64557        11     0.930     0.839 -20.41   0
        63    119.2203    867.9318 299.9768177 +22.6619973      958.427     72.55077      1.441     2.89     4.293992     20.47399     130.7001        16     1.100     0.962  16.23   0
        64    268.9775    859.7484 300.0260202 +22.7046071      52676.5     72.56925      1.375     2.54     4.089998     20.47399     6546.058        90     1.310     1.235  85.79   0
        65    534.5950    862.6133 300.1077100 +22.7851310     467.5889     72.43975      1.218     2.49     3.577597     20.47399     76.25964         8     0.922     0.549  43.83   0
        66    526.8073    858.6656 300.1065706 +22.7816623     1589.693     72.56925      1.233     2.18     3.605582     20.47399     235.4629        17     0.992     0.884  -2.49   0
        67    939.7003    857.4515 300.2355857 +22.9051245     940.5076     72.66161      1.400     2.88      3.51353     20.47399     100.1712        14     1.000     0.842 -71.64   0
        68    197.1938    857.5820 300.0044129 +22.6824392     455.1522     72.53227      1.258     3.93      4.28313     20.47399     54.01223        11     1.021     0.838  45.89   0
        69    555.7852    854.7004 300.1168800 +22.7892175     1026.816     72.47678      1.293     2.37     3.644579     20.47399     137.8782        12     0.932     0.755 -79.35   0
        70    566.6918    852.9102 300.1208574 +22.7919755     616.1172     72.73542      1.269     2.69      3.64201     20.47399     93.27657        12     0.899     0.841  20.54   0
        71    886.4492    850.2286 300.2213345 +22.8870889     377.7712     72.58774      1.355     2.22     3.666101     20.47399     57.89654         5     0.676     0.480  74.15   0
        72    672.2538    849.1147 300.1549594 +22.8225474     333.3274     72.62469      1.193     2.78     3.485437     20.47399      58.6637         7     0.718     0.654  44.83   0
        73    466.6469    846.4432 300.0918260 +22.7601081     248.1672     72.60621      1.144     3.18     3.674314     20.47399     41.05029         6     0.805     0.551  45.02   0
        74    318.6636    836.9917 300.0488713 +22.7129940     31456.03     72.55077      1.335     2.24      3.87033     20.47399     4713.016        71     1.215     1.202  83.17   0
        75    709.7393    839.6115 300.1697262 +22.8310613     651.6233     72.51378      1.128     2.42     3.592913     20.47399     109.4856         9     0.833     0.668  74.03   0
        76    332.9271    837.5004 300.0531411 +22.7174203     1883.553     72.71698      1.289     2.41     3.792555     20.47399      256.573        18     1.025     0.908 -38.33   0
        77    841.7438    832.7599 300.2130838 +22.8686725     2710.502     72.55077      1.260     2.31     3.803181     20.47399     397.4908        24     1.063     0.969   1.69   0
        78    329.8192    831.3318 300.0541814 +22.7147188      743.746     72.56925      1.582     2.61     3.844528     20.47399     85.18975        10     0.895     0.695  36.79   0
        79    201.1420    828.8362 300.0149912 +22.6753838     937.1837     72.56925      1.550     4.05     4.283176     20.47399     98.39395        18     1.169     1.062 -50.61   0
        80    599.6611    828.7787 300.1389717 +22.7949409     1003.175     72.53227      1.257     2.42      3.76935     20.47399     144.2486        13     0.934     0.871 -59.09   0
        81    435.8925    828.8155 300.0879922 +22.7458250     484.1342     72.49528      1.372     2.65     3.790222     20.47399     65.69504         8     0.808     0.707   4.00   0
        82      5.9702    824.6293 299.9557295 +22.6155837     445.7091     72.55077      1.337     3.72     4.150708     20.47399      57.6776        10     1.087     0.679  29.01  16
        83    446.9574    823.6716 300.0931079 +22.7476693     939.1013     72.55077      1.316     2.43     3.853801     20.47399     117.5356        12     0.890     0.782  48.20   0
        84    847.9761    820.1431 300.2191307 +22.8669187     487.6347     72.56925      1.230     3.10     3.896616     20.47399     78.83116         9     0.858     0.753 -12.56   0
        85    348.7561    820.0994 300.0637241 +22.7171802     376.4817     72.56925      1.260     2.92     3.835427     20.47399     51.36205         7     0.847     0.608 -34.71   0
        86    304.8223    819.3914 300.0502930 +22.7037934     289.0319     72.56925      1.251     3.42      3.99084     20.47399     45.40609         8     0.986     0.550  74.10   0
        87    392.8268    818.2549 300.0780308 +22.7298749     364.2034     72.56925      1.174     2.59     3.839324     20.47399     74.85946         8     0.801     0.678  45.17   0
        88     34.3226    818.0396 299.9666773 +22.6222086     440.4116     72.55077      1.448     2.67     4.165015     20.47399     56.57732         7     0.699     0.680  49.46   0
        89    601.0627    817.3755 300.1431176 +22.7920893     286.9879     72.55077      0.944     3.31     3.860992     20.47399     50.78559         6     0.809     0.624  36.65   0
        90    825.4996    815.0095 300.2137960 +22.8587071     328.5959     72.47678      1.043     1.95     3.852829     20.47399     67.52129         6     0.715     0.499  86.24   0
        91    199.1296    813.2097 300.0194487 +22.6702999     500.1166     72.55077      1.282     3.64     4.279932     20.47399     62.47268        11     1.018     0.803  59.73   0
        92    522.1819    803.5751 300.1230529 +22.7644705      431.837     72.58774      1.235     2.85     4.133853     20.47399      71.5213         9     0.907     0.631  72.27   0
        93    491.7986    801.7043 300.1142060 +22.7548199     640.7153     72.47678      1.204     2.88     4.152653     20.47399     101.8847        10     0.993     0.784  75.36   0
        94    529.5013    802.2085 300.1257754 +22.7662739     237.3073     72.43975      0.894     3.41     4.153454     20.47399     45.98275         5     0.751     0.448  68.37   0
        95    401.0522    800.5102 300.0863613 +22.7272534     277.1693     72.58774      1.312     3.97     3.967956     20.47399     57.48117        10     1.099     0.734 -31.96   0
        96    908.1098    797.9912 300.2450812 +22.8785831     4449.999     72.49528      1.310     2.26      3.90842     20.47399     673.5046        28     1.081     1.009  65.81   0
        97    513.4966    799.1934 300.1217751 +22.7606082     1517.173     72.45826      1.240     2.36      4.16445     20.47399     224.7731        17     0.973     0.876 -35.15   0
        98    433.2163    798.6818 300.0969616 +22.7363787     402.8068     72.55077      1.342     2.98     4.022421     20.47399      63.9228         6     0.785     0.595 -32.65   0
        99    595.4427    794.2408 300.1488933 +22.7837654     256.7692     72.66161      1.135     3.52      4.01294     20.47399     63.53833         6     1.083     0.445  42.82   0
       100    896.5908    789.3577 300.2442986 +22.8726516     1527.245     72.56925      1.183     2.24     3.963514     20.47399      216.933        14     0.873     0.851  69.66   0
       101    275.6367    783.8172 300.0527898 +22.6848340     292.6317     72.56925      1.271     3.44     4.076282     20.47399     28.95258         5     0.770     0.444  72.88   0
       102    259.6092    783.3336 300.0479645 +22.6798855     807.3077     72.56925      1.201     2.84     4.120637     20.47399     111.1674        11     0.967     0.675  34.64   0
       103    125.9075    784.4194 300.0060601 +22.6400676     190.0851     72.49528      1.205     4.17     4.199342     20.47399     34.05548         6     0.781     0.637  51.21   0
       104    927.7586    779.5523 300.2572049 +22.8791771     1600.811     72.62469      1.224     2.11     3.859497     20.47399     234.2675        17     1.009     0.841  55.38   0
       105    723.0995    780.6617 300.1930641 +22.8181478     2560.571     72.64315      1.314     2.38     3.775807     20.47399     374.2794        22     1.367     0.860  -0.79   0
       106    108.1556    767.3939 300.0060820 +22.6298583     671.1959     72.58774      1.546     3.43     4.185431     20.47399     70.50545        13     1.082     0.831  79.92   0
       107    805.1989    766.6255 300.2232080 +22.8387310     479.0909     72.51378      1.221     2.50     3.831469     20.47399     87.91576         8     0.855     0.591   4.35   0
       108    841.3749    757.5658 300.2374284 +22.8469735     146923.2     72.58774      1.203     2.10     3.985977     20.47399     21593.14       152     1.317     1.224 -80.10   0
       109    603.7806    761.4111 300.1621669 +22.7768450     356.9102     72.53227      0.996     2.06     4.017596     20.47399     68.67551         6     0.652     0.609  51.16   0
       110    988.4576    759.2280 300.2827428 +22.8915297     1352.158     72.56925      1.291     2.40     3.618518     20.47399     185.6018        15     1.107     0.869 -56.73   0
       111    693.8392    757.8986 300.1913536 +22.8028411     726.1486     72.56925      1.253     2.15     3.845751     20.47399     113.1444        10     0.814     0.685  82.27   0
       112    467.2173    753.5311 300.1222249 +22.7336260     880.4426     72.58774      0.726     1.10     4.151759     20.47399     414.0848         5     0.517     0.449 -58.57   0
       113    874.2897    750.3033 300.2500495 +22.8547534      352.191     72.75386      1.148     1.88     4.064547     20.47399     83.53745         5     0.654     0.452  85.63   0
       114    699.2092    748.5795 300.1960569 +22.8017762     216.6706     72.55077      1.088     3.48     3.905306     20.47399     24.75257         5     0.777     0.449 -18.79   0
       115    527.4855    746.5288 300.1432572 +22.7496936     1690.258     72.68008      1.158     2.15     4.219205     20.47399     256.9576        17     0.961     0.882  22.95   0
       116    708.8269    743.7484 300.2006237 +22.8032729     9302.781     72.58774      1.180     1.94     3.942776     20.47399     1674.314        35     1.049     0.956  85.83   0
       117    190.2582    745.4595 300.0387255 +22.6482128     245.2088     72.64315      1.386     4.70      4.11998     20.47399     39.14061         6     0.926     0.687 -86.27   0
       118    210.3327    739.0512 300.0470483 +22.6523999     4918.823     72.56925      1.296     2.27     4.030311     20.47399     678.5928        29     1.056     1.040 -72.64   0
       119    292.4135    737.2211 300.0731589 +22.6765056     1206.951     72.53227      1.261     2.39     3.952816     20.47399     161.1813        14     0.925     0.816 -21.35   0
       120    167.8785    734.8375 300.0352248 +22.6384506     514.9696     72.55077      1.362     3.55     4.189511     20.47399     53.95581        11     0.938     0.885  -3.17   0
       121    500.7445    732.5838 300.1394697 +22.7376722     783.0568     72.53227      1.180     2.43     4.203717     20.47399     127.0751        11     0.922     0.678  72.36   0
       122    492.3388    724.7086 300.1394147 +22.7328914     3254.275     72.66161      1.143     1.99     4.207305     20.47399     532.0696        21     0.976     0.874  62.49   0
       123    482.5021    718.5206 300.1383658 +22.7281656     1493.797     72.69853      1.103     2.09     4.198131     20.47399     210.5222        16     0.929     0.807  65.61   0
       124    876.0433    716.1339 300.2617081 +22.8454667     394.6413     72.55077      1.098     2.49     4.019781     20.47399     73.58058         8     0.782     0.656  54.88   0
       125    145.9709    714.6091 300.0349946 +22.6260757     644.9787     72.56925      1.271     2.93     4.243579     20.47399     95.32413        10     0.888     0.791  -9.37   0
       126    160.1842    712.9684 300.0399445 +22.6298710     564.3948     72.55077      1.406     2.85     4.253983     20.47399     69.80975        10     0.880     0.757 -60.90   0
       127    929.3691    709.4434 300.2805080 +22.8595252     543.0366     72.60621      1.184     2.67     3.913561     20.47399     75.22906         8     0.833     0.675 -56.74   0
       128    216.7321    709.8271 300.0585394 +22.6459401     262.2725     72.55077      1.113     2.25     4.133684     20.47399     51.04208         6     0.718     0.543  38.17   0
       129    185.9506    709.9698 300.0489264 +22.6367438     440.5293     72.58774      1.211     2.32     4.203446     20.47399     81.04532         9     0.760     0.725  19.80   0
       130    506.2856    708.7870 300.1489320 +22.7325057     569.7551     72.51378      1.183     2.46     4.290402     20.47399     71.83614         8     0.775     0.645  57.89   0
       131    407.3592    708.1267 300.1183666 +22.7026447      1757.73     72.55077      1.189     2.20     4.125878     20.47399     254.3792        14     0.859     0.817 -75.26   0
       132    983.0565    705.2888 300.2985998 +22.8744182     823.9141     72.60621      1.251     2.76      3.74078     20.47399     109.1859        13     0.927     0.793   7.75   0
       133     61.2788    703.3062 300.0123591 +22.5974153     19827.53     72.69852      1.399     2.49     4.322803     20.47399     2393.234        53     1.242     1.192  55.72   0
       134    492.1901    703.4461 300.1462820 +22.7267458     949.7444     72.58774      1.165     2.24     4.259325     20.47399     146.5682        14     0.876     0.805  57.32   0
       135    527.5218    702.3118 300.1576466 +22.7370163     201.3754     72.71698      0.973     2.54     4.394151     20.47399     47.05452         5     0.691     0.460 -67.74   0
       136    409.3470    700.5606 300.1214449 +22.7010703     285.6672     72.55077      1.051     2.86     4.142636     20.47399     48.41246         5     0.695     0.482 -13.72   0
       137    547.3956    695.6661 300.1659931 +22.7410689      249.182     72.56925      1.232     5.05     4.477337     20.47399     47.16747         7     1.031     0.699 -40.84   0
       138    245.6959    695.5794 300.0721746 +22.6505451     338.7552     72.47678      1.112     2.63     4.167741     20.47399     57.48399         6     0.792     0.526 -51.06   0
       139    575.0433    690.8962 300.1761502 +22.7479905     320.1058     72.58774      1.281     3.08     4.300433     20.47399     55.15056         6     1.009     0.507  20.16   0
       140    910.3272    689.5097 300.2810528 +22.8480940     1155.854     72.73542      1.270     2.26     3.920301     20.47399     153.8649        15     0.915     0.844 -44.35   0
       141      7.2486    687.4048 300.0007488 +22.5766383     1492.773     72.55077      1.778     5.31     4.558959     20.47399      144.196        24     1.567     0.972 -88.58  16
       142    777.1929    687.5988 300.2401801 +22.8076465     468.5679     72.38417      1.039     2.45     3.921066     20.47399     79.72368        10     0.852     0.732  50.41   0
       143     73.2642    687.8814 300.0210965 +22.5965908     321.2696     72.68008      1.180     2.63     4.357434     20.47399       65.494         7     0.894     0.579  17.47   0
       144    455.6598    684.0239 300.1412297 +22.7102168     560.3619     72.55077      1.172     2.26     4.227477     20.47399     85.21668         9     0.879     0.613  36.24   0
       145    248.1996    683.3958 300.0769139 +22.6478021     361.1306     72.38417      1.496     4.38     4.229188     20.47399     35.04445         7     0.939     0.581  55.11   0
       146    850.7095    682.1151 300.2648731 +22.8281051     927.3059     72.73542      1.623     2.46     3.941544     20.47399     93.45284        10     0.825     0.731 -17.66   0
       147    594.9890    680.9519 300.1855928 +22.7511169     353.5338     72.58774      1.359     3.57     4.171434     20.47399     51.61696         6     0.994     0.487 -80.36   0
       148    412.3165    676.4703 300.1302008 +22.6950495     772.9567     72.69852      1.191     2.29     4.176266     20.47399     109.7795        11     0.858     0.725 -88.35   0
       149    560.3043    674.8959 300.1767640 +22.7389788     503.8904     72.73542      1.141     1.81     4.482789     20.47399     98.74332         7     0.744     0.553  69.44   0
       150    607.5551    673.2046 300.1920239 +22.7526609     467.8204     72.56925      1.015     2.18     4.071396     20.47399     86.50403         8     0.741     0.666 -33.06   0
       151    577.9743    672.8768 300.1829211 +22.7436976     544.9832     72.58774      1.153     1.79     4.334191     20.47399     112.4398         8     0.728     0.626 -48.52   0
       152    456.6330    672.4047 300.1453100 +22.7071747     970.6848     72.55077      1.423     2.95     4.248869     20.47399     109.0597        14     1.046     0.831  19.06   0
       153    643.1573    671.4660 300.2036747 +22.7628358     259.6707     72.55077      1.356     3.52     4.051407     20.47399     43.82473         5     0.849     0.558  46.41   0
       154    890.3261    667.5633 300.2819530 +22.8357974     3354.675     72.51378      1.154     2.07     3.900046     20.47399      520.842        24     1.006     0.912  77.98   0
       155    422.0801    667.6361 300.1361101 +22.6954432      1701.99     72.51378      1.211     2.24     4.233505     20.47399     250.5424        18     0.974     0.891 -12.46   0
       156    988.3489    665.6418 300.3131413 +22.8646146     647.2476     72.56925      1.165     2.28     3.826897     20.47399      111.236        11     0.855     0.756  78.05   0
       157    787.3679    664.8783 300.2507375 +22.8041721     302.3308     72.55077      1.238     3.43     3.918721     20.47399     41.99436         5     0.752     0.451 -73.59   0
       158    397.3494    663.0379 300.1299117 +22.6867062     222.1815     72.56925      1.197     2.71     4.168351     20.47399     49.35091         5     0.788     0.478  33.59   0
       159    451.1284    658.3170 300.1481770 +22.7014813     343.6917     72.69852      1.264     3.15     4.336702     20.47399     65.02658         8     1.030     0.562 -87.74   0
       160    929.7089    657.1029 300.2976318 +22.8445931     294.8892     72.75386      1.124     2.82     3.835086     20.47399     59.56753         7     0.725     0.657  81.30   0
       161    285.5213    654.5469 300.0978947 +22.6507249     9218.745     72.60622      1.167     2.09     4.123302     20.47399     1283.083        36     1.046     1.019  48.64   0
       162    407.9575    651.4996 300.1369623 +22.6865774     8835.743     72.55077      1.133     1.88     4.282224     20.47399     1500.289        29     0.992     0.915  69.97   0
       163    654.2028    647.6158 300.2148678 +22.7593004     341.7673     72.42123      1.321     3.56      4.15522     20.47399     57.51436         5     0.936     0.391  83.77   0
       164   1012.5858    646.5239 300.3269158 +22.8663827     904.5314     72.58774      1.096     2.06     3.829075     20.47399     136.1593        15     0.910     0.826  37.39   0
       165     51.8669    647.3195 300.0276356 +22.5785395     337.0727     72.68008      1.442     3.75     4.487629     20.47399     43.21899         8     0.984     0.635  -4.26   0
       166    819.5398    645.2838 300.2671328 +22.8081868     1980.977     72.68008      1.118     2.06     3.866419     20.47399        276.4        15     0.912     0.752  78.07   0
       167    904.2725    642.6309 300.2944062 +22.8328148     12301.81     72.56925      1.160     2.00     3.810532     20.47399      2087.56        40     1.049     1.002  73.10   0
       168    468.5047    641.0942 300.1591821 +22.7017502     11557.49     72.73542      1.126     1.88     4.481625     20.47399     1931.319        38     1.037     0.978  67.84   0
       169    638.0778    636.7679 300.2133727 +22.7513522     479.6136     72.55077      1.106     2.10     4.212202     20.47399     108.2145         9     0.810     0.655  67.88   0
       170    195.9066    636.5421 300.0758904 +22.6186740     1237.577     72.62469      1.155     2.31     4.097821     20.47399     201.8174        17     1.022     0.854   9.81   0
       171    353.8827    636.1881 300.1251198 +22.6659651     282.1643     72.53227      1.063     2.18     3.978381     20.47399     56.08335         7     0.705     0.646  -4.99   0
       172    442.8973    634.0688 300.1534981 +22.6920547     368.9501     72.69852      1.225     2.29     4.485051     20.47399     66.33628         8     0.753     0.675  50.87   0
       173    743.1318    629.1726 300.2485622 +22.7806611     696.8914     72.55077      1.056     1.79     4.204694     20.47399     183.2495        11     0.829     0.712  47.71   0
       174    400.1826    629.1852 300.1417970 +22.6778428     4428.751     72.55077      1.189     1.92     4.337751     20.47399      777.669        27     0.999     0.939  70.09   0
       175    378.4698    627.6801 300.1355324 +22.6708987     1308.238     72.68008      1.128     2.06     4.168821     20.47399     196.8065        15     0.952     0.767  83.71   0
       176    819.9883    624.5851 300.2740010 +22.8023766     1746.036     72.49528      1.305     2.32     3.844618     20.47399     230.3882        21     1.144     0.903 -64.72   0
       177    132.7633    627.0265 300.0593615 +22.5969982     722.6008     72.58774      1.209     3.20     4.066818     20.47399     107.2398         9     0.971     0.634  45.89   0
       178     66.4373    624.8199 300.0394740 +22.5764614      292.404     72.58774      1.052     2.93     4.361126     20.47399     53.00933         6     0.854     0.472  47.11   0
       179    516.8032    616.7645 300.1821205 +22.7092507     201872.1     72.56925      1.174     1.85     4.727746     20.47399     39014.85       196     1.334     1.284  88.47   0
       180    340.6019    623.2002 300.1252110 +22.6582553     268.9587      72.3471      1.018     1.78     3.973704     20.47399     63.90978         5     0.660     0.456 -68.09   0
       181    700.4995    621.5560 300.2377577 +22.7656962     814.9479     72.56925      1.053     1.95     4.275452     20.47399     138.7463        13     0.856     0.769 -82.03   0
       182    793.9533    619.8875 300.2674148 +22.7932256     405.6798     72.55077      1.163     3.57     3.922548     20.47399     51.41718         7     0.962     0.560 -55.02   0
       183    904.9340    618.2337 300.3025430 +22.8260049     477.8575     72.56925      1.517     2.84     3.733499     20.47399     59.06503         8     0.836     0.621  42.23   0
       184    202.9019    616.8878 300.0844524 +22.6151358     3521.157     72.73542      1.271     2.20     3.971873     20.47399     534.7448        23     1.008     0.952  52.67   0
       185    768.7031    612.7742 300.2618593 +22.7836158     540.8169     72.51378      1.197     1.49     4.097427     20.47399     97.37817         5     0.620     0.451  79.73   0
       186    382.0475    613.0246 300.1414085 +22.6677667     283.8145     72.58774      1.114     3.79     4.243073     20.47399     44.22671         5     0.730     0.565  -0.31   0
       187    548.2592    603.3401 300.1962743 +22.7148289     206.3661     72.64315      1.100     1.70     4.782183     20.47399     64.74939         5     0.657     0.452  17.42   0
       188    407.3775    597.4835 300.1543386 +22.6709039     2748.592     72.53227      1.295     2.63     4.512992     20.47399     407.5585        25     1.479     0.840 -86.97   0
       189    251.7659    599.6895 300.1052304 +22.6248623     458.7561     72.55077      1.317     3.24     4.001804     20.47399     72.81329        11     0.991     0.808  33.58   0
       190    564.1884    594.6569 300.2040549 +22.7171120     420.9716     72.53227      1.377     3.41     4.688132     20.47399     37.04842         5     0.801     0.420 -18.87   0
       191    818.8941    593.4095 300.2837930 +22.7930947     386.4534     72.51378      1.091     2.47     3.956405     20.47399     70.16616         6     0.777     0.572 -36.01   0
       192    638.1464    592.5876 300.2277538 +22.7386888     234.6018     72.58774      0.989     1.70     4.352643     20.47399     54.62903         5     0.647     0.458 -23.17   0
       193    512.0561    592.2593 300.1886074 +22.7007938     198.8312     72.64315      1.231     3.85     4.804228     20.47399     38.60989         5     0.847     0.501  63.12   0
       194    724.7140    585.9179 300.2568834 +22.7627202     310.7668     72.69852      1.034     2.41     4.334516     20.47399     73.91917         7     0.792     0.574  63.73   0
       195    804.3809    583.1508 300.2826044 +22.7857994     1642.533     72.56925      1.079     1.89      4.05948     20.47399     311.7507        15     0.909     0.769  63.04   0
       196    675.6097    580.8845 300.2432242 +22.7465578     2485.552     72.51378      1.105     1.92     4.314437     20.47399     447.2928        20     0.924     0.850  76.31   0
       197    919.7995    578.0469 300.3202392 +22.8189137     680.5505     72.56925      1.510     2.63     3.798063     20.47399     73.58566         8     0.849     0.629 -85.92   3
       198    918.7415    573.8502 300.3212732 +22.8173911     888.7144     72.62469      1.333     2.63     3.814322     20.47399     117.6828        10     0.909     0.667  11.91   2
       199    885.2596    577.5816 300.3096224 +22.8084325     233.9628     72.53227      0.982     2.42     3.933654     20.47399     51.15531         6     0.670     0.624  71.35   0
       200    580.7224    577.7714 300.2146896 +22.7172214     337.2852     72.56925      1.012     2.11     4.605425     20.47399      76.2204         6     0.709     0.530  47.26   0
       201    462.8612    576.9496 300.1782737 +22.6816490     714.6146     72.62469      1.189     2.44     4.758451     20.47399     122.5021        12     0.910     0.763  70.90   0
       202    932.8638    574.8138 300.3253632 +22.8218985     1339.343     72.53227      1.165     1.95     3.772199     20.47399     236.3397        14     0.869     0.761  63.63   0
       203    804.5970    572.9920 300.2859732 +22.7829463      2288.16     72.38417      1.497     4.03      4.13107     20.47399     359.0048        22     1.657     0.796  71.89   0
       204    558.0094    571.5356 300.2096454 +22.7086222      630.046     72.55077      1.141     2.79     4.783206     20.47399     100.1237        10     1.004     0.617  70.97   0
       205    343.8137    571.6966 300.1429478 +22.6444412     437.9439     72.47678      1.309     3.00     4.273555     20.47399      57.1478         6     0.738     0.603 -68.88   0
       206    396.2971    570.3224 300.1597184 +22.6597866     481.1238     72.69852      1.250     3.07     4.496348     20.47399     68.25143         7     0.884     0.533  61.85   0
       207    842.8530    568.2887 300.2994241 +22.7930578     4168.641     72.58774      1.128     1.81     4.130877     20.47399     783.2748        25     0.969     0.882  29.04   0
       208    557.6285    567.3395 300.2108904 +22.7073035     399.9214     72.58774      1.378     2.88      4.79468     20.47399     54.27392         6     0.795     0.556  47.49   0
       209    934.7020    558.6584 300.3311865 +22.8178075     802.5768     72.66161      1.146     2.27     3.800705     20.47399       124.69        10     0.843     0.683  76.76   0
       210     74.5546    558.9054 300.0634150 +22.5599961     1069.789     72.58774      1.421     3.18     4.572287     20.47399      137.472        15     1.195     0.858  14.45   0
       211    874.1728    555.9523 300.3131953 +22.7988974      224.588     72.58774      1.071     3.75     4.168103     20.47399     40.97993         5     0.952     0.424 -41.15   0
       212    735.4540    552.4594 300.2711022 +22.7563301     263.2524     72.62469      1.073     3.87     4.339704     20.47399     56.22919         6     0.980     0.462 -53.67   0
       213    341.4704    552.1794 300.1485609 +22.6381380     265.4772     72.56925      1.098     2.11     4.438939     20.47399     48.74287         5     0.706     0.462 -69.28   0
       214    122.2477    551.0010 300.0807997 +22.5720395      204.997     72.56925      1.009     2.91     4.543202     20.47399      36.8265         5     0.787     0.484 -27.90   0
       215     67.1727    549.0781 300.0643150 +22.5549628     288.9801     72.56925      1.207     2.78      4.64304     20.47399     59.36546         6     0.870     0.463  55.23   0
       216    931.0218    547.7952 300.3335691 +22.8135839      329.202     72.53227      1.171     3.22     3.818767     20.47399     56.47275         8     0.855     0.732  59.88   0
       217    674.9726    542.7867 300.2554059 +22.7354269     328.5253     72.56925      1.055     2.07     4.278078     20.47399      85.4603         8     0.773     0.626 -41.66   0
       218    616.1821    538.9290 300.2383515 +22.7166987      771.384     72.58774      1.140     1.77     4.451821     20.47399     156.6737        11     0.877     0.682  77.85   0
       219    564.0690    540.4756 300.2216245 +22.7015219        325.9     72.64315      1.289     2.37     4.798792     20.47399     59.54207         5     0.724     0.450  22.52   0
       220   1023.4761    536.4406 300.3660915 +22.8380124     868.0743     57.53738      0.967     1.94     3.907461     20.47399     168.2495         9     0.809     0.596  80.00  24
       221    930.8985    531.2075 300.3389207 +22.8087808     541.8197     72.43975      1.127     1.92     3.953754     20.47399     129.0913        10     0.785     0.697  87.74   0
       222    676.9280    531.1110 300.2598086 +22.7326600     869.2948     72.73542      1.128     2.00     4.280146     20.47399     189.0539        10     0.835     0.660  85.27   0
       223    834.3242    527.1321 300.3101397 +22.7786798     930.7596     72.64315      1.118     1.86      4.36504     20.47399     207.4598        13     0.847     0.779  63.18   0
       224    818.4752    523.5709 300.3063573 +22.7729084     680.4062     72.58774      1.052     2.14     4.355905     20.47399     117.4047         8     0.777     0.607  54.11   0
       225    798.9652    523.9368 300.3001585 +22.7671682      328.374     72.56925      1.132     2.57     4.341093     20.47399     58.04768         7     0.845     0.524  43.06   0
       226    562.8311    521.6863 300.2273439 +22.6957563     3197.963     72.55077      1.108     1.96     4.796323     20.47399     593.3327        20     0.914     0.869  49.77   0
       227    923.1371    520.1330 300.3400991 +22.8032740     495.1135     72.62469      1.146     2.77      4.08869     20.47399     81.92398         8     0.825     0.677  11.32   0
       228    670.1205    514.6367 300.2630411 +22.7258889     85.30612     72.51378      0.974     3.38     4.285262     20.47399     32.07126         5     0.796     0.415 -20.98   0
       229     38.5243    513.1275 300.0670963 +22.5360564     338.5242     72.64315      1.387     3.71     4.679813     20.47399     37.56742         8     0.862     0.687 -30.82   0
       230    402.4757    508.8816 300.1816032 +22.6440062     421.8398     72.68008      1.040     2.49     4.678566     20.47399       62.632         6     0.747     0.493 -82.07   0
       231    334.7024    509.4790 300.1603293 +22.6238549     238.6903     72.69852      1.141     2.36     4.543615     20.47399     49.66381         5     0.678     0.486 -14.05   0
       232    974.1151    500.5728 300.3623503 +22.8129216     1276.409     72.56925      1.127     1.77     4.231514     20.47399     249.6874        15     0.937     0.789 -52.30   0
       233    932.4753    499.3123 300.3497753 +22.8000882     923.6962     72.69852      1.126     2.08     4.250031     20.47399     150.2408        11     0.783     0.743  56.66   0
       234    846.0167    500.3224 300.3224944 +22.7744805      390.243     72.56925      0.971     1.56     4.431057     20.47399     104.9425         7     0.630     0.579  81.80   0
       235    673.3731    495.5876 300.2702428 +22.7213929     1081.814     72.56925      1.034     1.93     4.276009     20.47399     180.4492        11     0.801     0.706 -82.64   0
       236    469.0427    496.2528 300.2064165 +22.6603393     345.0677     72.56925      1.191     1.84     4.871068     20.47399     77.32494         7     0.676     0.623 -20.39   0
       237    177.4754    493.9997 300.1164790 +22.5722571     506.2852     72.43975      1.113     2.33     4.523297     20.47399     117.3529         8     0.799     0.627  54.24   0
       238     17.1181    492.0455 300.0672964 +22.5235873     219.0697     72.55077      1.240     3.19     4.720394     20.47399     45.22482         5     0.756     0.656 -74.31   0
       239    239.7431    489.6775 300.1372368 +22.5896941     3716.307     72.60621      1.166     1.97     4.539745     20.47399     629.1946        23     1.001     0.884  60.80   0
       240    972.8126    487.8138 300.3660893 +22.8088648     4345.946     72.49528      1.188     1.97     4.351876     20.47399     804.6979        26     0.994     0.921  79.12   0
       241    186.9278    484.4778 300.1225096 +22.5723607     7703.399     72.68008      1.259     2.22      4.53098     20.47399     1116.355        31     1.115     0.941  65.88   0
       242    952.7908    478.7909 300.3627769 +22.8002755     1844.483     72.45826      1.181     2.07     4.417313     20.47399      335.159        15     0.980     0.778  83.70   0
       243    327.7213    478.6251 300.1681811 +22.6129069     4875.705     72.55077      1.158     2.03     4.582408     20.47399     782.2341        27     1.045     0.887  78.80   0
       244    571.9095    475.2235 300.2452643 +22.6851368      18239.1     72.49528      1.137     1.84     4.726701     20.47399     3478.399        45     1.078     0.942  80.92   0
       245    589.4345    475.1658 300.2507389 +22.6903727     761.8788     72.60621      1.749     5.93     4.625951     20.47399     92.25019        14     1.536     0.669 -44.15   0
       246    414.9427    475.1398 300.1964425 +22.6380592     172.0541     72.64315      1.246     3.26     4.805741     20.47399     34.66943         5     0.785     0.509  57.53   0
       247    198.3243    473.3837 300.1296551 +22.5725962     316.1573     72.56925      1.135     3.45     4.538947     20.47399     45.42775         5     0.730     0.470  12.78   0
       248    815.2861    471.5026 300.3222793 +22.7569946      226.929     72.73542      1.094     3.61     4.384929     20.47399     46.35373         6     0.873     0.631  70.75   0
       249    768.7980    465.3262 300.3097994 +22.7412932     351.5621     72.47678      1.025     1.90     4.334271     20.47399     65.36517         6     0.684     0.533 -51.07   0
       250    191.6909    462.2992 300.1311937 +22.5674262     254.6073     72.73542      1.141     3.19     4.539062     20.47399     52.10196         6     0.969     0.404  75.20   0
       251    919.0398    459.5008 300.3585194 +22.7846238     118.8417     72.56925      1.265     4.04     4.441996     20.47399     35.37608         5     1.089     0.428 -64.90   0
       252    905.5385    457.5290 300.3549505 +22.7800135     866.1521     72.60622      1.237     2.25     4.461843     20.47399     134.6422        11     1.046     0.648 -59.02   0
       253    441.9425    456.9411 300.2107538 +22.6409296     331.8436     72.64315      1.241     4.38     4.842978     20.47399     55.30402         6     0.906     0.603  27.72   0
       254    126.5757    455.6149 300.1131301 +22.5459769     1989.218     72.58774      1.272     2.38     4.562881     20.47399     274.5883        18     1.023     0.874  33.28   0
       255    512.5500    444.6978 300.2367024 +22.6585800      6479.85     72.64315      1.097     1.93     4.876261     20.47399     1053.972        29     1.015     0.879  71.30   0
       256    926.1559    444.8943 300.3654826 +22.7825574     1040.325     72.58774      1.091     1.76     4.438828     20.47399     248.3939        11     0.810     0.671  59.70   0
       257    227.2765    444.2491 300.1481168 +22.5729200     661.7134     72.56925      1.135     2.31     4.566004     20.47399      106.283        10     0.986     0.626  73.98   0
       258     85.0133    437.5433 300.1060865 +22.5283248     587.0775     72.55077      1.513     2.45     4.606715     20.47399      87.4641        10     0.963     0.601  65.59   0
       259    772.5612    436.3157 300.3203949 +22.7340863     392.7036     72.55077      1.283     3.44      4.31354     20.47399     54.94892         5     0.722     0.474 -74.33   0
       260    626.2528    434.6177 300.2753731 +22.6897619     607.9636     72.55077      1.169     2.04      4.61246     20.47399     108.5503        10     0.834     0.676  89.76   0
       261    716.7091    433.5202 300.3039022 +22.7165505     1219.327     72.68008      1.245     2.72     4.288097     20.47399     193.5659        13     1.002     0.690  86.01   0
       262    419.2094    431.0360 300.2120946 +22.6266778     6021.469     72.56925      1.197     1.98     4.814102     20.47399     1089.998        28     1.009     0.944  59.60   0
       263    908.4760    425.4492 300.3662861 +22.7716743     495.1975     72.56925      1.003     2.32     4.470045     20.47399     94.35703         8     0.903     0.494  84.54   0
       264    810.9636    425.0725 300.3360132 +22.7423598      1391.08     72.51378      1.200     1.96     4.352868     20.47399     261.5829        12     1.048     0.682  60.03   0
       265    403.8057    419.5432 300.2110349 +22.6187607     385.4355     72.53227      1.064     2.79     4.828867     20.47399       74.739         7     0.839     0.582 -79.35   0
       266    486.2675    417.7485 300.2372751 +22.6429642     405.2951     72.58774      1.158     2.54     4.887655     20.47399     54.26072         6     0.714     0.560 -51.36   0
       267    764.7836    416.3531 300.3244550 +22.7260211     234.8309     72.60621      1.092     3.79     4.293451     20.47399     52.99943         5     0.884     0.466 -47.99   0
       268    466.5853    415.1156 300.2320054 +22.6363087     194.3959     72.53227      1.192     2.87     4.871429     20.47399     49.35868         6     0.884     0.524  20.18   0
       269     30.1402    414.3998 300.0965577 +22.5052245     193.2626     72.51378      1.367     3.47     4.612384     20.47399     32.97638         5     0.832     0.417  20.87   0
       270    784.0385    412.7956 300.3316099 +22.7307669     425.6649     72.58774      1.057     2.00     4.304555     20.47399     107.2256         7     0.680     0.634 -60.05   0
       271    306.7210    410.2822 300.1838469 +22.5869952     2518.536     72.69852      1.175     2.19     4.695791     20.47399     389.5742        20     1.022     0.846  86.94   0
       272     25.1293    407.8945 300.0971138 +22.5018552     1038.789     72.68008      1.263     2.69      4.61322     20.47399     133.6857        12     0.888     0.842 -76.96   0
       273    276.0837    399.7430 300.1777431 +22.5747839      29385.7     72.66161      1.223     2.06      4.65149     20.47399     4994.344        66     1.185     1.072  72.06   0
       274    810.7322    397.0424 300.3450442 +22.7342364     1356.957     72.55077      1.164     1.84     4.335529     20.47399     266.0338        17     0.986     0.827  66.58   0
       275    849.0896    386.4285 300.3604456 +22.7426748     310.3467     72.55077      1.264     4.72     4.401754     20.47399     40.72392         7     1.039     0.608 -39.54   2
       276    725.9954    385.8122 300.3222884 +22.7056269     608.7884     72.43975      1.126     2.01     4.254107     20.47399     99.03895         8     0.737     0.620  62.80   0
       277    150.1107    385.7051 300.1431451 +22.5329784     420.7717     72.75386      1.241     3.64     4.536713     20.47399     53.74562         7     0.878     0.570 -82.50   0
       278    374.4263    384.9244 300.2131375 +22.6000149     399.2262     72.58774      1.042     2.17     4.888607     20.47399     86.14338         7     0.765     0.582  63.78   0
       279    686.4283    379.2939 300.3120798 +22.6919007     1929.775     72.47678      1.074     2.15     4.277291     20.47399      302.631        14     0.896     0.720  71.13   0
       280    494.7009    374.0576 300.2540871 +22.6329462     359.2287     72.66161      1.192     1.82     4.789629     20.47399     74.65117         5     0.685     0.427 -72.08   0
       281    901.5655    371.8217 300.3815469 +22.7541920     685.2849     72.58774      1.185     2.39     4.380129     20.47399     95.73808        10     0.818     0.729 -86.08   0
       282    348.1548    363.9550 300.2117747 +22.5861193     2079.719     72.60621      1.337     2.90     4.937115     20.47399     274.3865        19     1.325     0.722  64.42   0
       283    560.4749    362.5513 300.2782957 +22.6493529     383.2961     72.56925      1.028     3.10      4.63238     20.47399     54.64587         7     0.935     0.479  79.96   0
       284    787.4870    356.6744 300.3509083 +22.7156741     574.8436     72.71698      1.060     2.57     4.283072     20.47399      104.987         5     0.696     0.461  68.31   0
       285    669.5587    354.3768 300.3149160 +22.6796886     361.3586     72.60621      0.968     2.08     4.303555     20.47399     78.84093         5     0.666     0.450  64.70   0
       286    637.9435    353.7730 300.3052661 +22.6700434     303.5649     72.56925      1.195     2.21     4.413028     20.47399     62.94415         6     0.824     0.452  38.16   0
       287    138.3708    345.1017 300.1526793 +22.5178065     265.0362     72.49528      1.245     3.39     4.540673     20.47399     34.74934         5     0.764     0.435  70.51   0
       288    424.1320    343.3568 300.2420960 +22.6029800     1143.047     72.55077      1.138     1.99     4.804852     20.47399      199.732        12     0.829     0.728  70.00   0
       289    231.2289    343.5032 300.1820580 +22.5451929     235.7897     72.51378      1.023     3.55     4.788146     20.47399     45.00121         5     0.840     0.572 -50.06   0
       290    935.5284    339.2629 300.4027077 +22.7550029     311.7552     72.60621      0.943     2.14     4.354995     20.47399     65.63533         6     0.806     0.440  -1.20   0
       291    668.9938    335.1377 300.3209862 +22.6739921     2229.443     72.55077      1.172     1.83      4.30166     20.47399     440.3299        20     1.027     0.805  56.63   0
       292    930.2340    329.4409 300.4042456 +22.7505943     3073.349     72.62469      1.103     1.87     4.353759     20.47399     546.8536        23     0.982     0.863 -89.08   0
       293    476.7330    327.8549 300.2634956 +22.6142933     252.5036     72.62469      1.354     4.81     4.784681     20.47399     31.93084         6     0.989     0.662 -60.64   0
       294    991.4400    324.0223 300.4250917 +22.7673609     397.8921     72.60621      1.252     2.24     4.428873     20.47399     66.65369         6     0.736     0.490  81.75   0
       295    377.1670    319.0327 300.2353821 +22.5819188     559.5844     72.64315      1.094     1.84     4.962698     20.47399     133.3227        10     0.828     0.643  63.02   0
       296    999.4863    317.2369 300.4298041 +22.7678188     1546.654     72.55077      1.156     2.28     4.441778     20.47399     222.4536        17     1.025     0.788  54.65   0
       297     82.6942    313.6909 300.1455772 +22.4920956     638.8455     72.73542      1.439     3.73     4.611789     20.47399     76.94058        13     1.148     0.818  79.56   0
       298     52.1478    313.3845 300.1361879 +22.4828463     1468.542     72.55077      1.611     3.45     4.611789     20.47399     155.3015        18     1.201     0.931 -30.29   0
       299    945.9611    309.5595 300.4156039 +22.7495875     521.5121     72.64315      1.161     1.62     4.383721     20.47399     119.2227        10     1.007     0.593 -61.29   0
       300    789.9395    306.7026 300.3678959 +22.7020480     294.0451     72.64315      1.160     3.77     4.306057     20.47399     44.48503         6     0.923     0.441  40.74   0
       301    135.7001    305.1490 300.1648183 +22.5055404     468.8366     72.66161      1.357     3.93     4.477788     20.47399     60.54385        10     1.061     0.640  27.47   0
       302    931.1713    302.5155 300.4132788 +22.7431345     289.3992     72.56925      1.059     2.92     4.370502     20.47399     58.40121         6     0.866     0.542 -66.62   0
       303    812.2258    298.7359 300.3774271 +22.7064325     309.5417     72.55077      1.040     2.29     4.323396     20.47399     72.46588         8     0.828     0.605  12.68   0
       304    740.3772    296.4455 300.3557826 +22.6842567     656.2718     72.60621      1.028     2.14     4.291474     20.47399     101.6556         9     0.842     0.610  81.63   0
       305    331.1115    296.5369 300.2283596 +22.5616550     379.5995     72.66161      1.006     1.98      4.80039     20.47399     73.68234         6     0.662     0.593  60.49   0
       306    831.0784    289.6242 300.3862604 +22.7094591     296.0711     72.55077      0.992     2.98     4.342314     20.47399     48.81639         8     0.892     0.666 -76.85   0
       307    838.6482    285.5776 300.3899332 +22.7105627     1933.296     72.58774      1.058     1.89     4.351709     20.47399     347.8118        15     0.875     0.775  46.72   0
       308    257.2968    283.2033 300.2097349 +22.5356997      2192.36     72.47678      1.199     2.13     4.374817     20.47399      329.566        17     0.942     0.860 -84.62   0
       309    335.1382    278.2445 300.2355490 +22.5576099     918.8804     72.58774      1.289     2.84     4.831085     20.47399     139.1694        14     1.018     0.788 -71.30   0
       310    736.8722    277.1735 300.3609461 +22.6776688     528.4278     72.56925      1.097     2.36     4.313993     20.47399     125.7832        12     0.928     0.793  87.56   0
       311     86.9583    278.4383 300.1583436 +22.4832585     336.4687     72.66161      1.369     2.44     4.684536     20.47399     64.68556         6     0.717     0.647  27.67   0
       312    844.4985    274.1185 300.3954761 +22.7090207     514.8069     72.71698      1.301     3.10     4.363022     20.47399     82.63519         9     1.022     0.705  23.73   0
       313    269.8607    270.1348 300.2178824 +22.5357143     208.7734     72.60621      1.109     3.99     4.425777     20.47399     57.90571         6     1.132     0.402  61.37   0
       314    151.8840    270.4022 300.1811245 +22.5004210     803.1942     72.49528      1.321     2.93      4.51184     20.47399     103.9097        12     0.981     0.772  50.19   0
       315    689.7325    267.0566 300.3495449 +22.6606428     1694.984     72.60621      1.189     1.99     4.303689     20.47399     292.2845        16     0.924     0.835  31.96   0
       316    754.7851    266.4567 300.3700053 +22.6799536     584.5466     72.55077      1.110     2.01     4.335553     20.47399     103.2119         9     0.789     0.640  67.51   0
       317    173.3975    263.4098 300.1900795 +22.5048645     650.7894     72.38418      1.303     2.22     4.531194     20.47399     81.41615         7     0.749     0.608 -16.12   0
       318    961.3443    259.3400 300.4367019 +22.7397541     898.0886     72.64315      1.171     2.42     4.563695     20.47399     132.3275        13     0.922     0.851  69.75   0
       319    462.8349    259.4217 300.2813829 +22.5904745      325.175     72.58774      1.140     3.58     4.890898     20.47399     73.45509         6     1.011     0.621 -55.05   0
       320    693.8779    258.4617 300.3536257 +22.6594146     713.7608     72.64315      1.083     2.06     4.309786     20.47399     126.8712        10     0.855     0.676  49.97   0
       321    614.1886    257.7430 300.3290409 +22.6353385     1168.905     72.53227      1.159     2.15     4.253252     20.47399     186.4597        14     0.952     0.729  77.40   0
       322    435.4678    254.0322 300.2746164 +22.5807259      343.567     72.56925      1.154     3.38     4.935925     20.47399     46.78584         6     0.781     0.492  82.22   0
       323    809.7467    249.0908 300.3927679 +22.6914209      1589.33     72.62469      1.179     1.88     4.383338     20.47399     279.4334        17     1.065     0.752  70.30   0
       324    540.5389    249.6273 300.3087452 +22.6109431     910.7173     72.56925      1.034     2.22     4.452825     20.47399     169.1922        11     0.951     0.598  74.26   0
       325    821.9240    248.1083 300.3968818 +22.6947847     831.6619     72.71698      1.168     1.96     4.382812     20.47399      146.846        10     0.828     0.682 -69.05   0
       326    868.2205    247.0193 300.4116656 +22.7083333     285.8817     72.56925      1.128     3.25     4.379376     20.47399     54.45857         6     0.768     0.526 -56.67   0
       327    992.9440    245.0607 300.4511913 +22.7451070     245.8992     72.64315      1.019     2.60     4.812555     20.47399     47.24623         5     0.649     0.546  88.41   0
       328    982.6533    239.0800 300.4499227 +22.7403070       1656.7     72.60621      1.169     1.97     4.800344     20.47399     258.2184        17     0.993     0.802  79.67   0
       329    938.6489    238.3189 300.4364469 +22.7269162     1040.046     72.60621      1.133     2.35     4.531169     20.47399      163.716        14     0.969     0.776 -85.43   0
       330    172.5517    231.9554 300.2000236 +22.4955822     846.2637     72.60621      1.283     2.69     4.729875     20.47399      107.325        13     0.978     0.797  88.46   0
       331     34.5017    226.8089 300.1588028 +22.4527117     2093.154     72.43975      1.334     2.41     5.021816     20.47399     284.3377        20     1.057     0.906  69.70   0
       332    857.6652    223.4424 300.4160265 +22.6983951     774.9791     72.55077      1.167     2.18     4.398073     20.47399     119.4487        10     0.853     0.637  83.96   0
       333    191.8815    220.1101 300.2098748 +22.4979768       5561.5     72.68008      1.274     2.11     4.781777     20.47399     863.1516        31     1.107     0.984  60.53   0
       334     55.0424    230.6534 300.1639355 +22.4599747     331.9828     72.56925      1.677     2.46     4.995362     20.47399     44.38568         5     0.840     0.475   2.13   0
       335    175.3186    210.6650 300.2077916 +22.4903001      514.009     72.68008      1.048     2.13     4.800961     20.47399     93.72108         8     0.794     0.621  12.71   0
       336    990.7148    207.1744 300.4627907 +22.7335449     18038.27     72.53227      1.193     2.12     4.965845     20.47399     2721.622        48     1.142     0.986  77.50   0
       337    835.9239    201.2792 300.4164415 +22.6855144     3449.179     72.68008      1.147     1.93     4.584127     20.47399     600.5001        24     1.030     0.843  78.33   0
       338    939.6309    199.9375 300.4492079 +22.7161739      2663.53     72.58774      1.191     2.15     4.690816     20.47399     425.9549        22     1.029     0.857  68.27   0
       339    385.4515    196.5919 300.2776945 +22.5492408     666.0284     72.56925      1.119     2.35     4.974702     20.47399     86.89408        10     0.811     0.735 -75.42   0
       340    138.2385    197.2534 300.2006197 +22.4753337      341.843     72.56925      1.136     2.47     4.910925     20.47399     59.71533         6     0.709     0.565  52.94   0
       341    178.8187    195.0051 300.2139601 +22.4868538     1225.979     72.53227      0.538     0.90     4.827645     20.47399     817.3457         7     0.438     0.397   0.18   0
       342    499.3914    194.4250 300.3138502 +22.5827573     294.8414     72.56925      1.130     2.88     4.894411     20.47399     52.49744         5     0.733     0.445  69.80   0
       343    309.4401    188.5490 300.2566626 +22.5241522      570.887     72.58774      1.231     2.88     4.821894     20.47399     74.05793         8     0.934     0.563  51.47   0
       344    313.5079    186.9678 300.2584406 +22.5249172     476.5532     72.51378      1.211     2.97     4.839749     20.47399       54.076         6     0.773     0.498 -85.89   0
       345     75.7857    185.7761 300.1849393 +22.4533149     629.3842     72.58774      1.205     2.24     5.040695     20.47399     105.4963        11     0.858     0.746  59.28   0
       346    436.6898    183.9932 300.2977228 +22.5609750     1530.301     72.47678      1.169     2.11     5.026219     20.47399     279.4074        16     0.960     0.789  82.12   0
       347    364.2684    184.4041 300.2750595 +22.5393927     508.0146     72.53227      1.221     5.09     4.975126     20.47399     76.14824         9     1.453     0.505  33.69   0
       348    498.4479    183.1197 300.3172244 +22.5792268     544.7208     72.58774      1.465     3.46     4.918743     20.47399     64.07613         9     0.947     0.728  84.82   0
       349    260.6587    179.9259 300.2442921 +22.5070559     259.5955     72.60621      1.066     2.24     4.787167     20.47399     56.49258         5     0.726     0.422  68.58   0
       350    179.9754    179.4982 300.2193503 +22.4827488     418.3906     72.49528      1.363     3.05     4.854604     20.47399     53.30654         8     0.858     0.651  49.17   0
       351    724.9026    172.8021 300.3910857 +22.6440872     332.0609     72.47678      1.126     2.42     4.793179     20.47399     78.16173         7     0.833     0.544  81.17   0
       352    871.1345    167.8045 300.4382778 +22.6864309     361.5958     72.56925      1.343     1.94     4.798537     20.47399     61.66434         6     0.711     0.523 -41.60   0
       353   1001.1755    164.4622 300.4799117 +22.7243915     3516.103     72.55077      1.210     2.10      4.99612     20.47399     589.6752        24     1.018     0.908  64.63   2
       354    210.8419    163.8745 300.2340126 +22.4875155       5937.1     72.55077      1.294     2.27     4.828901     20.47399     912.2926        27     1.126     0.920  77.95   0
       355    717.0475    164.1849 300.3914342 +22.6392581      286.502     72.60621      1.108     2.45     4.834091     20.47399     67.80549         6     0.761     0.561 -77.21   0
       356     61.9480    163.4860 300.1878715 +22.4427682     797.0603     72.58774      1.487     2.28     5.041103     20.47399     106.2985        12     0.902     0.749  82.57   0
       357    325.2778    163.4745 300.2697224 +22.5216976     181.9769     72.68008      1.036     3.40     4.922329     20.47399     35.95133         5     0.751     0.447  21.70   0
       358    839.9435    160.8981 300.4307959 +22.6751081      384.502     72.66161      1.062     1.60     4.886172     20.47399     105.1074         6     0.672     0.490  55.87   0
       359    182.4982    158.0771 300.2270833 +22.4773551     263.5333     72.69852      1.039     2.35     4.906723     20.47399     53.39959         6     0.749     0.499  86.11   0
       360    686.5638    154.7682 300.3849932 +22.6274233     245.7855     72.60621      0.990     2.28     4.788994     20.47399     57.59017         5     0.712     0.425  63.37   0
       361    225.9657    154.9380 300.2416126 +22.4894826     323.9827     72.58774      1.236     2.70     4.829361     20.47399     55.59697         6     0.734     0.566  49.32   0
       362    456.8940    149.1674 300.3153072 +22.5570239     6191.928     72.51378      1.246     2.05     4.970875     20.47399     1001.505        29     1.091     0.919  83.52   0
       363    342.2316    149.0688 300.2796681 +22.5226407     716.5872     72.55077      1.284     2.36     4.943223     20.47399     106.3551        10     0.856     0.687  36.49   0
       364    513.9280    143.8518 300.3347812 +22.5725821     279.9935     72.56925      0.983     2.54     4.982068     20.47399     53.76558         7     0.832     0.534  48.24   0
       365    210.1836    143.2167 300.2405088 +22.4813868     313.1226     72.53227      1.298     2.80     4.928608     20.47399     36.94424         6     0.735     0.562  51.64   0
       366    709.3400    139.1498 300.3971545 +22.6297541     879.6068     72.62469      1.512     6.49     5.014809     20.47399     102.5297        15     1.530     0.773 -73.70   0
       367    650.5803    140.1994 300.3785118 +22.6124605     310.9717     72.49528      1.171     1.91     4.887367     20.47399     48.41787         5     0.665     0.462 -68.86   0
       368    801.6979    137.7300 300.4263918 +22.6569976     371.0794     72.69852      1.268     2.01     5.103312     20.47399     69.57903         5     0.708     0.427  72.54   0
       369    869.6198    135.1562 300.4483970 +22.6765897     220.2848     72.60621      1.179     2.03     4.886345     20.47399     45.33432         5     0.681     0.458 -71.27   0
       370    110.2389    134.6532 300.2122263 +22.4489695     305.2041     72.56925      1.185     3.42     5.218601     20.47399     37.08778         5     0.743     0.455 -13.67   0
       371    149.5629    133.0158 300.2249766 +22.4602874     538.4964     72.56925      1.316     2.93     5.211978     20.47399     65.60772         8     0.802     0.699  40.10   0
       372    585.1693    129.1967 300.3617123 +22.5897092     6192.922     72.53227      1.197     1.94     5.023184     20.47399     1073.728        30     1.042     0.918  80.87   0
       373    508.1153    131.3975 300.3370118 +22.5672625     518.4212     72.49528      1.261     2.13     4.976466     20.47399     68.41692         7     0.685     0.637   5.02   0
       374    360.0859    128.3205 300.2919514 +22.5220311     1547.987     72.73542      1.239     2.06     4.892074     20.47399     240.2086        16     0.986     0.871 -45.32   0
       375    626.3362    126.4048 300.3754363 +22.6012356     880.1113     72.55077      1.080     2.19     5.007789     20.47399     151.2781        13     0.931     0.755  76.60   0
       376    696.1154    123.9568 300.3979631 +22.6214271     313.9986     72.53227      1.138     1.72     5.121779     20.47399     73.89638         6     0.683     0.516 -55.46   0
       377    642.2188    122.5038 300.3816477 +22.6048706     768.9994     72.47678      1.200     2.29     5.055341     20.47399      90.1075        10     0.859     0.684  81.23   0
       378    109.1655    120.5384 300.2164708 +22.4445956     748.0114     72.58774      1.335     2.40       5.3241     20.47399     100.6015        12     0.917     0.757  59.72   0
       379    912.3237    119.9815 300.4666327 +22.6850075     565.8209     72.56925      1.197     2.31     4.890489     20.47399     85.97133         9     0.893     0.584  37.73   0
       380    951.3032    119.3405 300.4789951 +22.6964888     324.0272     72.64315      0.943     3.36     4.916446     20.47399     55.12231         5     0.858     0.395  45.66   0
       381    680.7770    118.0524 300.3951005 +22.6151371     547.4971     72.58774      1.109     1.86     5.158028     20.47399     109.9231         8     0.749     0.594  52.03   0
       382    629.4161    114.0104 300.3804155 +22.5985956     2684.931     72.49528      1.178     2.03     5.128846     20.47399     434.0575        19     1.016     0.782  63.19   0
       383    270.1073    114.7274 300.2683783 +22.4911649     451.8852     72.69852      1.258     2.93     4.858642     20.47399     71.48744         8     1.093     0.472  63.18   0
       384    644.6606    112.7511 300.3855714 +22.6027987     899.8932     72.62469      1.636     4.53     5.161851     20.47399     110.6008        17     1.499     0.730  47.47   0
       385    715.8233    105.4860 300.4100934 +22.6220182     1507.691     72.51378      1.155     2.02     5.314918     20.47399     276.5979        17     1.069     0.774  76.01   0
       386    876.2301    103.8097 300.4606253 +22.6695541     318.7763     72.56925      1.213     3.02     4.927562     20.47399     51.32784         7     0.842     0.587  30.43   0
       387    653.8141     98.5329 300.3930336 +22.6014529     861.4268     72.55077      1.366     2.55     5.322989     20.47399     128.6092        11     1.010     0.677  87.10   0
       388    459.4793     98.2023 300.3326422 +22.5431561     1132.094     72.47678      1.175     2.24     4.777855     20.47399     151.4245        15     0.934     0.831 -66.23   0
       389     32.5364     98.0096 300.1999720 +22.4151561     537.4888     72.53227      1.281     2.81     5.369779     20.47399     67.61263         8     0.847     0.637  40.90   0
       390    363.1890     96.3436 300.3032877 +22.5137756      784.849     72.55077      1.215     2.55     4.763104     20.47399     99.40765        11     0.926     0.711  84.60   0
       391   1006.2704     92.9144 300.5047096 +22.7053360     2219.124     72.68008      1.229     1.98     5.058847     20.47399     403.2419        22     1.100     0.847  72.59   0
       392    745.4711     94.6985 300.4228288 +22.6277931     447.2315     72.71698      1.272     2.43     5.388601     20.47399      75.4797         9     0.840     0.724  74.81   0
       393    134.6473     86.4952 300.2354289 +22.4424601     3726.741     72.58774      1.318     2.43     5.553796     20.47399     510.9761        26     1.127     0.963  63.87   0
       394    702.8347     86.7673 300.4121181 +22.6127482     582.6104     72.62469      1.198     2.20     5.410216     20.47399     108.6608         9     0.859     0.626  81.07   0
       395    557.0237     83.4506 300.3677866 +22.5681333     397.2716     72.56925      1.247     2.89      5.19565     20.47399     57.92941         7     1.002     0.527  59.52   0
       396    460.3463     83.8811 300.3375564 +22.5393010     316.8206     72.60621      1.211     3.35     4.773583     20.47399     40.77214         5     0.777     0.419 -69.87   0
       397    250.6366     78.6306 300.2740309 +22.4749634     1156.126     72.58774      1.233     2.43     5.155014     20.47399     157.2994        15     1.063     0.794  50.92   0
       398    695.9274     78.6800 300.4125892 +22.6083553     872.2513     72.69852      1.213     2.34      5.43371     20.47399     147.6234        11     0.921     0.666  69.73   0
       399    182.3516     78.3082 300.2529089 +22.4544071     157.1991     72.60621      1.048     3.83     5.479794     20.47399     37.12027         5     0.888     0.474  44.25   0
       400    789.1548     75.5087 300.4426639 +22.6353526     222.5473     72.55077      1.186     3.23     5.450988     20.47399     43.43761         5     0.951     0.351 -84.19   0
       401    733.8014     73.3562 300.4261144 +22.6181635     750.5933     72.56925      1.513     4.37      5.45133     20.47399     86.58559        12     1.292     0.752  77.47   0
       402    657.3893     73.4811 300.4022716 +22.5953222     524.3432     72.53227      1.066     2.30     5.402802     20.47399      75.8611         9     0.893     0.587  84.38   0
       403    753.8483     69.9348 300.4334699 +22.6231811     2203.984     72.58774      1.199     1.99     5.462523     20.47399     403.2851        17     1.001     0.750  83.22   0
       404    459.5486     68.3714 300.3423377 +22.5346056     526.8188     72.58774      1.238     2.74     4.772566     20.47399     68.63772         8     0.882     0.609 -72.51   0
       405    137.2200     65.4029 300.2430679 +22.4371750     974.9287     72.51378      1.430     3.02     5.584021     20.47399     136.6294        17     1.227     0.808 -26.02   0
       406    928.7215     63.2141 300.4901568 +22.6735878     799.9199     72.58774      1.171     2.08     4.902795     20.47399     122.3481        10     0.883     0.635  54.70   0
       407    702.2166     62.5590 300.4197762 +22.6056036     865.7407     72.58774      1.065     2.12     5.480697     20.47399     167.4149        10     0.851     0.605  83.31   0
       408    409.4597     60.7250 300.3292322 +22.5174048     387.5758     72.62469      1.173     3.26     4.763732     20.47399     55.59325         7     0.939     0.466  77.47   0
       409    459.7132     54.6308 300.3468445 +22.5307067     350.7881     72.55077      1.230     3.66      4.77174     20.47399     45.33917         7     0.906     0.558  60.33   0
       410    286.9372     52.2306 300.2938781 +22.4782581     250.6211     72.58774      1.145     2.37     5.421229     20.47399     61.51309         7     0.724     0.649  17.24   0
       411    787.4126     46.0888 300.4516612 +22.6263715     292.1277     72.51378      1.089     2.34     5.533082     20.47399     59.91566         6     0.772     0.483  80.87   0
       412    689.9524     45.1852 300.4215896 +22.5969371     267.4922     72.60621      1.177     2.02     5.533558     20.47399     61.73015         5     0.728     0.463  64.65   0
       413    554.6309     47.1846 300.3788018 +22.5569939     913.9333     72.56925      1.246     2.46     4.958523     20.47399     112.7975        12     0.871     0.802  22.37   0
       414    164.2663     44.8037 300.2581520 +22.4393658     442.3575     72.55077      1.187     3.27      5.63746     20.47399     71.89714        10     0.993     0.694 -44.81   0
       415    717.9742     42.1945 300.4312884 +22.6044661     525.3838     72.55077      1.091     2.04     5.542368     20.47399     105.2539         9     0.742     0.672  24.21   0
       416    526.4744     40.4379 300.3722245 +22.5466229     1896.098     72.51378      1.180     2.16     4.826992     20.47399     266.1311        19     0.989     0.854  77.60   0
       417    249.2492     38.0476 300.2867586 +22.4628918     656.7614     72.60621      1.181     2.93     5.621173     20.47399      96.4884         9     0.928     0.637  59.87   0
       418    483.7452     34.3751 300.3608910 +22.5320838     1538.713     72.60621      1.294     2.14     4.775387     20.47399     209.2211        19     1.076     0.904 -78.71   0
       419    589.0421     30.8948 300.3947970 +22.5626160     1413.755     72.58774      1.287     2.14     5.107948     20.47399     230.0454        17     1.042     0.862  19.17   0
       420    184.0621     29.8698 300.2691462 +22.4410096     493.6929     72.60621      1.321     3.05      5.67712     20.47399     62.67689         8     0.916     0.610  55.85   0
       421    233.0225     27.8691 300.2850139 +22.4551062     453.1161     72.58774      1.372     2.45     5.728823     20.47399     72.57449        10     0.856     0.729 -88.48   0
       422    929.2451     27.1320 300.5020201 +22.6633656     226.5523     72.55077      1.238     3.47     4.902795     20.47399     40.74048         5     0.717     0.699 -72.50   0
       423    409.5258     24.9655 300.3408473 +22.5071501     2160.157     72.55077      1.228     2.31     4.764311     20.47399     288.7442        18     1.042     0.800  66.07   0
       424     56.7278     22.9015 300.2318394 +22.4008460     1384.032     72.69852      1.361     2.35     5.455124     20.47399     207.5799        20     1.115     0.947  83.92   0
       425    900.4950     22.0657 300.4946986 +22.6533054     338.3769     72.69852      1.248     3.14     4.899557     20.47399     44.54178         6     0.776     0.499  87.18   0
       426    540.6254     19.4539 300.3834330 +22.5448296     548.1254     72.58774      1.248     2.49      4.69217     20.47399     63.11293         6     0.795     0.483  87.40   0
       427    199.5290     17.1436 300.2780795 +22.4419895     292.1993     72.58774      1.483     3.50     5.772995     20.47399     45.13036         6     0.971     0.494  84.95   0
       428     45.3694     17.8346 300.2299537 +22.3959866     271.2532     72.58774      1.563     4.47     5.416389     20.47399     28.60522         5     1.151     0.494 -34.63   0
       429    678.4320     16.0003 300.4274638 +22.5850975     249.3698     72.53227      1.546     4.74     5.618722     20.47399     29.10269         5     1.075     0.593  15.20   0
       430    884.3664     13.3461 300.4924973 +22.6459710     511.1064     72.58774      1.352     3.42     4.893659     20.47399     55.47909         5     0.765     0.442  72.18   0
       431    545.3524    997.6271 300.0671178 +22.8270835     359.9967     72.58774      1.430     4.16     2.969641     20.47399      40.9428         6     0.882     0.559  43.22   0
       432    393.2280    996.5953 300.0201219 +22.7811338     294.6714     72.53227      1.511     3.52     3.695327     20.47399     37.52974         5     0.750     0.477 -11.62   0
