#   1 NUMBER                 Running object number                                     
#   2 X_IMAGE                Object position along x                                    [pixel]
#   3 Y_IMAGE                Object position along y                                    [pixel]
#   4 ALPHA_J2000            Right ascension of barycenter (J2000)                      [deg]
#   5 DELTA_J2000            Declination of barycenter (J2000)                          [deg]
#   6 FLUX_APER              Flux vector within fixed circular aperture(s)              [count]
#   7 FLUXERR_APER           RMS error vector for aperture flux(es)                     [count]
#   8 FLUX_RADIUS            Fraction-of-light radii                                    [pixel]
#   9 FWHM_IMAGE             FWHM assuming a gaussian core                              [pixel]
#  10 BACKGROUND             Background at centroid position                            [count]
#  11 THRESHOLD              Detection threshold above background                       [count]
#  12 FLUX_MAX               Peak flux above background                                 [count]
#  13 ISOAREA_IMAGE          Isophotal area above Analysis threshold                    [pixel**2]
#  14 A_IMAGE                Profile RMS along major axis                               [pixel]
#  15 B_IMAGE                Profile RMS along minor axis                               [pixel]
#  16 THETA_IMAGE            Position angle (CCW/x)                                     [deg]
#  17 FLAGS                  Extraction flags                                          
         1    582.6435     14.9048 300.3948902 +22.5626589     1370.362     72.36144      1.378     2.63     5.063129     20.41016     163.4925        18     1.054     0.929 -81.15   0
         2    177.9179     13.9595 300.2692816 +22.4411663     503.4169     72.30615      1.425     3.31     5.188684     20.41016     52.83918        10     0.910     0.748 -84.48   0
         3    226.3970     11.8984 300.2850205 +22.4550995     286.2184     72.23238      1.251     4.28     5.249871     20.41016     55.06544         8     1.080     0.683  46.54   0
         4    402.8571      8.9675 300.3408539 +22.5071162     2314.925     72.36144      1.433     2.43     5.012757     20.41016     295.7455        25     1.151     0.995  66.81   0
         5     50.0571      6.9502 300.2318207 +22.4008376     1555.045     72.39828      1.641     3.05     4.794452     20.41016     142.7056        23     1.352     0.933  47.98  16
         6    893.4283      6.2481 300.4945356 +22.6531865     279.3618     72.36144      1.346     3.47     4.816929     20.41016     28.27393         5     0.748     0.465  73.31   0
         7    534.0191      3.5046 300.3834465 +22.5448236      451.675     66.96525      1.434     3.58      5.09439     20.41016     49.58752        10     1.001     0.660  68.03  16
         8     56.8138   1012.7401 299.9072143 +22.6913337     1191.173     72.30615     12.099    16.18     47.69521     20.41016     38.88337        28     5.638     1.290 -21.51  19
         9    609.1371   1020.4407 300.0764720 +22.8593332     6822.415     70.58967      1.734     3.45     2.696092     20.41016     493.2164        43     1.378     1.325  37.55  24
        10    172.6784   1020.1146 299.9408112 +22.7282410      1319.87     71.54629      6.995    12.59     16.35432     20.41016     44.35592        30     2.812     1.569  61.12  19
        11    180.9332   1022.1321 299.9427198 +22.7312977     2190.918     64.32538      9.665    24.10     14.94555     20.41016     65.38194       100     5.046     3.197 -59.84  27
        12    189.1896   1017.4142 299.9468215 +22.7324249     2087.785     72.25082      4.839     7.98     12.83381     20.41016     114.1163        36     2.284     1.565  82.98  27
        13    119.7860   1022.5306 299.9235896 +22.7130504     1081.271     62.45377      4.630     5.79     27.55589     20.41016      36.6678         8     1.188     0.793  65.24  27
        14    121.0902   1016.0585 299.9261015 +22.7115877     1796.137     72.41669     10.627    14.66     25.83464     20.41016     51.62651        35     3.390     1.764  21.08  27
        15    101.2451   1022.1512 299.9179528 +22.7073737     2115.709     64.28391     12.786    17.55     31.16114     20.41016     66.09634        76     3.360     2.989  17.31  27
        16     82.6849   1016.6125 299.9139899 +22.7002129     1650.949     72.28772      7.804    12.31      37.3159     20.41016     50.65648        36     2.856     1.476  70.16  27
        17     39.2613   1021.2365 299.8989969 +22.6884960     3005.671      68.0317      5.693    34.48     60.55456     20.41016     78.52153       200     9.075     3.636  -4.35  27
        18     60.9036   1006.0703 299.9106556 +22.6906513     1382.402     72.47189     14.264    15.17     42.63245     20.41016     39.89991        21     2.715     2.357  61.16  19
        19     70.0407   1004.9965 299.9138433 +22.6930877     1783.955     72.36144      9.591    11.37      38.5195     20.41016     53.50103        25     2.155     1.670  27.35   3
        20     74.8104   1014.6182 299.9121930 +22.6972767     1328.773     72.30615     10.817    13.37     40.34101     20.41016     52.48333        20     3.304     1.504  63.67  19
        21    112.8701   1022.2272 299.9215397 +22.7108866     1155.675     63.84696      9.907    12.24     28.74607     20.41016     45.06325        17     2.203     1.892  46.80  27
        22     86.8238   1023.0298 299.9131867 +22.7032945     1333.966     59.81536      7.957    12.65       37.313     20.41016     45.16294        26     2.326     1.915 -70.44  27
        23     76.5682   1010.0130 299.9142380 +22.6964853     829.0595     72.32459      3.698     3.89     37.54892     20.41016     37.54185         5     0.895     0.485 -82.44   1
        24    695.3279   1008.2936 300.1072683 +22.8817043     293.1001     72.47189      1.336     3.71     2.701496     20.41016     43.92509         5     0.993     0.398  74.12   0
        25    411.5701   1007.7856 300.0191031 +22.7964214     948.8697     72.36144      1.671     3.86     3.035076     20.41016      80.7056        17     1.128     1.011  63.05   0
        26    342.0225   1005.6883 299.9981532 +22.7749460     6633.938     72.26927      1.740     3.42     3.468244     20.41016     575.5428        45     1.418     1.360   5.84   0
        27    193.4059   1022.9185 299.9463401 +22.7352682     1777.544     60.39201      4.340    10.92     12.54442     20.41016     67.89275        41     2.119     1.920  28.39  27
        28     49.0246    993.8071 299.9109574 +22.6835704     1060.388     72.34302      6.287     6.39      41.1521     20.41016     61.56259        19     1.464     1.341 -16.56   3
        29    517.5402   1011.3098 300.0509302 +22.8292324     1578.557      72.4351      1.718     3.75     2.838783     20.41016     137.1193        25     1.324     1.140 -50.72   0
        30     30.0651    987.4333 299.9071433 +22.6760504     1582.147     72.34302      4.607    12.28     43.14379     20.41016     45.36532        30     2.594     1.618  47.99   3
        31     37.4724    988.3117 299.9091580 +22.6785266     2000.534     72.50867     11.186    13.60     41.63526     20.41016     58.85671        49     2.954     1.743 -65.25   3
        32     43.6222    985.4965 299.9119843 +22.6795671     1524.134     72.25082      9.019    10.29     37.79347     20.41016     51.76795        29     2.066     1.429 -65.07   3
        33    374.7814    991.8537 300.0128452 +22.7808125     401.2719     72.32459      1.820     4.49     3.308093     20.41016     37.60219         6     0.899     0.637 -23.05   0
        34    888.2638    984.2574 300.1752149 +22.9326650     2169.901     72.39828      1.748     3.65     3.005217     20.41016     152.7998        30     1.355     1.224  36.99   0
        35     78.1096    984.0000 299.9231836 +22.6894954     593.3658     72.21391      2.064     3.68     27.55903     20.41016     41.92741         5     1.348     0.289   0.00   0
        36     31.7458    978.8596 299.9104558 +22.6740989     1856.653     72.39828      5.174    17.11     37.48256     20.41016     49.53918        55     3.660     2.222  84.07   3
        37     39.0461    973.5348 299.9144560 +22.6747658     2005.454     72.34302      4.202    10.74     32.73308     20.41016     54.81748        30     2.402     1.338  67.37   3
        38     42.5982    971.7480 299.9161408 +22.6753207     1187.771     72.30615      3.688     7.10     30.68759     20.41016     39.86305        13     1.888     0.747  64.38   3
        39    538.7290    982.0533 300.0670488 +22.8271996     364.3071     72.34302      1.322     4.39     2.994519     20.41016     41.43069         8     1.108     0.494 -35.04   0
        40    677.2867    972.9595 300.1131510 +22.8661560     826.4372     72.32459      1.930     5.88     3.040856     20.41016     65.77241        17     1.467     0.959  47.36   0
        41     51.1063    972.7565 299.9184552 +22.6781647     885.3715     72.34302      3.337     5.65      29.4873     20.41016      33.3427         7     1.491     0.604  76.48   0
        42   1004.8206    972.7268 300.2153141 +22.9642958     385.0932     72.36144      1.541     3.11     3.019162     20.41016     48.53527         4     1.127     0.250 -17.89   2
        43   1003.3149    970.9466 300.2154240 +22.9633334     442.9308     72.37986      1.812     3.56     3.050634     20.41016     29.71213         5     1.029     0.355 -46.03   2
        44    712.0831    967.5638 300.1257457 +22.8750442     975.3219     72.32459      1.546     3.45     3.046574     20.41016     99.04686        18     1.223     0.914  60.13   0
        45    489.6331    968.7824 300.0560878 +22.8086630     368.0857     72.32459      1.497     3.87     3.064332     20.41016     34.09682         6     0.730     0.646 -41.49   0
        46    734.2445    961.0337 300.1347750 +22.8798168     11353.54     72.37986      1.587     3.03     3.081695     20.41016     936.3102        53     1.380     1.303 -69.74   0
        47    924.1147    959.6692 300.1943960 +22.9363552     3518.931     72.43509      1.205     5.20     3.372543     20.41016     1589.891        13     1.125     0.678 -16.89   0
        48    779.5950    960.7876 300.1489850 +22.8933460     491.5371     72.21391      1.631     4.76     3.061424     20.41016     44.20883         9     0.935     0.832 -53.26   0
        49    631.1324    951.5896 300.1057325 +22.8461815     1248.516     72.34302      0.670     0.59     3.279362     20.41016     673.2692         6     0.537     0.372 -72.70   0
        50    785.8309    948.4915 300.1549302 +22.8916873     477.6281     72.28772      1.614     4.94     3.163999     20.41016     44.09338        10     1.106     0.715  82.92   0
        51    439.5924    948.8332 300.0470093 +22.7879271      383.705     72.34302      1.613     2.12     3.278902     20.41016     45.42504         5     0.672     0.473  74.02   0
        52    742.8415    943.1402 300.1432772 +22.8772605      1376.11     72.32459      1.564     3.36      3.23017     20.41016     119.1811        22     1.155     1.090 -68.39   0
        53    926.0205    942.0817 300.2007145 +22.9318778     359.8818     72.30615      1.454     5.68     3.638222     20.41016     36.78065        10     1.154     0.788 -60.11   0
        54    594.8701    940.6227 300.0980106 +22.8321581     691.5004     72.36144      2.147     4.04     3.356673     20.41016     52.21656        10     1.098     0.749 -32.66   0
        55    781.2980    936.6458 300.1573730 +22.8869286     833.3776     72.37986      1.815     4.17     3.256109     20.41016     66.35593        14     1.107     0.893  67.41   0
        56    889.1832    933.6721 300.1919665 +22.9184208      276.522     72.34302      1.376     4.34      3.60229     20.41016     43.18331         7     0.836     0.644  28.24   0
        57    829.2379    927.7494 300.1752083 +22.8987493     452.7066     72.34302      1.450     4.08     3.418802     20.41016     55.16245        12     1.132     0.844  -9.72   0
        58    680.6074    926.8027 300.1292075 +22.8539091     678.1631     72.15852      1.492     3.11     3.444692     20.41016     93.19099        14     1.012     0.944  60.75   0
        59    393.2899    923.4313 300.0408708 +22.7667488     4083.158     72.28772      1.538     2.87     3.458366     20.41016     381.0089        36     1.266     1.187  33.91   0
        60    692.0439    923.9028 300.1337135 +22.8565068     528.7986     72.36144      1.422     3.38     3.427068     20.41016      55.8557         8     0.836     0.652  33.98   0
        61    436.8178    911.7386 300.0582174 +22.7764568     313.3167     72.28772      1.336     2.38     3.428566     20.41016     45.21451         6     0.735     0.532  50.51   0
        62    171.2612    911.9326 299.9755785 +22.6968124     313.4734     72.37986      1.320     3.86     4.891768     20.41016     37.21011         6     0.937     0.455 -52.87   0
        63     35.2446    910.6533 299.9337374 +22.6556078      477.038     72.36144      2.153     5.84     5.501087     20.41016     38.17429         7     1.471     0.652  85.76   0
        64    118.3164    909.1100 299.9600451 +22.6801085     767.8046     72.49028      1.759     4.02     6.210839     20.41016     82.14154        17     1.274     1.015  26.77   0
        65     95.5079    906.2557 299.9538876 +22.6724425      1497.88     72.39828      1.678     3.50      6.62336     20.41016     147.5257        24     1.245     1.161   3.09   0
        66     27.5095    907.5413 299.9323476 +22.6523934     558.0864     72.41669      2.567     3.72     5.272719     20.41016     34.43937         6     0.950     0.418  71.21   0
        67    723.6660    902.7937 300.1504331 +22.8599324     252.0524     72.34302      1.212     2.12     3.375796     20.41016     43.90726         5     0.696     0.449  74.28   0
        68    967.4733    894.9093 300.2289925 +22.9307596     2125.055     72.50867      1.664     3.29     3.768174     20.41016     175.5143        26     1.281     1.142  84.32   0
        69    921.5968    893.4077 300.2151754 +22.9165782     1946.952     72.15852      1.636     3.24     3.927072     20.41016     168.0604        23     1.207     1.084 -61.24   0
        70    627.5839    893.1102 300.1236580 +22.8283395     543.6456     72.26927      1.815     3.25     3.489359     20.41016     52.90727         6     0.967     0.440  75.04   2
        71    705.2037    887.4324 300.1496803 +22.8499879     580.4648     72.34302      1.778     4.46     3.406239     20.41016      59.4823        13     1.240     0.778  55.35   0
        72    127.6902    887.6740 299.9699319 +22.6767792     505.6556     72.50867      1.929     5.51     5.132671     20.41016     41.83468         8     1.089     0.786  -9.46   0
        73    453.2100    885.5383 300.0718427 +22.7738608     295.7511     72.26927      1.540     3.44     3.460175     20.41016     32.88964         5     0.753     0.453 -20.22   0
        74    573.2036    881.4589 300.1105171 +22.8086864      4599.04     72.30615      1.410     2.61     3.492603     20.41016     472.9797        31     1.179     1.096 -78.75   0
        75     62.3834    882.2252 299.9514158 +22.6556105     463.2846     72.36144      2.597     4.72     4.979604     20.41016     35.16706         6     0.929     0.679  24.08   0
        76    375.4173    878.7480 300.0498501 +22.7485724     686.0818     72.32459      1.583     3.44     3.498649     20.41016     77.60237        14     1.063     0.951 -45.72   0
        77    123.3681    875.4597 299.9725627 +22.6719809     1163.771     72.37986      1.517     3.30     4.681243     20.41016     123.9949        19     1.134     1.039 -27.48   0
        78    593.8262    873.7300 300.1194524 +22.8126544    -5245.904     72.34302      1.444     3.05      3.50558     20.41016     108.0724        15     1.148     0.816 -49.03   0
        79    392.0657    872.9281 300.0569224 +22.7518989      261.819     72.37986      1.309     4.58     3.504143     20.41016      33.1591         7     1.094     0.544  33.82   0
        80    142.7474    872.1567 299.9796587 +22.6768519     436.2643     72.37986      1.581     4.41     4.444284     20.41016     51.67659        10     1.083     0.721  84.17   0
        81   1004.6433    861.6013 300.2514233 +22.9323346      589.373     72.32459      1.937     5.56     3.591854     20.41016     53.11367        13     1.313     0.869  41.13   0
        82    749.2113    861.1073 300.1719554 +22.8556283     4103.388     72.28772      1.477     2.77     3.400617     20.41016     426.2067        31     1.226     1.090  70.84   0
        83    965.9073    861.3396 300.2394271 +22.9206511     1137.424     72.41669      1.532     3.58      3.83103     20.41016     100.4009        17     1.138     0.958 -30.30   0
        84    157.7606    855.8347 299.9896338 +22.6766801     475.3373     72.37986      1.399     4.18     4.216805     20.41016     60.69822         9     1.123     0.632 -66.34   0
        85    466.3373    853.6388 300.0863058 +22.7686493     674.7841     72.34302      1.377     3.52      3.55964     20.41016     65.07831        13     1.044     0.835 -36.55   0
        86    112.4523    851.9624 299.9768149 +22.6619692     986.1539     72.36144      1.616     3.83     4.250964     20.41016     100.4386        16     1.156     0.980  33.80   0
        87    262.2670    843.8487 300.0260164 +22.7046107     52926.43     72.34302      1.565     2.83     3.935777     20.41016     5422.745       103     1.473     1.407  80.92   0
        88    528.0224    846.9777 300.1076705 +22.7852422      453.384     72.34302      1.464     4.45     3.641488     20.41016     52.51425        11     1.043     0.760 -71.58   0
        89    520.0677    842.8646 300.1065326 +22.7816762     1473.583     72.39828      1.311     2.66     3.660152     20.41016     180.7914        17     1.037     0.870 -83.52   0
        90    932.8599    841.9415 300.2354327 +22.9051769     766.1042     72.41669      1.409     3.22      4.08278     20.41016     80.08011        15     1.047     0.933  57.65   0
        91    190.6573    842.0316 300.0043474 +22.6825976     502.1784     72.36144      1.628     4.98     4.195272     20.41016     55.11717        11     1.061     1.020  -3.69   0
        92    236.0226    841.7214 300.0185494 +22.6961244      345.477     72.30615      1.960     5.43     4.116096     20.41016     26.89998         7     1.181     0.704 -35.38   0
        93    549.2614    838.8461 300.1169271 +22.7892797     781.4771     72.36144      1.418     2.74     3.681679     20.41016     102.6327        13     0.930     0.866  -0.13   0
        94    560.1060    836.8757 300.1209440 +22.7919670     560.9163     72.49028      1.423     2.42     3.661196     20.41016     83.33863        10     0.864     0.730  70.93   0
        95    879.6460    834.6337 300.2212189 +22.8871298     352.2663     72.37986      1.689     3.61     4.050607     20.41016     43.60462         6     0.992     0.520  38.09   0
        96    665.5771    833.3456 300.1549341 +22.8225839     585.2423     72.36144      1.704     3.40     3.507821     20.41016     72.21239         9     1.067     0.624   1.73   0
        97    311.9694    821.0945 300.0488721 +22.7130009     31265.76     72.25082      1.494     2.78     3.794165     20.41016     3271.129        76     1.388     1.319  85.06   0
        98    702.7751    823.6346 300.1696795 +22.8309504     828.8135     72.36144      1.547     3.31     3.472795     20.41016     78.04081        13     1.019     0.881  67.28   0
        99    326.2508    821.5445 300.0531669 +22.7174152     2078.749     72.37986      1.490     2.92     3.680336     20.41016     199.7471        24     1.131     1.088 -75.04   0
       100    835.0366    816.7777 300.2131221 +22.8686322     2622.515     72.36144      1.414     2.73     4.036712     20.41016     323.3493        25     1.119     1.036  69.39   0
       101    323.0335    815.5986 300.0541004 +22.7147447     681.1475     72.30615      1.703     4.01     3.727697     20.41016     60.15206         8     0.938     0.714  64.95   0
       102    194.4837    813.0234 300.0149720 +22.6754298       694.35     72.30615      1.560     3.47     4.195324     20.41016     72.78987        17     1.086     0.999 -57.88   0
       103    593.0640    812.9686 300.1389815 +22.7949916     945.5909     72.34302      1.355     3.17     3.615625     20.41016     102.3282        13     1.028     0.837   0.95   0
       104    429.2759    812.9983 300.0879938 +22.7458738     330.5487     72.25082      1.207     2.77     3.531288     20.41016     51.57964         7     0.747     0.616 -89.40   0
       105    487.6176    810.8738 300.1068392 +22.7627651     314.1584     72.34302      1.558     4.34     3.836193     20.41016     46.15092         7     0.798     0.671  71.14   0
       106    439.9882    807.7767 300.0930252 +22.7475895     813.0403     72.34302      1.307     2.43     3.600947     20.41016     112.9321        11     0.894     0.721  77.55   0
       107    841.1303    804.7935 300.2189197 +22.8670181     510.8471     72.30615      1.409     4.09     4.140435     20.41016     56.96401         8     0.857     0.716  -4.26   0
       108    385.8415    802.8105 300.0777949 +22.7299214     449.1534     72.34302      1.508     4.31     3.454704     20.41016     57.85915         7     1.102     0.677  86.02   0
       109    342.2785    804.1140 300.0638209 +22.7172254     333.0383     72.49028      1.109     3.35     3.573145     20.41016     55.08858         5     0.763     0.427  77.46   0
       110    297.8817    803.7900 300.0501196 +22.7038114     215.7991     72.28772      1.283     5.02     4.043249     20.41016     40.97254         9     1.233     0.796 -24.78   0
       111     27.5159    802.1867 299.9666201 +22.6222042     584.7991     72.28772      1.776     6.13     3.908829     20.41016     51.42803        10     1.036     1.019  86.17   0
       112    594.3981    802.0031 300.1429636 +22.7922451      326.685     72.12156      1.600     2.88     3.631549     20.41016     34.59604         5     0.757     0.569   0.43   0
       113    818.7283    799.3337 300.2137134 +22.8587358     345.3343     72.37986      1.325     3.99     4.100364     20.41016     46.46037         7     0.970     0.649  84.97   0
       114    192.1520    797.1635 300.0194055 +22.6701829     456.4857     72.37986      1.382     4.35     4.185684     20.41016     57.02465        10     1.027     0.775 -82.44   0
       115    515.0484    787.6342 300.1229351 +22.7643251     449.6694     72.37986      1.386     4.11     3.943294     20.41016     49.89029         9     0.900     0.813  37.61   0
       116    484.8725    785.8938 300.1141094 +22.7547752     528.4661     72.47189      1.457     2.97     3.963528     20.41016     65.38889        11     0.986     0.714  15.23   0
       117    901.4040    782.0825 300.2450963 +22.8785613     4551.455     72.26927      1.448     2.68     4.170684     20.41016     459.2156        31     1.152     1.116  84.59   0
       118    506.9794    783.2601 300.1218462 +22.7606501     1312.811     72.28772      1.341     2.58     3.965803     20.41016     177.0876        19     1.082     0.968  67.05   0
       119    426.8164    782.7265 300.0970742 +22.7364524     346.8056     72.34302      1.370     2.41      3.68296     20.41016     55.13247         5     0.747     0.413  15.65   0
       120    635.1866    778.4226 300.1633340 +22.7977090     215.6165     72.32459      1.356     3.33     3.691961     20.41016     39.96101         5     1.231     0.261 -55.82   0
       121    889.9503    773.4722 300.2443258 +22.8726563    -946.5994     72.34302     -8.089     2.87     4.148867     20.41016     179.3928        21     1.141     0.972  46.27   0
       122     90.8998    769.1417 299.9970551 +22.6317596     336.4322     72.43509      2.286     6.82     4.011163     20.41016     25.83017         7     1.785     0.731  37.91   0
       123    252.8123    767.5724 300.0478849 +22.6799017     737.8459     72.34302      1.290     3.16      4.11598     20.41016      85.6114        11     0.873     0.828 -52.06   0
       124    716.3517    764.8771 300.1930199 +22.8181553     2580.068     72.34302      1.464     2.74     3.768078     20.41016      302.261        30     1.403     1.038  12.93   0
       125    921.0204    763.4002 300.2572887 +22.8790747     1582.471     72.26927      1.409     2.62     4.108032     20.41016     197.4594        19     1.087     1.004  64.33   0
       126    101.4132    751.4515 300.0060736 +22.6298440     465.4479     72.37986      1.579     4.74     3.991771     20.41016     51.01928        12     1.231     0.850  13.11   0
       127    798.6658    750.8164 300.2232403 +22.8387927     524.9075     72.32459      1.518     2.81     4.129012     20.41016     59.11527         9     0.878     0.660 -18.11   0
       128    834.6982    741.7150 300.2374300 +22.8469786     146097.1     72.50867      1.405     2.43     4.107158     20.41016     17976.54       168     1.470     1.371  86.39   0
       129    981.6329    743.4048 300.2826934 +22.8914932     1296.159     72.32459      1.481     2.92     4.029057     20.41016     133.4187        20     1.194     0.946  68.41   0
       130    597.0051    745.3896 300.1621870 +22.7767801     422.4175     72.19546      1.466     2.51     3.904649     20.41016     53.15712         7     0.717     0.669 -11.49   0
       131    686.9977    742.0352 300.1913040 +22.8027985     741.7291     72.32459      1.353     2.42     3.942868     20.41016     100.6479        11     0.896     0.727   0.35   0
       132    867.5451    734.4615 300.2500276 +22.8547394     384.8621     72.41669      1.230     2.95     4.067154     20.41016     53.89919         8     0.787     0.760 -21.43   0
       133    520.8992    730.6356 300.1432918 +22.7497247     1687.058     72.32459      1.352     2.51      4.13013     20.41016     215.6974        21     1.054     0.988 -64.07   0
       134    702.1755    727.9256 300.2006199 +22.8032981     9125.109     72.37986      1.317     2.29     3.986674     20.41016     1295.778        38     1.155     1.062  79.21   0
       135    203.6691    723.1658 300.0470473 +22.6524213     4824.724     72.34302      1.445     2.60     4.054797     20.41016     562.7568        30     1.173     1.095  79.82   0
       136    285.7421    721.2852 300.0731740 +22.6765072     1127.111     72.45349      1.430     2.91     3.991216     20.41016      138.809        19     1.087     0.977  49.12   0
       137    161.2314    719.1118 300.0351756 +22.6385242     471.2821     72.30615      1.636     3.76     4.018473     20.41016     54.14007         8     0.943     0.722 -16.81   0
       138    493.9630    716.5026 300.1395033 +22.7375914     684.1208     72.34302      1.305     2.95     4.180889     20.41016     97.51653        12     1.011     0.781  43.58   0
       139    485.6134    708.8004 300.1394089 +22.7328773     3180.936     72.15852      1.314     2.27     4.190776     20.41016     459.0465        26     1.103     0.969  75.76   0
       140    475.8587    702.5931 300.1383912 +22.7281708     1378.036     72.32459      1.276     2.46     4.185018     20.41016     174.3759        16     0.967     0.869  70.11   0
       141    387.3238    700.1556 300.1116367 +22.7009184     229.9908     72.32459      1.704     5.26     4.032323     20.41016     34.20532         7     1.308     0.599  47.28   0
       142    869.4683    700.0962 300.2618012 +22.8454465      406.748     72.47189      1.160     3.15     4.260429     20.41016     57.63761         7     0.889     0.599  32.20   0
       143    139.2128    698.7478 300.0349536 +22.6260775     644.3188     72.37986      1.472     4.47     3.978807     20.41016     63.70949        13     1.178     0.838  52.63   0
       144    153.6119    697.1809 300.0399375 +22.6299491     722.7405     72.30615      1.357     2.51     3.986146     20.41016     90.33148         9     0.813     0.732  65.23   0
       145    210.1744    694.4620 300.0584011 +22.6461416     498.1349     72.34302      1.919     3.94     4.031047     20.41016     44.14775         8     0.884     0.685 -52.30   0
       146    923.1289    693.6001 300.2806435 +22.8596591     524.6138     72.21391      1.418     3.60     4.057698     20.41016     73.06696         9     1.037     0.887 -20.24   0
       147    179.1683    694.0873 300.0488856 +22.6367307     427.9633     72.30615      1.346     2.43     4.002924     20.41016     67.92466         8     0.782     0.665 -35.96   0
       148    499.8190    692.7907 300.1490350 +22.7325431     337.2516     72.32459      1.097     2.74     4.194846     20.41016     70.44475         7     0.821     0.583 -32.90   0
       149    400.6236    692.2310 300.1183505 +22.7026339     1903.555     72.34302      1.417     2.53     4.052663     20.41016     210.5182        17     1.037     0.873  54.94   0
       150    434.0240    691.9668 300.1288280 +22.7125755     295.5988     72.34302      1.454     3.76     4.107444     20.41016      30.1825         5     0.640     0.635   7.48   0
       151     54.5912    687.3943 300.0123536 +22.5974265     19570.89     72.19546      1.619     2.87     3.927095     20.41016     1914.043        63     1.414     1.307  53.48   0
       152    976.4829    689.5438 300.2986007 +22.8744784     745.8792      72.4351      1.351     2.63     4.026247     20.41016     99.77855        12     0.893     0.823 -85.02   0
       153    485.7629    687.4174 300.1464072 +22.7267861      1022.52     72.34302      1.308     2.38      4.19612     20.41016     126.8248        16     1.062     0.861 -62.26   0
       154    402.8527    684.6550 300.1215068 +22.7011288     279.4832     72.37986      1.233     1.92     4.055569     20.41016     49.53329         5     0.705     0.426  22.15   0
       155    238.9740    679.1819 300.0723209 +22.6504000     399.4273     72.36144      1.372     2.48      4.02446     20.41016     51.44884         6     0.860     0.445  40.05   0
       156    903.5536    673.6760 300.2810175 +22.8480712     986.1363     72.34302      1.256     2.29     4.188581     20.41016     131.3468        14     0.892     0.838 -14.89   0
       157     66.7340    672.1426 300.0210833 +22.5966981     360.0767     72.37986      1.470     4.28     3.931276     20.41016     49.55952         9     1.324     0.626 -53.14   0
       158      1.4660    671.4709 300.0010293 +22.5769165     900.0048     57.10179      1.531     5.07     3.896981     20.41016     114.0741        13     1.469     0.553 -87.49  24
       159    770.4622    671.9551 300.2400927 +22.8076958     502.8185     72.36144      1.506     3.68      4.25186     20.41016     57.51339        10     1.041     0.785 -10.73   0
       160    448.9594    668.0627 300.1412460 +22.7101955     415.4859     72.32459      1.456     2.45     4.142377     20.41016     53.14846         7     0.827     0.532 -49.58   0
       161    843.7167    666.3203 300.2647548 +22.8280297      753.886     72.49028      1.501     2.60     4.438476     20.41016     94.99117        10     0.919     0.695 -30.08   0
       162    241.4252    667.2652 300.0769566 +22.6477175     305.4624     72.32459      1.635     3.41     4.017729     20.41016      34.6958         5     0.747     0.451  70.16   0
       163    587.8920    664.6440 300.1856020 +22.7508722     251.1636     72.32459      1.132     3.48     4.122749     20.41016     42.73237         5     0.768     0.454  14.17   0
       164    405.8912    660.4926 300.1303066 +22.6951073      648.416     72.50867      1.203     2.56     4.080004     20.41016     90.32498        11     0.917     0.718 -76.98   0
       165    553.6780    659.1665 300.1767305 +22.7390423     526.0738     72.32459      1.333     3.30     4.233985     20.41016     63.74535         8     0.871     0.664 -71.94   0
       166    601.0716    657.5320 300.1920176 +22.7527818     551.7087     72.37986      1.563     3.69     4.136569     20.41016     69.94054        10     1.120     0.662  72.06   0
       167    450.1408    656.5649 300.1453511 +22.7072504     988.0989     72.36144      1.518     4.12     4.158929     20.41016     118.1908        17     1.422     0.793  44.66   0
       168    571.3082    657.0187 300.1829173 +22.7437115     555.0121     72.26927      1.202     2.33      4.20337     20.41016      83.5223         7     0.706     0.646 -87.85   0
       169    883.6255    651.7028 300.2819475 +22.8357890     3102.805     72.28772      1.296     2.31     4.317946     20.41016     397.6673        25     1.058     1.026  -7.79   0
       170    415.4096    651.8729 300.1360697 +22.6954885     1676.622     72.34302      1.287     2.27     4.110942     20.41016     219.1921        19     1.035     0.863  60.68   0
       171    981.6011    649.7521 300.3131332 +22.8645801     666.9703     72.34302      1.368     2.54     4.025161     20.41016     86.95155        10     0.809     0.799  43.58   0
       172    780.0136    648.6288 300.2506518 +22.8038597      278.097     72.34302      1.269     2.83     4.358616     20.41016     56.13456         5     0.971     0.620  60.76   0
       173    766.1461    647.4913 300.2467003 +22.7993773     263.5826     72.39828      1.417     4.24     4.313271     20.41016     38.10844         6     1.082     0.474   9.35   0
       174    390.2384    647.1867 300.1297620 +22.6865950     261.1868     72.36144      1.586     4.34     4.064713     20.41016     29.93044         5     0.775     0.691 -33.78   0
       175    444.6071    642.6287 300.1481590 +22.7015917     419.9564     72.34302      1.476     2.69     4.170774     20.41016     59.13731         6     0.847     0.631  24.80   0
       176    922.6169    641.3991 300.2974539 +22.8445108     307.0194     72.23238      1.230     3.51      4.06651     20.41016     43.49461         7     0.830     0.692 -78.10   0
       177    278.8241    638.6323 300.0978909 +22.6507234     9112.165     72.32459      1.376     2.48     3.994714     20.41016      1124.04        44     1.187     1.162 -63.22   0
       178    401.2617    635.6301 300.1369475 +22.6865849     8975.434     72.36144      1.325     2.38     4.104414     20.41016     1066.081        45     1.236     1.096  71.10   0
       179     40.0202    638.3680 300.0237626 +22.5789973     273.9633     72.34302      1.421     3.83     3.884645     20.41016     29.29173         5     0.876     0.481  -3.17   0
       180    805.7964    632.6249 300.2638888 +22.8069896     292.0175     72.30615      1.432     4.90     4.438213     20.41016      31.6242         7     1.040     0.655  26.17   0
       181    166.4602    632.8354 300.0648454 +22.6153516     327.2598     72.36144      1.363     3.00     3.955962     20.41016     46.85872         5     0.953     0.361   5.61   0
       182   1005.7017    630.6573 300.3268574 +22.8663128     841.0146      72.4351      1.287     2.68     4.023905     20.41016     115.2818        14     0.982     0.840  23.04   0
       183    812.9432    629.5475 300.2671164 +22.8082473     1692.979     72.39828      1.269     2.32     4.438601     20.41016     240.0584        19     1.038     0.915  85.73   0
       184    647.2763    631.4969 300.2148686 +22.7591582     184.8803     72.49028      0.997     2.75     4.352037     20.41016     40.83201         5     0.712     0.455  22.24   0
       185    897.5526    626.7706 300.2943938 +22.8327997     12213.52     72.36144      1.345     2.31     4.226672     20.41016     1550.022        47     1.207     1.124  79.16   0
       186    461.8302    625.2012 300.1591827 +22.7017549     11389.94     72.30615      1.299     2.22     4.215147     20.41016     1659.566        43     1.168     1.058  74.77   0
       187    189.1375    620.8168 300.0757995 +22.6187082     1361.127     72.32459      1.444     2.90     3.973687     20.41016     150.6626        20     1.108     0.999  81.38   0
       188    648.1458    621.4304 300.2184112 +22.7565286     234.7415     72.36144      1.213     2.35     4.438075     20.41016     37.06822         5     0.702     0.458  20.61   0
       189    631.3461    620.8527 300.2133671 +22.7513272     575.1939     72.37986      1.459     2.62     4.438075     20.41016     75.99589         9     0.820     0.733  54.10   0
       190    346.9281    619.6348 300.1252446 +22.6657004     338.0832     72.34302      1.428     3.15     3.983216     20.41016     45.37406         7     0.853     0.595  79.11   0
       191    436.0727    618.5999 300.1533132 +22.6921369     402.4243     72.21391      1.447     4.07     4.195803     20.41016     47.79572         9     1.063     0.632  11.99   0
       192    393.5043    613.4440 300.1417447 +22.6778922     4445.949     72.36144      1.311     2.32     4.114174     20.41016     525.2032        32     1.131     1.034  69.90   0
       193    736.3049    613.2049 300.2485465 +22.7805886     784.1008     72.25082      1.203     2.28      4.42146     20.41016       118.91        12     0.872     0.759 -41.26   0
       194    371.7723    611.8223 300.1355113 +22.6709096      1357.37     72.34302      1.436     2.56     4.044302     20.41016     175.9277        16     0.967     0.887 -83.11   0
       195    126.0057    611.1470 300.0593222 +22.5969937     834.0816     72.30615      1.437     3.15     3.942592     20.41016      92.6141        11     0.984     0.742  71.34   0
       196    813.3812    608.7673 300.2740069 +22.8024101     1585.774     72.34302      1.439     2.83     4.439911     20.41016     165.4566        20     1.144     0.928 -77.56   0
       197    510.1341    600.8660 300.1821248 +22.7092532     197267.4     72.39828      1.325     2.19     4.279265     20.41016     29456.63       212     1.490     1.405  80.15   0
       198     59.4775    609.4365 300.0392087 +22.5765407     424.8861     72.30615      1.625     5.72     3.883851     20.41016     46.90919         8     1.254     0.736 -52.40   0
       199    913.7070    607.5897 300.3056649 +22.8321290     195.7476     72.28772      1.151     4.52     4.128299     20.41016     32.50813         5     0.810     0.717 -45.82   0
       200    333.8095    606.8767 300.1253105 +22.6581053     340.3957     72.30615      1.210     3.18     3.983743     20.41016     53.36037         7     0.966     0.532  73.43   0
       201    693.7642    605.6224 300.2377579 +22.7656623       855.72     72.36144      1.305     2.55     4.511138     20.41016     111.7167        12     0.980     0.706 -58.42   0
       202    196.1681    600.9883 300.0844284 +22.6151299     3486.941     72.34302      1.393     2.57     3.981591     20.41016     416.7728        25     1.125     1.027  70.26   0
       203    898.2659    602.4127 300.3025330 +22.8260161     175.7962     72.28772      1.065     3.27     4.260125     20.41016     34.75554         5     0.715     0.476  13.68   0
       204    763.5883    601.2618 300.2609290 +22.7853346     298.9474     72.30615      1.293     3.46     4.455307     20.41016     30.25963         5     0.754     0.459 -72.72   0
       205    761.8981    596.8458 300.2618375 +22.7835598     451.3122     72.37986      1.331     2.54     4.461725     20.41016     67.74081         6     0.745     0.542  36.72   0
       206    541.4261    586.9925 300.1963737 +22.7146519     333.7287     72.34302      1.438     3.98     4.378971     20.41016     38.35609         6     1.052     0.430  75.30   0
       207    400.7246    581.4875 300.1543757 +22.6708868     2713.559     72.47189      1.447     2.46     4.168867     20.41016     365.1408        29     1.540     0.931  85.82   0
       208    245.0020    583.5043 300.1052904 +22.6247633     346.5979     72.25082      1.197     1.92     4.004304     20.41016     62.87198         6     0.713     0.500  -1.03   0
       209    850.5237    580.8332 300.2946623 +22.8055144     280.7608     72.34302      1.079     3.04     4.485615     20.41016     52.98888         5     0.852     0.517 -37.22   0
       210    812.2489    577.5176 300.2838097 +22.7930949     337.1113     72.34302      1.182     3.61     4.490512     20.41016     42.84519         7     0.933     0.480   9.95   0
       211    631.4398    576.9014 300.2276797 +22.7387362      325.944     72.34302      1.533     3.37     4.541319     20.41016     43.18004         6     0.786     0.671  57.14   0
       212    830.2704    572.6345 300.2910135 +22.7970916     194.3637     72.34302      1.077     4.45     4.498674     20.41016     37.28763         6     1.034     0.741  52.40   0
       213    717.8541    569.2560 300.2570805 +22.7624382     357.9294     72.39828      1.258     2.38     4.516578     20.41016     64.15403         8     0.784     0.652  54.77   0
       214    797.6955    567.2372 300.2826147 +22.7857817     1742.169     72.34302      1.276     2.40     4.508502     20.41016     214.2479        17     1.015     0.858  76.09   0
       215    668.9047    564.9741 300.2432238 +22.7465397     2438.058     72.28772      1.270     2.05     4.541319     20.41016     413.2201        24     1.079     0.904  57.99   0
       216     28.7678    565.5864 300.0439178 +22.5547514     323.3991     72.34302      1.626     6.24     4.209468     20.41016     42.57316         8     1.303     0.840 -26.54   0
       217    878.1277    561.8255 300.3094443 +22.8083232     276.9328     72.36144      1.279     3.42     4.493165     20.41016     39.75576         5     0.905     0.607 -27.63   0
       218    573.9096    561.6695 300.2147151 +22.7171193      512.826     72.50867      1.115     2.09     4.530167     20.41016     76.62235         7     0.696     0.616  25.28   0
       219    456.1921    560.8650 300.1783352 +22.6815992     758.4908     72.32459      1.251     2.16     4.257165     20.41016     125.3448        13     0.949     0.788  81.34   0
       220    926.3114    558.8418 300.3254371 +22.8218990     1244.708     72.34302      1.281     2.24     4.429678     20.41016     179.3089        14     0.910     0.830 -55.56   0
       221    797.9495    557.3077 300.2859204 +22.7830056     2293.976     72.41669      1.500     2.80     4.524779     20.41016     313.0276        25     1.474     0.883  77.42   0
       222    912.1354    557.7251 300.3213797 +22.8173320     940.4106     72.37986      1.772     3.48     4.457078     20.41016      87.8196        13     1.070     0.829 -82.37   0
       223    551.2083    555.5718 300.2096288 +22.7085640     742.5187     72.32459      1.788     2.31     4.551924     20.41016     88.43948         9     0.875     0.664  84.13   0
       224    337.3377    555.1113 300.1432285 +22.6443098     296.4565     72.41669      1.201     4.19     4.005467     20.41016     43.42793         7     0.764     0.655  72.48   0
       225    836.1130    552.4499 300.2993935 +22.7930435     4153.618     72.34302      1.304     2.33     4.532952     20.41016     535.7981        28     1.090     1.005 -79.04   0
       226    477.1818    552.1436 300.1877009 +22.6853887      108.845     72.32459      1.007     2.81       4.2645     20.41016     51.95478         5     0.763     0.504 -43.79   0
       227    389.6369    554.3425 300.1597464 +22.6597719     474.9819     72.34302      1.554     3.09     4.151928     20.41016     60.16304         6     0.969     0.542  44.39   0
       228    496.9295    548.5093 300.1950277 +22.6902655     445.5713     72.50867      1.310     3.57     4.346867     20.41016     52.36274         8     0.958     0.697 -27.45   0
       229    633.0266    547.8553 300.2376118 +22.7308715      226.244     72.34302      1.365     3.97     4.541319     20.41016     27.99996         5     0.847     0.533  55.32   0
       230    928.0189    543.1740 300.3310605 +22.8179086     706.8864     72.37986      1.308     2.23     4.512805     20.41016     120.0724        11     1.023     0.697 -74.39   0
       231     68.2383    542.9543 300.0635313 +22.5601041     997.6596     72.39828      1.494     3.03     4.187126     20.41016     97.52225        17     1.033     0.981 -82.91   0
       232    698.1478    539.8406 300.2604992 +22.7480852     181.5091     72.34302      1.189     3.48       4.5303     20.41016     43.72517         5     1.109     0.315  81.19   0
       233    728.9482    536.6676 300.2711256 +22.7564030     272.4848     72.36144      1.141     2.99     4.529174     20.41016     58.62106         8     0.872     0.711 -88.66   0
       234     60.6302    532.5637 300.0645434 +22.5548415     417.1819     72.36144      1.702     4.95     4.246758     20.41016     47.06676         7     1.065     0.651  51.52   0
       235    924.4604    532.1034 300.3335479 +22.8136618     345.4696     72.41669      1.376     3.46     4.377412     20.41016     47.64774         7     0.968     0.594  17.97   0
       236    668.3791    526.8088 300.2554604 +22.7354221      408.481     72.32459      1.094     2.36      4.48687     20.41016     71.96346         8     0.842     0.598 -69.54   0
       237    557.2421    524.6967 300.2215385 +22.7015082     299.6947     72.34302      1.175     2.12     4.463136     20.41016     61.84882         6     0.672     0.612  88.75   0
       238    609.5754    522.8785 300.2384237 +22.7166711     635.8762     72.32459      1.129     2.27     4.428665     20.41016     112.7708        11     0.896     0.703  72.78   0
       239   1017.0673    520.6281 300.3661591 +22.8380977     1065.797     72.32459      1.512     2.70     3.842119     20.41016     113.0796        15     1.070     0.867  51.34  16
       240    398.0225    521.2385 300.1731102 +22.6527851     239.4693     72.36144      1.441     3.82     4.207732     20.41016     29.23583         5     0.829     0.505  57.95   0
       241    924.1151    515.4645 300.3388461 +22.8087772     416.7988     72.43509      1.237     3.21     4.167513     20.41016     87.46185        10     1.020     0.658  49.95   0
       242    670.3407    515.1376 300.2598631 +22.7326581     960.2469     72.37986      1.274     2.79     4.452739     20.41016     122.9656        13     0.985     0.809 -73.11   0
       243    827.6508    511.2243 300.3101501 +22.7786651     1071.267     72.36144      1.278     3.06     4.335225     20.41016     122.7471        14     1.074     0.823  66.36   0
       244    786.0900    509.5740 300.2977332 +22.7657406     298.4194     72.26927      1.227     3.07     4.489735     20.41016     44.31021         6     0.756     0.590  47.21   0
       245    811.8503    507.5710 300.3064122 +22.7728823     720.2525     72.36144      1.310     2.48     4.417511     20.41016     105.3516        11     0.934     0.693 -77.85   0
       246    792.2643    507.6174 300.3002930 +22.7670283     326.9363     72.32459      1.275     2.75     4.486687     20.41016     41.34881         5     0.693     0.479  -9.77   0
       247    556.1388    505.7946 300.2273356 +22.6957503       3122.7     72.32459      1.271     2.17       4.3343     20.41016     485.2881        22     1.034     0.896  64.78   0
       248    916.8210    504.3968 300.3401673 +22.8034122     581.6925     72.28772      1.462     2.91     4.031971     20.41016     70.79517        10     0.957     0.692  11.67   0
       249     31.9501    497.3405 300.0670761 +22.5361346     406.5807     72.39828      1.543     4.75     4.369697     20.41016     51.02049        11     1.036     0.914 -60.69   0
       250    561.6993    493.7552 300.2329777 +22.6939599     368.6593     72.36144      1.306     3.58     4.255536     20.41016     46.05242         6     0.766     0.570  39.44   0
       251    327.6751    493.4991 300.1602388 +22.6237311     291.6356     72.47189      1.524     3.73     4.131859     20.41016     43.37497         5     0.994     0.403 -74.75   0
       252    396.2094    493.0154 300.1817143 +22.6441407     364.1046     72.26927      1.157     2.25     4.222753     20.41016     58.54058         7     0.685     0.654 -84.50   0
       253    967.5134    484.6967 300.3623754 +22.8129320     1371.584     72.52705      1.338     2.44     4.236803     20.41016     174.0264        15     0.923     0.896 -25.39   0
       254    839.5301    484.5335 300.3225236 +22.7745550     497.6487     72.37986      1.202     3.26     4.052762     20.41016     77.71782        10     0.985     0.723  40.13   0
       255    925.7670    483.4617 300.3497578 +22.8000754     950.0031     72.36144      1.241     2.44     3.772402     20.41016     128.7688        13     0.928     0.780  73.93   0
       256    462.3552    480.5194 300.2063546 +22.6603830     392.8383     72.32459      0.994     2.15     4.266727     20.41016     80.92973         6     0.755     0.506  48.46   0
       257    666.6075    479.5463 300.2702620 +22.7213174     1003.055     72.34302      1.120     2.04      4.34414     20.41016     174.5365        12     0.874     0.756  64.75   0
       258    170.5204    478.1346 300.1163687 +22.5721932     532.3944     72.45349      1.179     2.63     4.473666     20.41016     95.24766        11     0.860     0.844  62.16   0
       259     10.1251    476.5424 300.0670524 +22.5236215     252.5708     72.39828      1.370     5.08     4.397935     20.41016     30.32394         8     1.188     0.615 -61.19   0
       260    232.9875    473.7523 300.1372095 +22.5896704     3673.804     72.36144      1.357     2.47     4.445758     20.41016      477.857        27     1.148     0.993  73.32   0
       261    966.1298    471.9693 300.3660782 +22.8088598      4295.41     72.34302      1.327     2.21     4.195402     20.41016       634.78        29     1.126     1.014  73.36   0
       262    180.2792    468.5561 300.1225128 +22.5723720     7517.333     72.32459      1.392     2.52     4.488126     20.41016     845.8935        37     1.197     1.088  70.05   0
       263    685.2994    467.9088 300.2798644 +22.7235754     270.3824     72.50867      1.464     4.23     4.355233     20.41016     29.00356         6     0.782     0.654  28.24   0
       264    946.1135    462.9523 300.3627646 +22.8002744     1844.215     72.32459      1.366     2.69     3.973571     20.41016     221.4621        18     1.139     0.886  76.53   0
       265    321.0322    462.7384 300.1681639 +22.6129109     4846.685     72.37986      1.315     2.23      4.21827     20.41016     688.6404        28     1.133     0.980  78.65   0
       266    565.2857    459.3624 300.2452655 +22.6851587     18191.91     72.32459      1.247     2.25     4.199396     20.41016     2434.482        55     1.226     1.101  72.87   0
       267    583.2261    458.9868 300.2509732 +22.6904272     888.8679     72.34302      2.098     7.17      4.20426     20.41016     52.18591        18     1.860     0.775 -47.03   0
       268    422.4270    455.8999 300.2019263 +22.6413461     403.2395     72.28772      1.464     3.43     4.299657     20.41016     36.64901         5     0.769     0.443 -69.57   0
       269    808.5701    455.2669 300.3223799 +22.7568725      259.199     72.32459      1.082     2.78     4.327231     20.41016     48.08589         5     0.747     0.440  67.93   0
       270    762.5314    449.7436 300.3098264 +22.7414949      301.602     72.36144      1.152     2.72     4.388054     20.41016     52.94764         5     0.708     0.461  69.25   0
       271    185.1657    446.3129 300.1312554 +22.5674553      308.394     72.30615      1.143     2.69      4.52508     20.41016     57.03497         5     0.884     0.366 -85.39   0
       272    898.7568    441.7516 300.3548836 +22.7799999     855.4867     72.36144      1.489     2.52     3.824399     20.41016     112.8392        14     1.002     0.851 -49.40   0
       273    435.7857    441.3014 300.2108241 +22.6411595     309.8332     72.25082      1.445     3.78     4.358098     20.41016     37.41386         6     0.736     0.636  75.89   0
       274    120.0288    439.5361 300.1132129 +22.5459751     2085.108     72.34302      1.423     2.69     4.483114     20.41016     225.8087        26     1.158     1.111 -19.79   0
       275    775.6844    431.2073 300.3199452 +22.7401093     314.8238     72.26927      1.186     3.39     4.361752     20.41016     39.69822         5     0.779     0.426 -73.51   0
       276    505.8759    428.8578 300.2366780 +22.6585945      6415.69     72.37986      1.287     2.09     4.430305     20.41016     1023.593        35     1.142     1.014  73.25   0
       277    919.4079    429.0626 300.3654438 +22.7825373     1051.739     72.28772      1.177     2.22     3.910106     20.41016     155.5813        13     0.882     0.794  63.16   0
       278    220.6154    428.3839 300.1480970 +22.5729415     641.3948     72.30615      1.262     2.64     4.554001     20.41016     80.19051        11     0.917     0.751  26.49   0
       279     78.2387    421.6393 300.1060400 +22.5283061     530.9086     72.41669      1.388     3.67     4.560134     20.41016      58.9472         8     0.999     0.580  57.41   0
       280    766.2817    420.6862 300.3204319 +22.7342699     186.5613     72.47189      1.136     2.91     4.337368     20.41016     55.45707         5     0.752     0.435 -79.40   0
       281    619.7135    418.8289 300.2753768 +22.6898273     637.5971     72.34302      1.441     2.96     4.221797     20.41016     75.20013         8     0.908     0.573 -83.01   0
       282    710.0917    417.6614 300.3039067 +22.7165690     1096.651     72.43509      1.324     2.51     4.292575     20.41016     167.5915        13     0.942     0.812 -88.42   0
       283    412.5283    415.1487 300.2120803 +22.6266797     6219.195     72.34302      1.265     2.20     4.329161     20.41016     847.1735        30     1.124     0.972  79.35   0
       284    901.7195    409.3211 300.3663395 +22.7715667     719.3675     72.47189      1.466     2.76     3.909974     20.41016     95.43139        13     1.042     0.777 -70.84   0
       285    804.4902    409.3891 300.3360078 +22.7424682     1241.998     72.28772      1.129     2.15     4.314783     20.41016     171.5309        14     0.928     0.730  55.01   0
       286    397.3616    403.9458 300.2109993 +22.6189172     483.8391     72.34302      1.196     1.76     4.369423     20.41016     83.34644         6     0.703     0.477  83.30   0
       287    479.5453    401.8462 300.2372541 +22.6429468     456.4984     72.37986      1.311     2.94     4.616249     20.41016     56.04938         8     0.905     0.614  50.91   0
       288    757.9821    400.3526 300.3244486 +22.7259417     241.9836     72.37986      1.209     2.30      4.29775     20.41016     44.44673         5     0.831     0.475  -4.35   0
       289    460.3648    399.4748 300.2320550 +22.6365174      306.616     72.28772      1.081     3.37     4.554459     20.41016     44.58105         5     0.970     0.338 -67.87   0
       290    777.3813    397.0667 300.3315607 +22.7308080     520.1203     72.32459      1.177     2.79     4.304045     20.41016     71.80389         8     0.838     0.724 -24.49   0
       291    300.0701    394.3667 300.1838472 +22.5870017     2537.473     72.34302      1.366     2.30     4.656075     20.41016      352.905        25     1.120     1.012  76.04   0
       292     18.4617    391.8525 300.0971422 +22.5018305     940.5407     72.39828      1.406     2.99     4.991757     20.41016     115.9129        19     1.212     0.941  22.69   0
       293    269.3828    383.8542 300.1777178 +22.5747840     29310.18     72.32459      1.360     2.33     4.757739     20.41016     3598.791        73     1.310     1.193  69.68   0
       294    804.0511    381.1625 300.3450365 +22.7342256     1415.184     72.36144      1.259     2.08     4.259361     20.41016     231.5649        17     0.995     0.829  67.86   0
       295    759.1851    378.4204 300.3319449 +22.7200002     177.8047     72.32459      1.178     4.42     4.264666     20.41016     45.39978         7     1.175     0.474   7.43   0
       296    843.4068    370.5497 300.3607493 +22.7429617     369.5202     72.34302      1.378     4.72     3.925104     20.41016     38.38797         7     1.244     0.507 -40.72   0
       297    143.8335    370.1726 300.1431318 +22.5332120     511.1342     72.36144      1.452     3.52     4.603811     20.41016     58.91673        10     0.976     0.941 -64.33   0
       298    719.4199    369.8450 300.3223392 +22.7056255     449.2925     72.39828      1.063     2.14     4.244834     20.41016      91.5649         7     0.834     0.487  83.07   0
       299    367.8846    369.0225 300.2131680 +22.6000551     539.6957     72.28772      1.375     2.68     4.698838     20.41016     85.65919        11     0.870     0.850  32.63   0
       300    679.7975    363.4211 300.3120814 +22.6919112       1842.2     72.28772      1.188     2.22     4.233761     20.41016      266.166        15     0.872     0.843 -73.36   0
       301    488.0974    358.0556 300.2541336 +22.6329346     282.7434     72.43509      0.984     2.51     4.601655     20.41016     61.59176         5     0.604     0.595 -53.54   0
       302    894.9831    356.2565 300.3814692 +22.7542975      555.532     72.30615      1.191     2.33     4.015251     20.41016     103.8298         9     0.886     0.600  33.16   0
       303    341.5998    348.2026 300.2117508 +22.5861990     2119.741     72.12156      1.432     2.71     4.881796     20.41016     236.9073        24     1.269     0.961  62.39   0
       304    553.8668    346.8519 300.2782438 +22.6494242     279.5081     72.36144      1.392     2.52     4.262206     20.41016     46.91051         8     0.802     0.645 -51.17   0
       305    780.7335    340.6181 300.3509329 +22.7155910     471.5624     72.32459      1.160     2.69     4.236864     20.41016     76.59541         9     0.858     0.678  78.22   0
       306    663.0732    338.2556 300.3150418 +22.6796713     416.5115     72.34302      1.247     2.40     4.226156     20.41016     66.16365         7     0.811     0.603  66.18   0
       307    631.1309    337.8220 300.3052339 +22.6699781     338.8224     72.34302      1.243     2.21     4.225449     20.41016     54.06409         6     0.714     0.544 -58.33   0
       308    417.3239    327.4376 300.2420487 +22.6029327     1211.477     72.30615      1.187     2.23     4.485682     20.41016     163.5892        15     0.948     0.780  73.53   0
       309    928.5830    323.0776 300.4027175 +22.7548196     335.6386     72.34302      1.361     2.95     4.393551     20.41016     41.81384         6     0.788     0.493  89.03   0
       310    662.3185    319.2661 300.3209710 +22.6739893      2195.56     72.45349      1.297     2.34     4.229112     20.41016     271.2004        21     1.123     0.880  69.97   0
       311    800.4698    320.6048 300.3635806 +22.7157498     273.7968     72.30615      1.129     3.24     4.254342     20.41016      39.6716         6     0.849     0.489   1.08   0
       312    923.5472    313.6236 300.4042160 +22.7505941      2991.27     72.36144      1.248     2.15     4.395975     20.41016     397.6841        24     1.062     0.954  66.95   0
       313    984.6205    308.0072 300.4250863 +22.7672619     513.4359     72.30615      1.478     3.92     4.162886     20.41016       58.971         8     0.930     0.606  79.65   0
       314    370.4107    303.2022 300.2353197 +22.5819138     593.4501     72.15852      1.222     2.82     4.384914     20.41016     80.44772        11     0.910     0.784 -28.28   0
       315    992.9749    301.4549 300.4298191 +22.7678786     1649.511     72.37986      1.304     2.29      4.07374     20.41016     219.1048        19     0.978     0.940  42.36   0
       316     45.5451    297.6506 300.1361329 +22.4829267     1438.932     72.37986      1.709     3.86     5.055405     20.41016     118.0277        22     1.441     0.952 -33.41   0
       317     76.4967    297.1665 300.1459055 +22.4920695     683.4108     72.34302      1.458     4.54     4.820395     20.41016     67.19895        12     1.297     0.799 -84.21   0
       318    939.0174    293.9527 300.4154254 +22.7495700     496.7449     72.37986      1.386     3.05     4.383309     20.41016     72.82288         9     1.015     0.604  78.60   0
       319    793.1413    293.7984 300.3699977 +22.7058508     405.7326     72.30615      1.406     4.06     4.277937     20.41016     43.96823         6     0.782     0.603  78.95   0
       320    782.7673    290.5862 300.3678073 +22.7018212      402.652     72.34302      1.279     3.15     4.280559     20.41016     51.73373         7     0.912     0.531  55.27   0
       321    129.6346    288.9513 300.1650827 +22.5056455     514.2354     72.37986      1.439     4.76     4.625318     20.41016     56.25837        11     1.090     0.814  33.04   0
       322    924.2592    286.2232 300.4133319 +22.7429298     261.4796     72.34302      1.268     3.74     4.467471     20.41016     53.73633         6     0.894     0.462  53.55   0
       323    805.6992    282.6618 300.3775262 +22.7064102     355.8289     72.41669      1.079     2.07     4.312314     20.41016     65.86689         5     0.701     0.436  19.46   0
       324    733.9293    280.8600 300.3557456 +22.6844009     632.9376     72.37986      1.301     2.40     4.363891     20.41016     94.09601         9     0.786     0.706 -57.40   0
       325    323.9178    280.3913 300.2282612 +22.5614296     427.9889     72.28772      1.350     3.00     4.321127     20.41016     68.76455        11     1.033     0.710  30.66   0
       326    869.8760    273.6596 300.4004530 +22.7230373     114.0822     72.39828      0.934     3.49      4.54006     20.41016     33.09743         5     0.807     0.436  15.79   0
       327    832.0678    269.7257 300.3899435 +22.7105869     1997.411     72.41669      1.280     2.13     4.432544     20.41016     329.6501        16     0.921     0.841  87.75   0
       328    250.5695    267.2317 300.2097225 +22.5356664     2054.973     72.34302      1.409     2.47     4.418697     20.41016     249.7464        22     1.121     0.948  77.96   0
       329    328.4693    262.2159 300.2355751 +22.5575749     1060.233     72.36144      1.506     2.84     4.291884     20.41016     117.2697        17     1.081     0.903 -52.47   0
       330     80.2922    262.1799 300.1584384 +22.4831674     341.5731     72.26927      1.274     3.77     4.858825     20.41016     41.86694         6     1.025     0.398 -76.53   0
       331    730.4595    261.3861 300.3609845 +22.6777652     544.2582     72.30615      1.112     2.44     4.572441     20.41016     81.86613        10     0.865     0.712  79.93   0
       332    837.6587    258.3614 300.3953743 +22.7089940     366.3584     72.36144      1.128     2.14     4.477293     20.41016     58.32668         5     0.689     0.447 -19.57   0
       333    263.5991    253.8773 300.2181073 +22.5357379     332.5689     72.23238      1.335     3.40     4.376703     20.41016     35.01187         5     0.755     0.443  69.92   0
       334    145.1843    254.1199 300.1812181 +22.5003104     674.7094     72.36144      1.326     3.26      4.64813     20.41016     78.24281        12     1.002     0.816  25.78   0
       335    683.0813    251.0844 300.3495673 +22.6606163     1692.231     72.47189      1.301     2.25      4.66156     20.41016      239.527        18     1.009     0.878 -81.83   0
       336    748.0709    250.6814 300.3699459 +22.6799624     697.6594     72.45349      1.357     2.30      4.62494     20.41016     102.0643        10     0.961     0.629  51.83   0
       337    166.7217    247.9879 300.1899016 +22.5050071     550.7771     72.32459      1.456     3.85     4.582113     20.41016      75.4404        10     1.157     0.799  60.36   0
       338    954.5635    243.5201 300.4366414 +22.7397226     825.3435     72.28772      1.325     2.85     4.340244     20.41016     100.7225        13     0.994     0.831  38.40   0
       339    456.8156    243.4904 300.2815821 +22.5906571      289.416     72.26927      1.322     4.09     4.298158     20.41016     38.68559         7     1.019     0.582  76.88   0
       340    687.1816    242.4924 300.3536328 +22.6593751     715.2465     72.26927      1.177     2.77     4.763488     20.41016     108.7109        11     0.992     0.676  81.27   0
       341    607.7651    241.9483 300.3290741 +22.6354336     1327.173     72.36144      1.375     3.44     4.401138     20.41016     174.4441        18     1.132     0.936  77.46   0
       342    428.9525    237.9005 300.2747254 +22.5807031     322.4115     72.36144      1.415     3.79     4.267044     20.41016     35.71765         5     0.798     0.515 -57.79   0
       343    803.2059    233.3336 300.3927573 +22.6914845     1361.419     72.34302      1.205     2.34     4.398329     20.41016     209.5248        15     0.952     0.803  81.99   0
       344    533.9747    233.6589 300.3087886 +22.6109487     1012.166     72.34302      1.266     2.26     4.328574     20.41016     161.6449        12     0.901     0.759  70.13   0
       345    815.1248    232.3534 300.3967903 +22.6947711      683.112     72.34302      1.279     2.12     4.443625     20.41016     120.5533        12     0.972     0.697 -88.13   0
       346    976.0007    223.2385 300.4499089 +22.7403065     1736.934     72.34302      1.387     2.44     4.253947     20.41016     218.8078        21     1.066     0.958  66.84   0
       347    931.8505    222.6694 300.4363241 +22.7269288     1142.022     72.34302      1.332     2.54     4.504305     20.41016     146.0263        14     1.002     0.812  42.66   0
       348    165.9541    215.9124 300.2000701 +22.4955693     676.0278     72.32459      1.426     3.40     4.582088     20.41016     79.75183        11     0.961     0.761  55.66   0
       349     27.8914    210.8040 300.1588289 +22.4527109     2129.429     72.25082      1.521     2.88      5.04408     20.41016     240.6821        24     1.213     1.041  48.83   0
       350    851.0889    207.6720 300.4160093 +22.6984421     691.3682     72.50867      1.253     2.44     4.600306     20.41016     114.8941        14     1.052     0.771  86.80   0
       351    185.2222    204.1595 300.2098721 +22.4979711     5598.716     72.37986      1.376     2.54     4.518108     20.41016     639.2059        33     1.182     1.067  54.14   0
       352    167.2611    204.4966 300.2041799 +22.4926839     329.3668      72.4351      1.155     3.17     4.576978     20.41016     44.38501         5     0.735     0.429  25.43   0
       353    168.9089    195.1908 300.2077110 +22.4905063      587.067     72.26927      1.270     2.58     4.568229     20.41016      79.9036        10     0.863     0.738 -60.71   0
       354    984.0776    191.3307 300.4627811 +22.7335473      18121.1     72.45349      1.375     2.41     4.216846     20.41016     2385.983        56     1.309     1.135  82.03   0
       355    829.2834    185.3611 300.4164506 +22.6855000     3531.307     72.30615      1.336     2.39     4.588702     20.41016     456.3763        29     1.206     0.985  74.82   0
       356    933.0405    184.2344 300.4491656 +22.7162325     2911.821     72.39828      1.387     2.17      4.56702     20.41016      383.811        29     1.197     1.058  77.71   0
       357    131.8624    181.6490 300.2005902 +22.4755137      273.752     72.39828      1.248     3.48     4.779105     20.41016     46.06837         6     0.763     0.613 -77.80   0
       358    378.8360    180.7467 300.2776754 +22.5492710     604.8948     72.36144      1.250     2.49     4.252441     20.41016     86.05615        11     0.918     0.703  73.13   0
       359    493.1802    178.4423 300.3140044 +22.5828649     432.7409     72.37986      1.399     3.43     4.367507     20.41016     45.81558         5     0.750     0.453  19.94   0
       360    302.8027    172.7085 300.2566327 +22.5241798     621.2164     72.25082      1.479     3.21     4.257933     20.41016     75.20727        11     1.015     0.736 -85.64   0
       361    837.9034    170.6997 300.4238940 +22.6838649     247.0942     72.54543      1.367     3.70     4.622162     20.41016     34.59921         5     0.827     0.475  52.71   0
       362    307.1786    171.1832 300.2584884 +22.5250530     474.8854     72.32459      1.611     2.26     4.257699     20.41016     56.70737         6     0.725     0.541  51.16   0
       363     68.9915    169.7726 300.1849071 +22.4532571     563.6784     72.34302      1.327     2.63     5.027254     20.41016     79.47305        11     0.909     0.755 -72.54   0
       364    430.1413    167.9928 300.2977756 +22.5609786     1717.319     72.32459      1.358     2.36     4.274544     20.41016     241.2492        21     1.064     0.949  75.18   0
       365    358.2544    168.4547 300.2752601 +22.5395737     537.7851     72.37986      1.267     2.62      4.25272     20.41016     73.48159        10     0.938     0.654 -86.58   0
       366    491.6828    166.7226 300.3173402 +22.5790493     443.4738      72.4351      1.308     2.91     4.373267     20.41016     54.77512        10     0.847     0.815 -88.77   0
       367    173.7105    163.5447 300.2194690 +22.4828601     446.2595     72.37986      1.368     3.90     4.538136     20.41016     48.97455        10     1.068     0.653  72.82   0
       368    718.5076    157.2344 300.3910533 +22.6442504     305.0663     72.28772      1.210     2.65     4.981357     20.41016     45.92896         5     0.720     0.428  63.45   0
       369     75.1498    153.6429 300.1920521 +22.4504733     312.4517     72.37986      1.275     3.37     5.032059     20.41016     32.19588         5     0.769     0.428 -19.64   0
       370    864.3195    152.0826 300.4381683 +22.6864188     338.5456     72.49028      1.257     3.12     4.631112     20.41016     56.57843         5     0.764     0.418  71.23   0
       371    994.6371    148.6062 300.4799352 +22.7244188     3515.258     72.37986      1.394     2.35     4.331198     20.41016     414.5681        26     1.159     0.997  86.24   2
       372    204.1612    147.9923 300.2339789 +22.4875212     5806.974     72.36144      1.407     2.60     4.514971     20.41016     696.0508        30     1.212     1.001  64.63   0
       373    318.9830    148.1405 300.2696340 +22.5219722     216.3109     72.28772      1.261     4.85     4.283197     20.41016     27.57722         7     1.109     0.723  76.77   0
       374     55.0811    147.4630 300.1878216 +22.4426830     849.1305     72.45349      1.803     3.44     5.020983     20.41016     77.63768        11     1.028     0.787  54.31   0
       375    833.6102    145.3065 300.4307930 +22.6752786     379.8281     72.28772      1.452     3.02     4.671913     20.41016     56.93125         7     0.902     0.560 -59.61   0
       376    694.8891    146.2489 300.3872584 +22.6340211     178.5478     72.32459      1.002     3.48     4.994759     20.41016     30.36619         5     1.033     0.339  43.98   0
       377    176.1371    142.0387 300.2271986 +22.4774126     353.4806     72.34302      1.306     3.09      4.69119     20.41016     44.59773         6     0.728     0.580  50.49   0
       378    219.5129    139.5718 300.2414825 +22.4897041     323.2406     72.34302      1.525     3.42     4.516341     20.41016     40.67944         5     0.908     0.497  86.16   0
       379    450.2216    133.2986 300.3152778 +22.5570268     6160.192     72.26927      1.310     2.39     4.531415     20.41016     812.1108        35     1.205     0.980  72.32   0
       380    335.7086    133.1190 300.2797084 +22.5226692     589.2206     72.47189      1.255     2.23     4.311969     20.41016     90.13924        10     0.811     0.708  -2.72   0
       381    506.9341    127.6712 300.3347541 +22.5723970     330.0243     72.37986      1.251     2.17     4.652848     20.41016     60.35294         5     0.732     0.563  78.07   0
       382    702.8593    122.8238 300.3973394 +22.6296736     793.1739     72.34302      1.552     2.51     5.022781     20.41016     111.3896        12     0.935     0.787 -74.68   2
       383    643.9452    124.0796 300.3785801 +22.6123952     319.1093     72.37986      1.314     4.25     5.001828     20.41016     57.96186         7     0.918     0.560  45.29   0
       384    795.3959    121.6950 300.4265404 +22.6570509     375.2885     72.25082      1.033     2.01     4.860891     20.41016     71.39111         5     0.677     0.450 -67.78   0
       385     14.4323    119.9901 300.1841045 +22.4226110     270.0584     72.34302      1.399     4.23     4.949142     20.41016     25.63753         5     0.781     0.653  -1.77   0
       386    863.2739    118.8422 300.4486242 +22.6765471     269.5887     72.32459      1.357     3.19     4.612157     20.41016     55.93872         5     1.056     0.453  58.62   0
       387    143.2065    117.3106 300.2249833 +22.4604428     393.7456     72.25082      1.255     2.86      4.98713     20.41016     52.02263         9     0.895     0.642 -65.26   0
       388    501.8509    115.9889 300.3369607 +22.5675177     430.0435     72.37986      1.278     2.51     4.733381     20.41016     68.82746         9     0.769     0.741 -74.50   0
       389    578.5900    113.2527 300.3617387 +22.5897133     6011.358     72.34302      1.266     2.36     4.941289     20.41016     742.2192        32     1.162     0.960  69.67   0
       390    353.4802    112.4109 300.2919524 +22.5220453     1585.784     72.32459      1.332     2.66     4.354105     20.41016     172.7742        17     1.094     0.829  73.59   0
       391    619.8312    110.5971 300.3754426 +22.6012995     784.1411     72.32459      1.294     2.54       5.0187     20.41016     120.5402        12     1.019     0.706  76.03   0
       392    689.5731    108.1844 300.3979482 +22.6214874     374.7155     72.36144      1.369     3.46     5.041056     20.41016     49.13194         8     0.924     0.771 -71.23   0
       393    635.6643    106.6812 300.3816437 +22.6049148     536.6425     72.45349      1.275     2.74     5.032949     20.41016     82.73477         9     0.813     0.803 -28.25   0
       394    102.5287    104.8014 300.2163990 +22.4446590     662.7664     72.26927      1.450     3.61     5.039113     20.41016     65.38493        13     1.164     0.733  61.96   0
       395    905.4817    103.9781 300.4666049 +22.6849039     550.8577     72.30615      1.650     2.28     4.885139     20.41016     64.89574         6     0.740     0.500 -89.81   0
       396    674.0909    102.0712 300.3951078 +22.6150949     485.9847     72.50867      1.226     2.75     5.048366     20.41016     81.77937         9     0.879     0.703 -25.57   0
       397    622.8179     98.1042 300.3804243 +22.5986030     2668.043     72.25082      1.317     2.39     5.051979     20.41016      353.442        23     1.146     0.888  84.98   0
       398    263.4838     99.3058 300.2682124 +22.4913169      400.475     72.52705      1.401     4.03     4.579212     20.41016     67.21343         8     1.198     0.584  75.53   0
       399    638.0004     97.0573 300.3854924 +22.6028480     922.2227     72.28772      1.664     4.75     5.054458     20.41016     88.40699        17     1.476     0.765  50.58   0
       400    709.3336     89.6826 300.4101046 +22.6220843     1506.584     72.45349      1.298     2.38     5.024606     20.41016     200.9762        16     0.990     0.907 -67.53   0
       401    786.9595     84.2835 300.4360441 +22.6437684     233.3348     72.30615      1.235     2.93      4.91559     20.41016     50.23339         7     0.758     0.640 -27.73   0
       402    647.0955     82.7473 300.3929657 +22.6014577      616.463     72.41669      1.221     2.77     5.047926     20.41016     100.6046        12     0.985     0.727  82.55   0
       403    452.6823     82.1233 300.3326398 +22.5430601     1079.525     72.45349      1.273     2.68     4.862007     20.41016     155.5106        17     1.246     0.779  56.31   0
       404     25.8456     82.4026 300.1998382 +22.4152429     566.4724     72.34302      1.512     2.70     4.890831     20.41016     69.02225         9     0.878     0.653  83.30   0
       405    356.7208     80.3564 300.3033551 +22.5138080       846.91     72.32459      1.343     3.04     4.539188     20.41016      99.4427        14     1.027     0.871 -20.31   0
       406    739.0734     79.2454 300.4227553 +22.6279862     343.4582     72.32459      1.114     2.15     4.927641     20.41016     71.63405         6     0.721     0.518  66.24   0
       407    999.6257     77.0425 300.5047020 +22.7053253     2212.227     72.37986      1.371     2.61     5.165321     20.41016     278.7892        20     1.139     0.891  66.53   0
       408    127.9920     70.5621 300.2354140 +22.4424599     3681.217     72.36144      1.456     2.73     5.068195     20.41016     406.5814        30     1.254     1.035  59.75   0
       409    696.1738     70.7330 300.4121496 +22.6126968     657.7604     72.32459      1.330     3.20     4.975974     20.41016     96.70702        13     1.065     0.785  76.78   0
       410    551.0540     67.2843 300.3680720 +22.5682561     278.6246     72.39828      1.153     4.46     5.030043     20.41016      41.5079         7     1.232     0.460  46.58   0
       411    453.4091     67.1398 300.3377245 +22.5389724     175.9644     72.30615      1.199     4.34     4.906722     20.41016     50.65068         7     0.800     0.669  65.09   0
       412    689.5016     62.8019 300.4126428 +22.6084193     978.3401     72.25082      1.364     2.79     4.971376     20.41016     121.1933        15     0.999     0.922  63.90   0
       413    244.0959     62.4388 300.2741384 +22.4749190     1207.904     72.32459      1.440     3.13     4.934745     20.41016     144.7356        18     1.104     0.957  77.06   0
       414    727.2676     57.4519 300.4261436 +22.6181861     778.8393     72.36144      1.642     4.54     4.814872     20.41016     76.22806        16     1.358     0.828  67.83   0
       415    650.6076     57.9246 300.4021087 +22.5953734     504.4906     72.32459      1.240     2.88     5.034177     20.41016     67.94387         7     0.749     0.619  74.38   0
       416    747.2392     54.0493 300.4334699 +22.6231858     2092.446     72.36144      1.304     2.28     4.751694     20.41016     301.0055        19     1.106     0.848  73.76   0
       417    452.8177     52.4435 300.3423056 +22.5345723     442.8669     72.36144      1.229     2.24     4.951436     20.41016      78.9016        10     0.885     0.659 -87.38   0
       418    130.4021     49.5655 300.2429705 +22.4371531     971.8173     72.30615      1.506     3.05     5.060833     20.41016     103.5174        17     1.132     0.879  60.90   0
       419    922.3555     47.0877 300.4903151 +22.6735895     812.8591     72.32459      1.501     3.94     5.055305     20.41016     90.43397        12     1.179     0.846 -55.70   0
       420    695.5402     46.6002 300.4197772 +22.6055688     770.0447     72.28772      1.164     2.41     4.903528     20.41016     113.2551        12     0.917     0.746 -72.13   0
       421    453.3364     38.9491 300.3468421 +22.5308498     328.8976     72.39828      1.407     3.21     4.990189     20.41016     43.28661         7     0.835     0.600  62.90   0
       422    280.2824     35.9999 300.2939624 +22.4781664     444.1981     72.21391      1.503     4.08     4.952529     20.41016     52.44284         9     0.902     0.728  19.53   0
       423    548.0504     31.5668 300.3787175 +22.5570908     945.5692     72.37986      1.372     2.25     5.056632     20.41016     123.2782        12     0.913     0.724 -85.75   0
       424    780.5942     30.3235 300.4515568 +22.6263465     293.6751     72.25082      1.285     3.45     4.591452     20.41016     40.07353         5     0.726     0.474 -76.45   0
       425    683.3713     28.7435 300.4217757 +22.5967921     295.5117     72.34302      1.158     3.80     4.933915     20.41016     38.55342         5     1.039     0.399 -73.48   0
       426    157.6793     28.8859 300.2581523 +22.4393887     476.3883     72.50867      1.254     2.35     5.152089     20.41016     70.69794         9     0.814     0.682 -34.71   0
       427    711.2805     26.1626 300.4313073 +22.6044041      810.223     72.30615      1.548     3.49     4.738068     20.41016       77.652        11     1.118     0.624  77.17   0
       428    519.8318     24.5134 300.3722192 +22.5466140     1934.776     72.30615      1.396     2.57     5.071484     20.41016      242.577        24     1.149     1.000  80.01   0
       429    242.4958     22.0454 300.2867365 +22.4628374     523.0881     72.36144      1.274     3.24     5.164862     20.41016     80.81055        11     0.977     0.837  47.14   0
       430    477.2073     18.4254 300.3609251 +22.5321004     1314.643     72.32459      1.362     2.48     5.103252     20.41016     167.7468        15     0.997     0.848  81.42   0
       431     66.2177   1021.3302 299.9073390 +22.6966189     952.6148     67.69778      5.093     5.24     47.12597     20.41016     31.08688         5     1.417     0.547 -39.07  17
       432     36.2100   1009.3312 299.9019244 +22.6841691     2786.826     72.32459      8.321    31.17     54.73611     20.41016     62.65787       224     6.043     4.464 -88.62  19
       433    487.6214   1015.2036 300.0403514 +22.8213713     497.1919     72.30615      2.021     6.38     2.817302     20.41016     39.63253         8     1.261     0.907  65.68   0
       434     55.9074   1007.1641 299.9087477 +22.6894641     1288.001     72.28772      4.415     4.64     45.18178     20.41016     43.49141         8     1.139     0.536   5.21   3
       435    199.9316   1014.5679 299.9510866 +22.7348346      644.683     72.34302      2.259     4.17     10.53096     20.41016     58.59531        12     1.108     0.900   2.90   0
       436    761.2292   1013.7466 300.1260232 +22.9030345     482.6266     72.36144      1.794     3.68     2.625213     20.41016     35.63344         5     0.924     0.422 -45.53   0
