#   1 NUMBER                 Running object number                                     
#   2 X_IMAGE                Object position along x                                    [pixel]
#   3 Y_IMAGE                Object position along y                                    [pixel]
#   4 ALPHA_J2000            Right ascension of barycenter (J2000)                      [deg]
#   5 DELTA_J2000            Declination of barycenter (J2000)                          [deg]
#   6 FLUX_APER              Flux vector within fixed circular aperture(s)              [count]
#   7 FLUXERR_APER           RMS error vector for aperture flux(es)                     [count]
#   8 FLUX_RADIUS            Fraction-of-light radii                                    [pixel]
#   9 FWHM_IMAGE             FWHM assuming a gaussian core                              [pixel]
#  10 BACKGROUND             Background at centroid position                            [count]
#  11 THRESHOLD              Detection threshold above background                       [count]
#  12 FLUX_MAX               Peak flux above background                                 [count]
#  13 ISOAREA_IMAGE          Isophotal area above Analysis threshold                    [pixel**2]
#  14 A_IMAGE                Profile RMS along major axis                               [pixel]
#  15 B_IMAGE                Profile RMS along minor axis                               [pixel]
#  16 THETA_IMAGE            Position angle (CCW/x)                                     [deg]
#  17 FLAGS                  Extraction flags                                          
         1    519.3356     21.5141 300.3722146 +22.5466067     1876.759     72.89248      1.281     2.35     4.342044     20.53904     248.9426        18     1.145     0.826  63.61   0
         2    476.5212     15.3296 300.3608931 +22.5320083     1304.661       72.911      1.191     2.33     4.405526     20.53904     174.4893        16     0.951     0.886  49.66   0
         3    582.0972     12.1790 300.3947812 +22.5627151     1368.466     72.72561      1.289     2.18     4.222805     20.53904     209.4193        14     0.983     0.758  77.47   0
         4    177.2888     11.0767 300.2692002 +22.4411515     498.3962     72.94801      1.363     3.08     4.222585     20.53904     61.78006         8     0.849     0.587  50.98   0
         5    226.1716      9.0906 300.2850401 +22.4552273     405.0781     72.78127      1.360     2.54      4.27508     20.53904     58.88122         7     0.717     0.655  73.75   0
         6    922.8541      8.2155 300.5022492 +22.6635611     260.2885     72.78127      1.671     3.79     4.177509     20.53904     40.64701         5     0.807     0.528  51.21   0
         7    402.4748      5.9106 300.3409044 +22.5071258      2233.88     72.96651      1.400     2.47     4.294144     20.53904     287.9617        22     1.144     0.962  58.11  16
         8     49.5147      3.8086 300.2318511 +22.4007740     1605.729     68.59917      1.620     2.97     3.696568     20.53904     173.6573        23     1.215     1.104  58.49  24
         9    892.7907      3.5323 300.4943932 +22.6532190     353.3527     67.48817      1.624     2.93     4.145467     20.53904      39.5956         5     0.725     0.468  18.28  16
        10     61.3197   1006.8805 299.9096737 +22.6920281     1007.005      72.9295     11.276    11.36     46.89627     20.53904     42.26064        18     2.498     1.439 -19.98   3
        11    174.3006   1018.0702 299.9411325 +22.7291627     1703.206       72.911      9.159    15.92     16.59453     20.53904     55.96885        50     3.395     2.076  65.59  19
        12    192.6158   1021.4726 299.9457168 +22.7356372     3156.858     67.48817      8.382    23.65     12.80945     20.53904     82.24145       142     6.265     2.480  55.71  27
        13    182.7395   1021.8690 299.9425183 +22.7327853     2477.397     65.90952     13.032    21.27     15.11596     20.53904     67.59816        82     5.435     2.311  21.84  27
        14    157.7545   1022.0733 299.9346876 +22.7253414     607.9321     64.93976      2.113     3.76     20.78816     20.53904     30.36102         5     1.486     0.273 -76.83  24
        15    153.2368   1023.1619 299.9329294 +22.7242968     524.0958     59.58447      3.401     4.64     22.28518     20.53904     27.23225         5     1.318     0.465 -28.75  25
        16    148.9809   1023.0728 299.9316360 +22.7229932     434.7622     59.94586      1.998     3.70     23.35015     20.53904     33.53266         5     0.988     0.398 -61.54  24
        17    108.6263   1017.3721 299.9209537 +22.7092413      1227.58     72.76273      9.020    12.28     32.25305     20.53904     35.31288        20     2.888     1.452  50.36  19
        18    112.6473   1023.6387 299.9201628 +22.7122443     917.0045     56.82452      7.185     7.34     33.21576     20.53904     58.62736        16     2.787     0.542   5.48  27
        19     86.5287   1019.1185 299.9135204 +22.7031054     1938.117      72.9295     13.725    22.26     40.69336     20.53904     53.54979        85     4.701     2.926  51.16  27
        20    100.3032   1019.6094 299.9176396 +22.7073828     2141.267     72.65133      7.434    14.36     35.45356     20.53904     63.36324        48     3.078     1.863 -40.05  19
        21     44.5992    981.4221 299.9127673 +22.6797124     1328.525     72.72561     10.762    12.31     37.68513     20.53904     51.61425        28     2.373     1.778 -17.13   3
        22     34.7113    985.5800 299.9083429 +22.6779341     2067.716     72.74417      7.444    23.08     43.69473     20.53904     51.64632       109     4.646     3.185  15.90   3
        23     40.2592   1018.9307 299.8992098 +22.6891551     3301.636     72.81836      6.304    29.39     63.18711     20.53904     68.51424       221     6.878     3.485  11.52  27
        24     34.6889   1004.3340 299.9022314 +22.6833003     2707.729       72.911      6.530    26.28     55.63218     20.53904     72.86404       179     4.593     4.176 -74.74  19
        25     66.7114   1001.8223 299.9129950 +22.6921982      1479.97     72.72561     10.125    12.89     41.98616     20.53904     65.63255        35     3.098     1.492  14.88   3
        26     55.9848   1003.8101 299.9090162 +22.6895462     1203.586     72.70705      7.295     9.33     47.31617     20.53904     43.21245        19     1.909     1.272 -50.11   1
        27    410.8294   1004.5862 300.0190649 +22.7963030     888.3843     72.81836      1.575     3.85      2.97064     20.53904       76.047        16     1.097     0.969 -14.03   0
        28    341.5571   1002.7723 299.9981089 +22.7749913     6613.612     72.81836      1.716     3.36     3.183432     20.53904     535.3817        43     1.416     1.315 -10.62   0
        29    426.7929    998.3276 300.0260686 +22.7992993        250.1     72.76273      1.480     4.39     3.035877     20.53904     30.74182         5     1.014     0.541  49.83   0
        30     48.9348    990.7488 299.9110781 +22.6836867      976.624      72.8369      5.600     6.60     42.46877     20.53904     45.64038        11     1.813     0.675  10.57   3
        31    374.1703    989.6429 300.0125262 +22.7810160      289.046      72.8369      1.456     3.94     3.018061     20.53904     54.98479         8     1.012     0.660 -31.68   0
        32    887.9973    981.2953 300.1752449 +22.9327577     2094.438     72.70705      1.701     3.57     3.091797     20.53904     144.0464        25     1.213     1.156  -4.74   0
        33     35.3432    973.7103 299.9124025 +22.6747231     2154.604      72.8369      5.675    18.13     35.73642     20.53904     53.44824        71     3.434     2.660   5.40   3
        34    538.4609    978.1462 300.0673880 +22.8270199     261.3894     72.85543      1.277     2.58     3.296234     20.53904     46.71653         5     0.721     0.475  73.88   0
        35    386.1720    977.9053 300.0200801 +22.7812526     297.8747     72.70705      1.485     5.33     3.045051     20.53904      32.2914         8     1.030     0.778  87.38   0
        36    676.8366    970.4280 300.1129850 +22.8663164     794.9865     72.81836      1.930     6.18     2.956844     20.53904      60.7277        19     1.550     1.301  45.49   0
        37   1003.4993    969.6342 300.2150573 +22.9640350     385.9904     72.78127      1.570     6.16     3.379162     20.53904      35.2846        11     1.364     0.781 -55.81   0
        38     39.6672    971.4406 299.9144842 +22.6753714     1585.798     72.76273      3.322    10.07     32.67533     20.53904     58.12344        17     3.257     0.868  48.38   3
        39     47.0163    968.0161 299.9178813 +22.6765973     890.8539     72.76273      2.504     3.70     29.38385     20.53904     41.10507         5     1.054     0.374  55.35   0
        40    711.5198    964.3065 300.1257808 +22.8749624     1029.454      72.9295      1.652     3.58     2.963944     20.53904     92.27921        20     1.195     1.044  32.45   0
        41    733.7406    958.0892 300.1347267 +22.8798426     11531.09     72.87395      1.579     3.06     2.971043     20.53904     1030.747        57     1.387     1.348 -16.48   0
        42    924.9413    958.7976 300.1940866 +22.9373753      1905.34     72.76273      0.425    -2.88     3.254898     20.53904      1476.09         9     0.569     0.385  62.82   0
        43    779.0132    957.8967 300.1488948 +22.8933638      551.939     72.68848      1.647     5.25     3.058391     20.53904     38.18663         9     0.986     0.790  71.73   0
        44    866.6271    951.7216 300.1782102 +22.9178617     230.1295     72.79982      1.464     6.10     3.099004     20.53904     32.31616         9     1.246     0.839  67.08   0
        45     45.6548    949.7552 299.9234016 +22.6709562     324.1505      72.8369      1.265     3.66     18.73437     20.53904     57.30225         8     0.966     0.639  52.73   0
        46    785.6276    945.9771 300.1548356 +22.8919264     354.9788     72.79982      1.513     6.06     3.102208     20.53904     33.15467        11     1.121     0.921  -6.37   0
        47    439.0996    946.1016 300.0468973 +22.7880161     467.3434     73.04048      1.847     2.26     3.253644     20.53904      58.2641         6     0.852     0.432 -59.55   0
        48    742.2898    940.1230 300.1432380 +22.8772507     1341.468     72.94801      1.483     3.99     3.005046     20.53904     116.0687        23     1.387     0.990  62.40   0
        49    925.3796    939.1274 300.2006261 +22.9318597     383.1403     72.81836      1.514     3.87      3.30249     20.53904     40.61789         9     0.952     0.740  44.49   0
        50    594.6471    937.6152 300.0980716 +22.8322492     503.5708     72.81836      1.700     5.34     3.328703     20.53904     35.24297        10     1.063     0.758 -41.15   0
        51    780.6255    933.5784 300.1573125 +22.8868680     855.1746     72.76273      1.721     3.74     3.117996     20.53904     64.79415        17     1.170     0.940   0.44   0
        52    889.0573    930.5566 300.1920914 +22.9185106     538.3494     72.78127      1.695     4.71       3.2149     20.53904      43.0633         8     1.005     0.626  40.74   0
        53    828.5785    924.8735 300.1750894 +22.8987476     521.7299     72.79982      1.430     3.39      3.19447     20.53904     65.81844        12     0.938     0.916 -19.19   0
        54    680.3504    923.8288 300.1292469 +22.8539995     594.6533     72.81836      1.418     3.98     3.034858     20.53904     65.04955        11     1.061     0.714  34.30   0
        55    392.7863    920.3890 300.0408574 +22.7667449     4171.987     72.70705      1.542     2.81     3.228862     20.53904     447.7175        33     1.232     1.171 -17.76   0
        56    691.4016    921.1277 300.1335681 +22.8565387     615.2449     72.68848      1.489     3.15     3.055857     20.53904     65.95983        11     1.030     0.730  12.59   0
        57    435.8242    908.4451 300.0581332 +22.7762336     257.0702     72.81836      1.515     4.22     3.364431     20.53904     26.65397         5     0.911     0.558  48.44   0
        58    117.9514    906.4608 299.9599488 +22.6802578      915.153     72.85543      1.867     4.17     5.467809     20.53904     74.79076        15     1.109     0.985  83.08   0
        59     33.9786    907.7612 299.9334407 +22.6554168     539.5327      72.8369      2.345     3.49     5.089214     20.53904     31.91654         5     1.581     0.222  27.02   0
        60     95.0066    903.0659 299.9539250 +22.6723959      1626.35     72.79982      1.839     3.57     5.643813     20.53904     152.5493        27     1.370     1.242  29.38   0
        61     27.1656    904.8195 299.9322819 +22.6525280     526.1751     72.81836      2.829     4.21     4.889127     20.53904     29.65529         6     1.193     0.424  60.09   0
        62    966.7708    891.9069 300.2289014 +22.9307084     2155.942     72.72561      1.656     3.33     3.606987     20.53904     168.6067        28     1.316     1.148  28.61   0
        63    625.8497    891.1891 300.1228959 +22.8282882     412.5172     72.81836      1.916     6.78     3.331903     20.53904     33.04861        10     1.487     0.866 -73.02   0
        64    921.0883    890.4830 300.2151197 +22.9166073     2001.339       72.911      1.582     3.22     3.470565     20.53904     162.3688        24     1.149     1.124  31.15   0
        65    779.7289    891.7729 300.1706386 +22.8746003     174.9465     72.78127      1.370     3.81      3.37475     20.53904     28.51818         5     1.348     0.308  31.97   0
        66    704.4461    884.2789 300.1496229 +22.8498760      614.028     72.79982      1.324     2.69     3.311346     20.53904     76.07131        11     0.962     0.754 -27.37   0
        67    572.7608    878.4507 300.1105115 +22.8087101      4689.77     72.81836      1.407     2.49     3.379581     20.53904      531.823        32     1.207     1.063  48.00   0
        68     62.5460    878.6315 299.9517916 +22.6556469     499.4051     72.81836      1.728     4.28     4.227502     20.53904     51.49478         9     1.202     0.641  52.54   0
        69    375.0754    875.6758 300.0498979 +22.7486075     625.7091     72.89248      1.368     3.84     3.506038     20.53904     66.49953         9     1.060     0.631  62.55   0
        70    122.9798    872.5737 299.9725369 +22.6720547     1272.678     72.78127      1.566     2.99     4.112515     20.53904     141.7166        19     1.143     0.960  12.97   0
        71    593.2914    870.8353 300.1193812 +22.8126830     -108.535     72.76273      1.209     2.77     3.372808     20.53904     87.24764        14     0.993     0.871 -78.87   0
        72    142.6092    869.3666 299.9796795 +22.6770282     487.2375     72.79982      1.689     4.81     3.925979     20.53904     44.48742         7     1.023     0.641  84.61   0
        73    748.7971    858.1195 300.1719515 +22.8556665      4099.99     72.70705      1.435     2.61     3.531361     20.53904     493.2244        29     1.119     1.104 -67.28   0
        74   1003.9708    858.3156 300.2514342 +22.9322105     335.1822     72.79982      1.457     4.30     3.907191     20.53904      34.6525         6     0.952     0.554  89.12   0
        75    965.7582    858.4048 300.2394874 +22.9207845     1064.057     72.81836      1.498     2.97     3.741937     20.53904     114.3301        16     1.024     0.936  15.36   0
        76    157.3952    852.1732 299.9898677 +22.6765382     481.4953     72.76273      1.634     2.85     3.741574     20.53904     56.76123         6     0.909     0.486  85.75   0
        77    465.7539    850.7701 300.0862122 +22.7686700     608.1796      72.8369      1.296     2.45     3.454889     20.53904     86.93456         9     0.867     0.683 -15.60   0
        78    112.1308    848.5515 299.9769813 +22.6619121     1028.786     72.79982      1.590     3.16     3.722803     20.53904     112.8321        17     1.110     0.966  51.64   0
        79    261.7655    840.8481 300.0259927 +22.7046173     52668.25      72.8369      1.539     2.82     3.880647     20.53904     5770.095        99     1.454     1.376  55.62   0
        80    527.7236    843.8618 300.1077458 +22.7852774     534.4193     72.85543      1.338     3.05     3.423864     20.53904     64.91592         9     0.977     0.579  61.64   0
        81    932.4338    838.8141 300.2354699 +22.9051715     818.3179     72.78127      1.486     3.33      3.60914     20.53904     79.67257        16     1.051     0.952  78.07   0
        82    519.6473    839.7672 300.1065641 +22.7816801     1638.421      72.8369      1.365     2.53     3.433246     20.53904     200.9647        17     1.059     0.864 -23.04   0
        83    189.9837    839.1283 300.0042391 +22.6825804     360.6442     72.79982      1.392     5.22     3.890174     20.53904      37.9382         9     0.964     0.798 -72.02   0
        84    548.4752    835.9985 300.1167634 +22.7892456     798.6961     72.68848      1.226     2.45     3.425938     20.53904     116.5563        13     0.952     0.795  53.51   0
        85    559.5321    834.1232 300.1208154 +22.7920238     629.7632     72.89248      1.484     3.14     3.416286     20.53904     62.34519         9     0.803     0.795  70.48   0
        86    879.6141    831.5319 300.2213711 +22.8872496     278.7117     72.81836      1.384     4.35     3.686295     20.53904     34.14341         7     1.001     0.539 -61.62   0
        87    664.8170    830.7250 300.1547041 +22.8226229     399.9904     72.79982      1.285     3.83     3.421456     20.53904     53.87311         8     0.912     0.655  64.12   0
        88    311.5339    818.1034 300.0488661 +22.7130298     31122.76       72.911      1.490     2.63     3.682032     20.53904     3633.392        78     1.382     1.306  38.28   0
        89    702.6295    820.9523 300.1696610 +22.8311559      699.153     72.81836      1.243     2.52     3.481583     20.53904     107.3478        11     0.935     0.722 -11.89   0
        90    325.7283    818.5657 300.0531298 +22.7174216     1901.785     72.79982      1.467     2.72     3.677565     20.53904     213.9839        23     1.126     1.058  22.37   0
        91    834.6841    813.7683 300.2131450 +22.8686820     2687.054     72.78127      1.418     2.52     3.717951     20.53904     319.7231        27     1.148     1.127 -16.73   0
        92    864.3168    811.9958 300.2229582 +22.8770551     172.6645     72.72561      1.132     3.39     3.797527     20.53904     47.75451         5     0.809     0.412  71.84   0
        93    728.3577    812.1461 300.1805406 +22.8363420     1341.332     72.79982      0.642     0.81     3.511972     20.53904     752.3495         6     0.515     0.395   2.21   0
        94    200.7904    816.9882 300.0147999 +22.6794761     227.6154     72.68848      1.222     3.37     3.930558     20.53904     30.94729         5     0.796     0.496 -31.28   0
        95    429.0237    810.1569 300.0879956 +22.7460007     443.0115     72.85543      1.366     3.20     3.590312     20.53904      54.0016         8     0.838     0.742  80.68   0
        96    194.3501    809.9991 300.0150715 +22.6755393     629.0647     72.78127      1.258     2.78     3.852065     20.53904     92.95672        13     0.991     0.812 -18.21   0
        97    592.4982    809.9365 300.1389469 +22.7949702     784.7059       72.911      1.310     2.50     3.392322     20.53904     113.1937        12     1.035     0.690  12.51   0
        98    439.6491    804.7817 300.0930500 +22.7476462     769.5912     72.81836      1.319     2.63     3.581742     20.53904     117.8598        14     1.051     0.806 -82.38   0
        99    840.7502    801.3388 300.2190791 +22.8669315     357.2395     72.85543      1.370     2.68     3.775563     20.53904     54.77693         7     0.793     0.602  27.11   0
       100    341.7759    800.6240 300.0639565 +22.7170908     340.0179     72.76273      1.435     2.31     3.688383     20.53904     69.61975         7     0.818     0.623 -78.31   0
       101    385.6317    799.9886 300.0778040 +22.7300663     475.7364     72.79982      1.422     2.43     3.655599     20.53904     55.69356         7     0.717     0.644 -80.50   0
       102     27.4368    799.3152 299.9666881 +22.6223732     487.3757     72.78127      1.574     4.30     3.503675     20.53904     48.49224        10     1.186     0.684  72.75   0
       103    593.4678    798.5744 300.1429447 +22.7920004     395.5123     72.78127      1.582     5.59     3.394536     20.53904     51.91149         9     1.196     0.789  13.37   0
       104    818.3436    796.1962 300.2137684 +22.8587388     492.1252     72.76273      1.701     4.11     3.721153     20.53904     52.51939        10     1.111     0.757  63.97   0
       105    191.7991    794.2374 300.0194053 +22.6702544     478.9965     72.79982      1.457     2.38     3.795659     20.53904     68.96272         8     0.806     0.610  51.44   0
       106    514.8951    784.0441 300.1232114 +22.7642666     435.7881     72.81836      1.375     4.06     3.519512     20.53904     54.98894        10     1.002     0.830 -42.12   0
       107    484.5758    782.7330 300.1142016 +22.7547967     647.6542     72.78127      1.383     2.42     3.540463     20.53904     76.43581         9     0.797     0.712 -77.32   0
       108    393.5299    782.5044 300.0859478 +22.7274204     262.3509       72.911      1.201     3.67     3.675492     20.53904     30.98283         6     0.970     0.399 -19.91   0
       109    900.9996    779.1141 300.2450901 +22.8786068     4486.314     72.66991      1.424     2.77     3.818551     20.53904       495.31        32     1.189     1.165  59.04   0
       110    506.4643    780.2593 300.1218184 +22.7606520      1291.66      72.8369      1.318     2.60      3.52954     20.53904      166.218        18     0.992     0.972  78.39   0
       111    426.0235    779.6202 300.0969947 +22.7363405     316.0842     72.79982      1.503     5.26     3.647664     20.53904     35.03859         8     1.008     0.777  59.82   0
       112    587.8552    775.1424 300.1488188 +22.7835927     204.8497     72.85543      1.136     2.92     3.413768     20.53904     45.64398         6     0.888     0.576  20.82   0
       113    889.4324    770.4090 300.2443153 +22.8726403    -959.9034     72.79982      1.423     2.77     3.895942     20.53904     172.9941        19     1.075     0.980  67.49   0
       114    252.3732    764.6402 300.0478603 +22.6799451     861.4171     72.85543      1.343     3.45     3.857415     20.53904     103.8023        14     1.143     0.832  45.54   0
       115    118.2606    765.0603 300.0060420 +22.6398175     318.9048      72.8369      1.324     4.09     3.606457     20.53904      45.4143         7     1.050     0.797 -77.66   0
       116    716.0895    761.9454 300.1930475 +22.8182531     2553.282      72.8369      1.450     2.93      3.60093     20.53904      318.312        29     1.416     1.008   0.70   0
       117    920.4818    760.5831 300.2571918 +22.8791230     1659.294     72.76273      1.426     2.79     3.810512     20.53904     175.5704        19     1.041     1.000 -72.07   0
       118    101.1458    748.6228 300.0060699 +22.6299679     577.7247     72.81836      1.618     2.94     3.726775     20.53904     64.76665         9     0.825     0.770 -70.69   0
       119    798.2001    747.7028 300.2232636 +22.8387771     638.2881     72.66991      1.666     3.19     3.810926     20.53904     62.28001        11     0.927     0.811 -38.88   0
       120    834.2186    738.7172 300.2374113 +22.8469921       145978     72.76273      1.386     2.37     3.986176     20.53904     19477.35       158     1.423     1.364  68.40   0
       121    981.2771    740.4212 300.2827077 +22.8915482     1315.305     72.79982      1.578     2.71     3.567477     20.53904     135.5026        22     1.122     1.107 -13.19   0
       122    596.3638    742.6362 300.1620399 +22.7768147     450.2911     72.87395      1.458     2.63     3.404192     20.53904     46.74417         5     0.713     0.452 -17.41   0
       123    686.4477    739.1946 300.1912131 +22.8028356     802.5344     72.78127      1.414     2.93     3.536629     20.53904     98.96884        10     0.919     0.707  29.09   0
       124    867.0142    731.5060 300.2499791 +22.8547496     282.4775     72.72561      1.299     2.27     4.113697     20.53904     57.04318         6     0.744     0.500   0.95   0
       125    520.4293    727.6769 300.1432655 +22.7497513     1466.475     72.78127      1.193     2.23     3.657478     20.53904     215.5038        15     0.901     0.825  34.00   0
       126    701.7032    724.8961 300.2006149 +22.8033040     9200.021     72.98502      1.328     2.24     3.643914     20.53904     1307.523        41     1.148     1.067  42.01   0
       127    183.1609    726.2954 300.0388153 +22.6481798      306.383     72.78127      1.421     3.88      3.68546     20.53904     54.25314         5     0.893     0.483  50.30   0
       128    203.2133    720.0971 300.0470631 +22.6524195     4871.783     72.68848      1.420     2.67     3.787563     20.53904     538.3775        35     1.246     1.120  57.53   0
       129    285.1854    718.1742 300.0731718 +22.6764632      1243.66     72.81836      1.411     2.85     3.743385     20.53904     139.1725        19     1.249     0.904  55.62   0
       130    161.0924    716.1174 300.0352662 +22.6386386     510.3876     72.94801      1.360     2.69     3.682882     20.53904     67.06847        10     0.865     0.748  74.76   0
       131    493.5503    713.5873 300.1394811 +22.7376472     746.6108     72.85543      1.200     2.47     3.814782     20.53904     110.6019        11     0.933     0.719  49.96   0
       132    485.1240    705.8281 300.1393817 +22.7328936     3249.938     72.79982      1.298     2.26     3.905745     20.53904      452.698        27     1.069     1.000  77.46   0
       133    475.4282    699.5338 300.1384108 +22.7281796     1349.683     72.78127      1.247     2.28     3.974638     20.53904     184.6074        16     0.992     0.832  45.89   0
       134    404.1639    698.4631 300.1165852 +22.7064992     374.2523     72.79982      1.314     3.86     3.963711     20.53904     53.84105         9     0.942     0.869   9.53   0
       135    869.0372    696.9782 300.2618375 +22.8454393     409.5252     72.81836      1.295     3.13     4.064683     20.53904     76.85632        11     0.984     0.836 -16.55   0
       136    138.8867    695.8553 300.0349534 +22.6261645     624.0457     72.85543      1.476     2.73     3.924454     20.53904     62.17753        10     0.860     0.731 -76.41   0
       137    152.7286    694.4337 300.0397169 +22.6299106     613.0575     72.79982      1.461     4.94     3.899574     20.53904       57.286        11     1.077     0.951  -0.19   0
       138    922.4140    690.4566 300.2805994 +22.8595595     458.4779     72.78127      1.244     2.85     3.874357     20.53904     72.34964        10     0.985     0.706 -31.66   0
       139    400.1148    689.4059 300.1182702 +22.7026860     1757.881     72.72561      1.355     2.41     3.997827     20.53904     226.2219        23     1.170     0.967  39.16   0
       140    210.0603    690.6165 300.0587764 +22.6460190     473.7548     72.76273      1.680     5.22     3.879963     20.53904      46.1023        10     1.098     0.728 -48.15   0
       141    178.6786    690.6825 300.0490010 +22.6366217     546.1642      72.9295      1.615     2.99     3.894407     20.53904      74.3083         8     0.898     0.726 -24.17   0
       142    498.9592    689.9263 300.1488577 +22.7324790     570.4747     72.78127      1.492     4.03     4.058182     20.53904     77.00274         9     0.986     0.672  11.51   0
       143    976.1969    686.6416 300.2986117 +22.8745767     768.1843     72.81836      1.369     3.91     3.600015     20.53904     92.12122        15     1.082     1.061 -39.24   0
       144     54.0673    684.3002 300.0123583 +22.5973960     19637.62     72.89248      1.561     2.89     4.301321     20.53904     1840.524        68     1.450     1.314  38.13   0
       145    484.9996    684.4991 300.1462777 +22.7267354     1006.447     72.63274      1.374     3.01      4.13801     20.53904      121.203        15     1.102     0.778  71.95   0
       146    520.2208    683.5644 300.1575437 +22.7370287     327.2524     72.81836      1.198     2.39     4.092822     20.53904     66.25696         5     0.728     0.439  23.30   0
       147    238.2178    676.6086 300.0720832 +22.6504494     345.5145     72.74417      1.249     2.78     3.870374     20.53904     45.64867         5     0.724     0.449 -19.73   0
       148    323.8819    671.7932 300.1002845 +22.6747667     215.8048     72.72561      1.124     4.91     3.852136     20.53904     35.29225         7     1.225     0.556 -82.75   0
       149    903.2572    670.7217 300.2810429 +22.8481509     981.4915      72.8369      1.198     2.30     3.928925     20.53904     156.5017        12     0.903     0.738  41.95   0
       150      1.3733    668.9208 300.0009917 +22.5771709     630.5438     56.89574      1.586     5.83     4.451786     20.53904     118.4197        13     1.626     0.589  81.41  24
       151    769.9937    668.7279 300.2401540 +22.8076452     424.9771     72.74417      1.236     2.09     3.862544     20.53904     75.24079         7     0.738     0.589  -4.10   0
       152     66.1942    668.7953 300.0211656 +22.5965899     347.5939     72.65132      1.254     3.24     4.272933     20.53904     59.35925         7     0.971     0.614  59.82   0
       153    843.6638    663.0881 300.2649470 +22.8281022     971.6282       72.911      2.088     3.03     3.994695     20.53904     99.34086        11     1.090     0.663 -20.82   2
       154    448.4552    665.1346 300.1412010 +22.7102191     397.3764     72.85543      1.298     3.32     4.263952     20.53904     53.95109         9     0.894     0.674 -13.35   0
       155    241.0847    664.0258 300.0770649 +22.6477003     289.8554     72.78127      1.355     3.81     3.898732     20.53904     39.80159         5     0.656     0.635  -4.61   0
       156    587.5901    661.7628 300.1856040 +22.7509702     249.5781     72.79982      1.270     2.25     3.990483     20.53904     41.79574         5     0.686     0.464  71.07   0
       157    405.0488    657.2449 300.1302606 +22.6949375     788.8198      72.8369      1.343     3.56     4.168639     20.53904     109.2252        11     1.117     0.666  44.15   0
       158    553.1361    655.9390 300.1767707 +22.7389687     480.5752      72.8369      1.298     2.39     4.217077     20.53904     77.90147         8     0.828     0.598  40.31   0
       159    600.4440    654.5962 300.1919360 +22.7527664     554.1309     72.81836      1.174     2.94     4.002446     20.53904      74.4892         7     0.888     0.496  31.30   0
       160    570.9235    654.2407 300.1828603 +22.7438141     486.2014     72.76273      1.142     2.29     4.146724     20.53904     86.88564         9     0.799     0.677  69.15   0
       161    449.4265    653.2188 300.1453768 +22.7070908     850.2632     72.81836      1.329     2.89     4.347484     20.53904     101.0577        12     1.033     0.690  24.13   0
       162    883.2070    648.6974 300.2819522 +22.8358169     3239.542     72.68848      1.339     2.31     3.996283     20.53904     459.6936        30     1.148     1.074 -80.41   0
       163    414.9232    648.7801 300.1360843 +22.6954698     1653.046     72.79982      1.300     2.23     4.238795     20.53904     253.2668        21     1.031     0.955  39.20   0
       164    981.0817    646.7221 300.3131139 +22.8645709     798.8268       72.911      1.457     3.32     3.615102     20.53904     92.10825        13     0.997     0.888  80.28   0
       165    779.7261    645.4355 300.2507591 +22.8038726     265.6201     72.76273      1.152     3.56     3.921719     20.53904     45.41299         6     0.875     0.504  44.80   0
       166    390.3129    644.0942 300.1299512 +22.6867444     211.6075     72.98502      1.301     3.82     4.166829     20.53904     35.70405         5     0.848     0.493  36.09   0
       167    443.8051    639.6819 300.1480280 +22.7015201     262.6412     72.72561      1.067     2.75     4.410735     20.53904        59.84         5     0.734     0.624 -70.27   0
       168    922.4030    638.3383 300.2975404 +22.8445840     371.1118     72.78127      1.348     4.13      3.79193     20.53904     49.49709         7     1.066     0.457  29.09   0
       169    278.3101    635.5630 300.0978905 +22.6507025     9158.084     72.78127      1.332     2.35     3.973256     20.53904     1072.756        40     1.151     1.137  49.70   0
       170    400.7753    632.5956 300.1369436 +22.6865825     8825.485     72.76273      1.268     2.24      4.25227     20.53904     1269.355        38     1.147     1.040  43.53   0
       171    479.7627    629.7457 300.1624472 +22.7094506      213.325     72.79982      1.278     4.32     4.688679     20.53904     29.42981         5     0.866     0.613  43.95   0
       172    166.6833    629.7573 300.0650777 +22.6155489     302.7486     72.76273      1.516     3.58     4.089705     20.53904     39.85382         5     0.887     0.417  43.48   0
       173   1005.3588    627.7380 300.3268575 +22.8663880     913.0377     72.78127      1.372     2.96     3.607644     20.53904     122.4105        15     1.026     0.894  82.48   0
       174    647.2200    628.8114 300.2148840 +22.7593855     207.8643     72.78127      1.164     2.58     4.221486     20.53904     49.42846         6     0.719     0.613  17.02   0
       175     44.8860    629.2081 300.0274142 +22.5788439     276.5213     72.72561      1.468     3.75     4.125091     20.53904     39.28624         5     0.850     0.475 -56.63   0
       176    812.5091    626.4308 300.2671534 +22.8082379     1852.365     72.74417      1.250     2.31     3.926102     20.53904     231.9738        21     1.080     0.935  78.46   0
       177    897.1232    623.8172 300.2943787 +22.8328388     12224.62     72.79982      1.326     2.23     3.913373     20.53904     1836.374        46     1.165     1.115 -88.54   0
       178    461.3979    622.1543 300.1591997 +22.7017651     11520.74     72.79982      1.292     2.24     4.639092     20.53904     1557.061        45     1.160     1.127  62.61   0
       179    188.9087    617.6137 300.0759321 +22.6187339      1337.53     72.74417      1.393     2.86     4.077115     20.53904     173.5706        19     1.120     0.909  34.92   0
       180    630.9051    617.9551 300.2133319 +22.7513780     413.5701     72.81836      1.175     2.26     4.361328     20.53904     96.78459         8     0.747     0.678 -61.90   0
       181    435.5886    615.1016 300.1534610 +22.6920018      380.835     72.68848      1.210     2.66     4.506446     20.53904     66.72504         6     0.772     0.597 -55.00   0
       182    393.0062    610.3693 300.1417509 +22.6778743     4340.488     72.79982      1.288     2.29     4.332705     20.53904     574.9406        28     1.087     0.986  71.59   0
       183    735.7879    610.2126 300.2485180 +22.7805895     801.3827     72.72561      1.206     2.13     4.252791     20.53904     129.5296        10     0.877     0.660  44.74   0
       184    371.2368    608.7662 300.1355000 +22.6708858     1161.932     72.85543      1.228     2.36     4.294848     20.53904     158.6323        14     0.933     0.846  49.99   0
       185    125.5422    608.3435 300.0592526 +22.5970632     737.9567     72.87395      1.262     2.69     4.155712     20.53904     94.65482        13     0.973     0.784  29.70   0
       186    813.0341    605.6647 300.2740669 +22.8024305     1578.422     72.79982      1.391     2.55     3.953832     20.53904     202.7803        22     1.200     0.929 -28.03   0
       187    509.6535    597.8637 300.1821124 +22.7092614     197906.6      72.8369      1.287     2.17     4.739316     20.53904     30369.16       209     1.461     1.397  37.42   0
       188    333.2113    603.7116 300.1253155 +22.6580312      341.414     72.74417      1.455     5.22     4.211363     20.53904     44.45381         9     1.066     0.724  77.51   0
       189    693.3840    602.7792 300.2377240 +22.7657468     799.5182     72.78127      1.164     2.16     4.340585     20.53904     117.5975        10     0.811     0.715  73.54   0
       190    195.7555    597.8646 300.0844785 +22.6151228     3159.509     72.81836      1.390     2.45     4.091799     20.53904     480.3111        30     1.225     1.014  74.22   0
       191    897.7761    599.4291 300.3025094 +22.8260279     304.8305     72.79982      1.112     1.85      3.91001     20.53904     59.70761         5     0.686     0.470  18.09   0
       192    761.4081    593.8709 300.2618120 +22.7835736     535.0882     72.78127      1.351     2.59      4.16978     20.53904      78.0741         7     0.848     0.547 -37.68   0
       193    540.7979    584.2282 300.1962382 +22.7146839     368.4868     72.74417      1.320     3.35     4.584815     20.53904     37.34118         5     0.930     0.350  44.30   0
       194    400.2747    578.4921 300.1543718 +22.6709055     2751.714     72.96651      1.493     2.39     4.565771     20.53904      354.501        29     1.447     0.968  88.08   0
       195    244.6343    580.8455 300.1052035 +22.6249028     316.0748     72.81836      1.098     2.63     4.085654     20.53904     61.35711         7     0.725     0.646 -89.61   0
       196    849.5931    578.0824 300.2944265 +22.8054605      348.459     72.72561      1.213     2.35     4.117527     20.53904     52.72187         6     0.772     0.490  86.73   0
       197    811.6924    574.3455 300.2838277 +22.7930319     384.7714     72.85543      1.107     2.83     4.100524     20.53904     55.18068         6     0.818     0.648   3.70   0
       198    717.9131    566.5840 300.2571285 +22.7627028     360.4333     72.74417      1.241     3.28     4.355941     20.53904     52.99159         6     0.794     0.492  -2.84   0
       199    797.2919    564.2256 300.2826285 +22.7858103     1715.609     72.74417      1.217     2.20     4.161843     20.53904     251.7252        18     1.001     0.853  61.30   0
       200    683.5612    564.2437 300.2471880 +22.7517363     307.9818     72.89248      1.129     2.27     4.408873     20.53904     57.11697         5     0.719     0.461  70.48   0
       201    668.4312    561.9530 300.2432197 +22.7465442     2477.696      72.8369      1.235     1.96      4.44077     20.53904     387.0956        18     0.956     0.843  69.75   0
       202    912.8898    559.0715 300.3203379 +22.8189598     584.1658     72.96651      1.425     2.39     3.894816     20.53904     80.00937         8     0.805     0.701  10.35   0
       203    877.8016    558.7768 300.3094940 +22.8083645     298.0233     72.74417      1.301     3.84     4.068964     20.53904      39.0139         6     0.784     0.540  36.14   0
       204    455.6210    558.0816 300.1782248 +22.6816422     555.8906     72.76273      1.294     2.51     4.877185     20.53904     100.9838        11     0.973     0.711  69.29   0
       205    925.7263    555.9504 300.3253547 +22.8219080     1301.807     72.79982      1.313     2.53     3.838104     20.53904     175.2905        16     1.066     0.826  62.12   0
       206    573.2014    558.5591 300.2146676 +22.7170276     433.1533     72.79982      1.058     2.30     4.613534     20.53904     62.54326         6     0.726     0.496   1.73   0
       207    797.4612    554.3096 300.2859036 +22.7830125       2297.5     72.89248      1.493     3.49     4.215781     20.53904     296.2379        24     1.505     0.912  72.27   0
       208    911.3075    554.7995 300.3212328 +22.8172584     811.0875     72.66991      1.373     2.51     3.912887     20.53904     96.44366        11     0.930     0.723  27.43   0
       209    550.8673    552.3608 300.2097286 +22.7085533     801.1969     72.76273      1.925     2.95     4.631857     20.53904     96.17866        12     1.077     0.757  83.23   2
       210    336.9844    552.1083 300.1432581 +22.6443546     359.6779     72.72561      1.473     3.41     4.372654     20.53904     45.17226         6     0.870     0.659  51.35   0
       211    835.6833    549.3950 300.2994134 +22.7930518     4138.608     72.72561      1.221     2.17     4.180147     20.53904     540.6556        27     1.083     0.950  80.09   0
       212    389.1003    551.2370 300.1597521 +22.6597324     403.6725     72.79982      1.349     2.24     4.685238     20.53904     66.34983         6     0.816     0.464  35.24   0
       213    476.7940    549.4238 300.1876270 +22.6855047     67.65046     72.78127      0.954     3.14      4.92625     20.53904     32.41018         5     0.724     0.464 -17.80   0
       214    496.6407    545.9156 300.1949436 +22.6904474     374.7215     72.76273      1.508     3.06     4.859642     20.53904     44.83751         6     0.942     0.688  35.93   0
       215     67.6828    540.0268 300.0634754 +22.5601090     1011.192     72.78127      1.419     3.14     4.112092     20.53904     114.7483        13     0.984     0.860  49.18   0
       216    927.4896    539.8713 300.3311296 +22.8178158     672.1842     72.96651      1.082     2.25     3.904319     20.53904     115.0312         9     0.806     0.686 -65.15   0
       217    867.0956    537.0345 300.3132216 +22.7989105     397.5143     72.79982      1.371     3.31     4.144183     20.53904      40.6333         5     0.793     0.507 -32.18   0
       218    728.7452    533.4441 300.2712719 +22.7564301     234.4138     72.81836      1.095     3.45      4.37457     20.53904     44.38872         5     0.779     0.443 -20.59   0
       219     87.9740    531.6243 300.0725091 +22.5637867     205.5149     72.76273      1.127     3.87     4.189452     20.53904     31.84786         5     0.893     0.480  -4.95   0
       220     60.6315    529.7942 300.0646094 +22.5550584     382.4412     72.79982      1.396     2.55     4.128399     20.53904      56.6086         7     0.771     0.616 -66.96   0
       221    923.6180    528.8297 300.3335102 +22.8134832     364.3226     72.78127      1.180     2.42     4.003675     20.53904     49.66775         5     0.710     0.452  70.89   0
       222    667.8827    524.3250 300.2552755 +22.7355734     391.2728       72.911      1.288     2.79     4.519218     20.53904     79.75622        10     0.917     0.737  82.69   0
       223    556.6334    521.7137 300.2214816 +22.7014821     349.8338     72.76273      1.146     2.51     4.655533     20.53904     64.20688         5     0.727     0.432  68.69   0
       224    609.0945    519.9080 300.2384023 +22.7166870     611.2151     72.96651      1.225     2.35     4.691909     20.53904     113.0517        10     0.848     0.711  82.99   0
       225   1016.4984    517.5503 300.3661427 +22.8380574     1074.934     72.87395      1.216     2.20     4.174422     20.53904     150.7061        16     1.037     0.807  73.08   0
       226    669.6974    512.4438 300.2597010 +22.7327048     896.1652     72.79982      1.321     2.43     4.545484     20.53904     145.3982        14     1.151     0.820 -32.19   0
       227    923.5961    512.3593 300.3388549 +22.8087436     556.6483     72.81836      1.204     2.37     4.139209     20.53904      72.1362         8     0.817     0.635  82.69   0
       228    827.0980    508.5146 300.3100205 +22.7787347     974.2144     72.96651      1.203     1.92     4.248217     20.53904     158.6252        13     0.863     0.758  77.23   0
       229    811.4253    504.6389 300.3063949 +22.7729262     603.7529     72.81836      1.243     2.29     4.268058     20.53904     94.69109        11     0.872     0.740  21.43   0
       230    555.6445    502.7653 300.2273298 +22.6957448     3141.893     72.85543      1.237     2.21     4.662144     20.53904     496.1406        22     1.050     0.890  42.64   0
       231    916.0031    501.7333 300.3399396 +22.8034159     456.2706     72.79982      1.219     2.42     4.219395     20.53904     76.07039         7     0.701     0.668  14.73   0
       232     31.8689    494.3491 300.0671896 +22.5362623     329.7873     72.78127      1.402     4.77     4.242249     20.53904     34.17828         7     0.969     0.667   2.81   0
       233    327.4259    490.4718 300.1603102 +22.6237988     227.2441     72.81836      1.031     2.84     4.355402     20.53904     53.43585         6     0.832     0.491 -85.12   0
       234    395.5583    489.7935 300.1817235 +22.6440322     332.9745      72.8369      1.109     1.95     4.618864     20.53904     60.66301         5     0.664     0.468  69.35   0
       235    967.0573    481.6803 300.3623754 +22.8129423     1300.252      72.8369      1.353     2.22     4.481321     20.53904     194.3701        13     0.894     0.785  70.00   0
       236    839.0352    481.3990 300.3225506 +22.7745194     591.3624     72.76273      1.274     2.82      4.27499     20.53904     96.99896        11     1.025     0.652  70.19   0
       237    925.2834    480.3466 300.3497815 +22.8000489     1018.296      72.8369      1.229     2.49     4.384586     20.53904     135.7133        12     0.904     0.762  34.44   0
       238    575.4115    478.8916 300.2412395 +22.6948134     194.8161     72.74417      1.059     3.66     4.706846     20.53904     43.24471         6     0.800     0.483  81.30   0
       239    666.2221    476.7123 300.2702266 +22.7214004     1013.247     72.72561      1.225     2.23     4.620474     20.53904     176.2761        13     0.941     0.807  33.95   0
       240    461.8569    477.2058 300.2064411 +22.6602939     453.8953     72.76273      1.339     3.12     4.679465     20.53904     63.05088         8     0.870     0.687  34.70   0
       241    170.1353    474.9688 300.1164441 +22.5721797     600.6217     72.79982      1.227     2.50      4.21163     20.53904     80.51619         8     0.794     0.616  53.43   0
       242      9.8748    473.7492 300.0670496 +22.5237550     259.2722     72.79982      1.770     4.63     4.331108     20.53904     39.15847         5     1.222     0.498 -28.02   0
       243    232.6140    470.7067 300.1372492 +22.5896949     3659.718     72.72561      1.339     2.34     4.220057     20.53904     501.8649        27     1.180     0.955  47.03   0
       244    965.6861    468.9136 300.3660951 +22.8088622     4412.103      72.9295      1.301     2.19     4.468099     20.53904      624.202        30     1.118     1.016  69.55   0
       245    179.7350    465.5251 300.1224951 +22.5723493     7555.501     72.85543      1.360     2.36     4.245063     20.53904     960.2881        37     1.199     1.085  53.90   0
       246    781.8148    465.3850 300.3099190 +22.7527778      168.118     72.74417      1.079     3.51     4.301923     20.53904     37.63705         5     0.877     0.518  53.33   0
       247    558.2598    464.9386 300.2404320 +22.6856662     375.6631      72.8369      1.112     2.23     4.665079     20.53904     59.33319         7     0.696     0.646  65.02   0
       248    320.5626    459.7354 300.1681596 +22.6129189     4754.379     72.79982      1.268     2.18     4.313594     20.53904     657.8945        31     1.098     1.020  42.29   0
       249    945.5792    460.0388 300.3627074 +22.8002903     1872.487      72.8369      1.311     2.22     4.375965     20.53904      242.954        20     1.083     0.923 -25.50   0
       250    564.7945    456.3426 300.2452586 +22.6851560     18303.18     72.76273      1.219     2.11     4.668406     20.53904     2584.709        51     1.199     1.038  62.51   0
       251    412.0590    457.9494 300.1972009 +22.6398374     389.4829     72.85543      1.582     5.20     4.557905     20.53904     31.55953         7     1.051     0.728  12.12   0
       252    581.5515    457.0826 300.2502354 +22.6903902     673.5709     72.81836      1.332     2.93     4.690809     20.53904     88.95615         8     0.912     0.576  56.90   2
       253    583.6508    455.3055 300.2514663 +22.6905090      494.786     72.87395      1.494     4.03     4.690511     20.53904     48.16502         7     1.051     0.522  61.14   2
       254    422.9482    452.5876 300.2023304 +22.6415624     285.2457      72.8369      1.825     4.53     4.561598     20.53904     27.79111         5     1.452     0.401  11.81   0
       255    761.4325    446.4272 300.3097255 +22.7412252     323.4508     72.79982      1.004     2.64     4.315419     20.53904     66.65981         5     0.698     0.464  70.46   0
       256    184.6271    443.7693 300.1310816 +22.5675737     354.3274     72.79982      1.108     2.21     4.326789     20.53904     61.19686         5     0.719     0.428  67.14   0
       257    898.2222    438.8925 300.3548094 +22.7800308     784.9868     72.72561      1.324     2.60     4.244347     20.53904     94.48032        12     0.963     0.752 -66.75   0
       258    435.2797    438.2317 300.2108300 +22.6411372     366.2494     72.79982      1.249     3.06      4.54424     20.53904     49.44851         6     0.740     0.571  42.80   0
       259    119.4016    436.5884 300.1131434 +22.5459507     1923.382     72.61415      1.424     2.66     4.415745     20.53904     229.2531        22     1.154     0.976  64.56   0
       260    608.3917    437.2435 300.2650365 +22.6927352     322.2005     72.81836      1.262     3.35     4.680212     20.53904     33.81167         5     0.745     0.440  69.42   0
       261    505.3858    425.7585 300.2366984 +22.6585684      6595.99     72.81836      1.226     2.08     4.649166     20.53904     941.3602        35     1.165     0.980  60.72   0
       262    918.9332    425.9385 300.3654745 +22.7825098     1291.926      72.8369      1.266     2.28     4.186437     20.53904     208.2721        16     1.073     0.790 -79.33   0
       263    220.1157    425.1775 300.1481509 +22.5728810     714.9872     72.76273      1.372     2.58      4.39737     20.53904     84.68102         9     0.771     0.722  61.76   0
       264     77.9725    418.6657 300.1060917 +22.5283820     452.8698     72.78127      1.235     2.93     4.505937     20.53904     69.49586         8     0.920     0.612  -6.35   0
       265    765.0323    417.1590 300.3203532 +22.7338940     350.0083     72.85543      1.411     2.68     4.312848     20.53904     50.00426         6     0.873     0.454 -38.03   0
       266    619.1491    415.7970 300.2753517 +22.6897984     509.6092     72.79982      1.284     2.28     4.586396     20.53904       82.298         8     0.795     0.585  38.80   0
       267    709.5253    414.5154 300.3039175 +22.7165070     1094.511       72.911      1.326     2.58     4.331326     20.53904      154.209        16     1.115     0.773  60.58   0
       268    412.0436    412.1443 300.2120724 +22.6266820     6052.738     72.79982      1.295     2.11     4.411928     20.53904     939.5325        32     1.106     0.992  66.31   0
       269    901.3571    406.6048 300.3662733 +22.7716895       667.85     72.81836      1.328     2.63       4.2239     20.53904     72.89548        11     0.950     0.702  28.64   0
       270    804.0125    406.3318 300.3360171 +22.7424583     1256.065     72.81836      1.205     2.06     4.289612     20.53904     198.4758        14     0.889     0.809  31.56   0
       271    396.6186    400.8935 300.2109269 +22.6188281     485.5844     72.72561      1.341     3.49     4.383464     20.53904     64.23033         8     0.990     0.576  62.56   0
       272    479.2809    398.6950 300.2373624 +22.6429729     483.3894     72.94801      1.311     2.57     4.586133     20.53904      68.5135         9     0.879     0.625  65.46   0
       273    757.2462    397.7619 300.3242264 +22.7259882     216.0863     72.85543      1.258     2.34      4.32115     20.53904     37.13959         5     0.787     0.646 -35.98   0
       274    459.4430    396.0241 300.2320560 +22.6362604     238.3171     72.85543      1.245     3.73     4.516856     20.53904     34.79258         6     0.819     0.489  82.27   0
       275    776.8058    393.8637 300.3315873 +22.7307267     639.5928     72.78127      1.454     2.47     4.307224     20.53904     101.0737         9     0.883     0.758  72.19   0
       276    299.6344    391.2921 300.1838785 +22.5869978      2438.05     72.74417      1.220     2.30     4.225073     20.53904     295.7391        20     1.116     0.844  65.86   0
       277     17.8480    388.7204 300.0971386 +22.5017560     1046.988     72.81836      1.572     3.34     4.469045     20.53904     113.4886        15     1.103     0.908  32.13   0
       278    875.3384    387.7954 300.3642697 +22.7584919     447.0401     72.79982      0.699     0.73     4.313518     20.53904     259.0833         5     0.566     0.403  -0.84   0
       279    268.8858    380.7653 300.1777351 +22.5747573     29335.59     72.76273      1.354     2.37     4.254419     20.53904     4214.719        78     1.386     1.174  53.65   0
       280    803.5120    378.1900 300.3449998 +22.7342211      1347.58     72.74417      1.199     2.45     4.292314     20.53904     181.4282        17     1.013     0.852  60.53   0
       281    759.1143    375.7602 300.3319530 +22.7202255     247.8596     72.78127      1.167     2.35     4.323215     20.53904     46.32072         6     0.724     0.547 -43.88   0
       282    143.0916    367.1334 300.1430579 +22.5331256     468.3966     72.94801      1.402     3.21      4.47396     20.53904     63.61957         9     0.886     0.768  70.41   0
       283    718.8932    367.0170 300.3222601 +22.7056658     528.2897     72.72561      1.200     2.43     4.342942     20.53904     90.68211         9     0.865     0.641  82.00   0
       284    367.3191    365.8927 300.2131770 +22.5999962     554.4117     72.94801      1.268     2.53     4.289348     20.53904     75.40641        11     0.864     0.803 -40.36   0
       285    679.3332    360.4037 300.3120837 +22.6919155     1965.314     72.78127      1.224     2.19     4.344636     20.53904     274.6673        18     0.953     0.886  77.29   0
       286    487.3992    355.0341 300.2540657 +22.6328671     430.1162     72.76273      1.410     2.54     4.455694     20.53904     52.38744         7     0.727     0.628  66.82   0
       287    894.4172    353.2513 300.3814348 +22.7542753     529.6823     72.79982      1.156     2.32      4.39665     20.53904     92.29325         7     0.827     0.535  31.61   0
       288    341.1401    345.0576 300.2117983 +22.5861669      2181.96     72.87395      1.499     2.81     4.259836     20.53904     250.7946        22     1.275     0.871  67.86   0
       289    553.6028    343.8096 300.2783177 +22.6494807      138.479     72.61415      1.017     2.98     4.476453     20.53904      60.3119         5     0.828     0.458  39.83   0
       290    780.1093    337.8575 300.3508020 +22.7156211     571.9711     72.85543      1.220     2.25     4.306958     20.53904     101.7975         9     0.831     0.640  70.15   0
       291    679.7631    335.5596 300.3202837 +22.6849059     360.0625     72.87395      1.037     2.02     4.346373     20.53904     56.70371         5     0.683     0.443  25.50   0
       292    630.3141    334.7964 300.3051300 +22.6698739     236.3192     72.72561      1.123     2.77     4.415661     20.53904     45.60777         6     0.749     0.572 -37.86   0
       293    417.0898    324.3953 300.2421331 +22.6029975     1257.145     72.70705      1.325     2.47     4.530324     20.53904     159.4937        18     1.208     0.900  61.08   0
       294    269.3963    323.3196 300.1965437 +22.5584196     134.7107     72.70705      1.221     4.50     4.381499     20.53904     36.45503         7     1.094     0.526  45.96   0
       295    661.8638    316.2713 300.3209701 +22.6740021     2116.395      72.8369      1.242     2.09     4.364066     20.53904     314.0452        21     1.002     0.904  82.72   0
       296    923.1095    310.5279 300.4042517 +22.7505835      3108.91     72.96651      1.271     2.10     4.268752     20.53904     478.5928        25     1.068     0.942  60.74   0
       297    984.4310    305.1844 300.4251106 +22.7674041       482.03     72.79982      1.570     3.49     4.115487     20.53904     57.41829         9     0.980     0.740 -73.50   0
       298    294.2208    301.8646 300.2112274 +22.5597014     124.2807     72.78127      1.194     3.72     4.455689     20.53904     28.26982         5     1.156     0.344  77.84   0
       299    370.1974    300.3036 300.2353648 +22.5820254     674.0333     72.70705      1.207     2.25     4.414589     20.53904     93.72036         9     0.804     0.653 -76.90   0
       300    992.5101    298.3786 300.4298400 +22.7678654     1635.375     72.72561      1.324     2.37     4.097945     20.53904     187.4021        18     1.010     0.880  81.09   0
       301     44.8298    294.4254 300.1361299 +22.4827931     1443.031     72.79982      1.748     3.09     4.531748     20.53904     136.7808        25     1.361     1.151 -15.28   0
       302     75.9027    294.2159 300.1458509 +22.4920512     599.2386     72.70705      1.520     3.29     4.599391     20.53904      72.6681        13     1.165     0.819  64.58   0
       303    938.8384    290.9844 300.4155008 +22.7496731     453.6275     72.81836      1.073     1.98     4.160381     20.53904     96.96217         8     0.751     0.623  47.10   0
       304    782.8026    287.7173 300.3679182 +22.7020166     336.2225     72.70705      1.112     2.86     4.300634     20.53904      44.5159         7     0.821     0.588 -30.30   0
       305    129.0166    286.2687 300.1649335 +22.5056969     335.3272     72.81836      1.329     4.10     4.691379     20.53904     49.46473        10     0.947     0.762  56.48   0
       306    924.1780    283.4981 300.4133592 +22.7431319     304.4635     72.72561      1.135     2.04     4.248442     20.53904     59.90009         5     0.687     0.461  22.40   0
       307    733.3914    277.3458 300.3558878 +22.6842389     601.3416     72.79982      1.192     3.19      4.35288     20.53904     89.19151        10     1.120     0.565  82.71   0
       308    323.9032    277.3182 300.2284255 +22.5615501      396.886     72.94801      1.342     3.68     4.473016     20.53904     47.34601         7     0.971     0.620  15.67   0
       309    824.2317    270.3777 300.3864583 +22.7094374     361.5932     72.79982      1.497     3.16     4.428562     20.53904      39.5533         5     0.727     0.458  16.44   0
       310    831.5724    266.7309 300.3899301 +22.7105869     1974.018     72.79982      1.203     2.24     4.478865     20.53904     285.6542        18     0.985     0.853  75.19   0
       311    327.8994    259.1113 300.2355773 +22.5575196      950.725     72.96651      1.388     2.62     4.556143     20.53904     121.5122        16     1.014     0.919 -52.16   0
       312     79.6635    259.6809 300.1582273 +22.4832676     415.8282       72.911      1.577     5.32     4.670725     20.53904     36.63007         9     1.046     0.764  43.60   0
       313    730.0159    258.4845 300.3609578 +22.6778070     610.4819     72.76273      1.317     2.25     4.360991     20.53904     86.01266        10     0.882     0.652 -61.63   0
       314    250.0357    264.0646 300.2097565 +22.5356039      2071.59     72.79982      1.339     2.62     4.575308     20.53904     269.6004        19     1.082     0.839  63.02   0
       315    144.7582    251.2957 300.1811753 +22.5003780     896.3311      72.8369      1.568     3.11      4.71867     20.53904     92.78094        13     1.018     0.821  83.86   0
       316    262.3817    250.2898 300.2180655 +22.5353495     289.2656     72.72561      1.386     3.43     4.603495     20.53904     44.61431         5     0.725     0.470  77.01   0
       317    682.6325    248.1207 300.3495597 +22.6606384      1691.52     72.78127      1.240     2.34     4.364895     20.53904     252.6031        17     0.986     0.799  69.90   0
       318    747.3457    247.4559 300.3699367 +22.6798266     608.8641      72.8369      1.356     2.83     4.362162     20.53904     80.58299        11     0.963     0.786  55.82   0
       319    165.9907    244.6856 300.1899192 +22.5048460     573.1756     72.72561      1.367     3.14      4.71071     20.53904     85.96826        10     1.036     0.657  50.76   0
       320    954.0668    240.3732 300.4366768 +22.7396783     911.8496     72.78127      1.338     2.60     4.566575     20.53904     119.5978        16     0.990     0.920  30.08   0
       321    686.6387    239.4992 300.3536055 +22.6593603      748.751     72.81836      1.226     2.45     4.368939     20.53904     122.7768        12     0.949     0.743  58.00   0
       322    607.1830    238.8902 300.3290562 +22.6353883     1278.008     72.72561      1.328     2.14     4.628942     20.53904     222.3085        18     1.161     0.852  77.06   0
       323    456.0679    240.6580 300.2814404 +22.5906266     329.8481     72.81836      1.207     2.05     4.843417     20.53904     55.80101         7     0.673     0.646  11.25   0
       324    421.9799    234.8715 300.2727108 +22.5787508     172.9101      72.8369      1.438     4.55     4.823414     20.53904     37.80178         5     1.403     0.419  72.42   0
       325    428.4093    235.4022 300.2745391 +22.5808297     337.9069     72.61415      1.120     2.48      4.82772     20.53904     52.68319         5     0.692     0.455  69.09   0
       326    802.6584    230.1875 300.3927778 +22.6914245      1474.31     72.76273      1.211     2.30     4.381781     20.53904     205.6597        17     0.960     0.881 -71.15   0
       327    533.5499    230.5789 300.3088274 +22.6109439     912.4935     72.79982      1.283     2.41      4.82255     20.53904     129.6707        16     0.997     0.863  39.96   0
       328    814.7487    229.4521 300.3967847 +22.6948329     775.3441      72.8369      1.300     2.34     4.467871     20.53904     122.9364        13     1.115     0.703  45.27   0
       329    985.5077    225.8412 300.4511990 +22.7449093     315.0228     72.79982      1.616     3.96     4.618697     20.53904     39.02187         5     0.899     0.542  41.44   0
       330    975.5273    220.2154 300.4499117 +22.7403044     1665.705     72.79982      1.431     2.31     4.656855     20.53904     189.6066        22     1.179     0.917  59.50   0
       331    931.4260    219.7151 300.4363201 +22.7269609     1204.774     72.78127      1.252     2.46     4.777246     20.53904     174.2458        13     0.949     0.772  73.74   0
       332    165.3224    212.8739 300.2000337 +22.4955131     704.7144       72.911      1.351     2.77       4.7225     20.53904     87.27925        13     1.012     0.776  48.54   0
       333     27.3349    207.7910 300.1588086 +22.4526841     2111.922     72.78127      1.456     2.69     4.819538     20.53904     243.8695        24     1.156     1.027  34.19   0
       334    850.4317    204.5250 300.4159962 +22.6983487      669.809     72.79982      1.156     2.27     4.837274     20.53904       99.149        13     0.882     0.788 -64.87   0
       335    184.7585    201.0538 300.2099098 +22.4979457     5617.534     72.79982      1.356     2.44     4.712833     20.53904     753.7587        34     1.227     1.044  56.08   0
       336    166.6234    202.0994 300.2039338 +22.4928098     408.6945     72.74417      1.345     2.52      4.72775     20.53904     55.97039         7     0.795     0.594  54.17   0
       337    168.0878    191.8404 300.2077174 +22.4903034     645.1708     72.78127      1.306     2.70     4.733426     20.53904     77.45805        10     0.925     0.682  81.70   0
       338    983.6126    188.2910 300.4627927 +22.7335423      18152.3     72.74417      1.313     2.28     4.662231     20.53904     2269.808        57     1.274     1.142  69.45   0
       339    828.9006    182.3994 300.4164636 +22.6855415     3567.853     72.63274      1.325     2.30     4.886352     20.53904     499.4472        28     1.190     0.969 -82.82   0
       340    932.4650    181.1309 300.4491639 +22.7161757     2796.951     72.85543      1.300     2.28     4.995779     20.53904     370.5838        24     1.099     0.940  85.79   0
       341    131.4155    178.7512 300.2005665 +22.4755525     346.5445      72.8369      1.453     4.17     4.876019     20.53904     37.33521         6     0.736     0.672  25.38   0
       342    378.0749    177.8232 300.2775609 +22.5492089     654.1838      72.8369      1.304     3.40     4.898135     20.53904       87.894        11     1.032     0.740  31.39   0
       343    492.5595    175.3750 300.3139797 +22.5828038     188.5403      72.8369      1.037     3.45     4.876382     20.53904     39.29171         5     0.753     0.457 -71.04   0
       344    302.0058    169.5420 300.2565866 +22.5240367     543.7812     72.76273      1.313     2.52     4.798434     20.53904     82.88217        10     0.880     0.733  79.26   1
       345    306.0387    168.0404 300.2583280 +22.5248140     512.7552     72.87395      1.617     4.33     4.814532     20.53904      47.3103         9     0.989     0.763  17.20   1
       346    429.6109    165.0815 300.2977290 +22.5609890     1718.323     72.76273      1.249     2.28     4.870572     20.53904     239.2248        20     1.086     0.841  71.25   0
       347     68.3082    166.5737 300.1849083 +22.4531381     470.9844     72.74417      1.330     3.59     5.148106     20.53904     72.95292        13     1.095     0.918  82.41   0
       348    357.4895    165.3501 300.2752036 +22.5394581      466.564     72.79982      1.330     3.07     4.956131     20.53904     58.59258         7     0.933     0.471  78.00   0
       349    491.2656    164.3259 300.3171615 +22.5792415     431.0169      72.8369      1.314     3.64     4.877998     20.53904     49.25587         8     0.896     0.658  25.69   0
       350    173.2654    160.6301 300.2194516 +22.4828943     525.5597     72.81836      1.538     3.12      4.75067     20.53904      54.5336         8     0.953     0.559  70.20   0
       351    718.0840    154.2674 300.3910565 +22.6442773     173.7782       72.911      0.940     1.92     4.783026     20.53904     69.53709         6     0.675     0.549  54.08   0
       352    203.6831    144.9271 300.2340003 +22.4875020     5950.628      72.9295      1.409     2.44     4.671983     20.53904     754.2262        35     1.255     1.035  60.64   0
       353    993.9221    145.6193 300.4798526 +22.7243533     3759.709     72.79982      1.436     2.28     4.525748     20.53904     546.7003        32     1.342     1.138 -21.36   0
       354     54.8682    144.5056 300.1878913 +22.4427739     722.2959     72.94801      1.434     2.92     5.223339     20.53904      85.5547        12     1.052     0.676  68.33   0
       355    832.7288    141.6534 300.4308757 +22.6749711     182.6757     72.81836      1.167     3.48     5.031827     20.53904     38.54697         5     0.785     0.444  15.26   0
       356    175.1886    139.0364 300.2270537 +22.4772704     274.9019     72.78127      1.270     4.03     4.698198     20.53904     56.52811         8     0.997     0.630 -25.01   0
       357    219.4474    135.8670 300.2418397 +22.4896248     468.6798     72.79982      1.565     4.08     4.611025     20.53904     50.92707         7     0.980     0.662 -82.70   0
       358    449.7606    130.1975 300.3153150 +22.5570028      5999.82     72.81836      1.302     2.31     4.756979     20.53904     786.6179        29     1.113     0.985  63.95   0
       359    335.0650    130.0408 300.2796820 +22.5225967     689.5485     72.76273      1.297     2.60     4.790359     20.53904     105.8158        11     0.966     0.700 -64.37   0
       360    507.1288    124.8496 300.3349046 +22.5726497     315.3427     72.79982      1.349     5.52     4.733239     20.53904     42.48954         9     0.984     0.873 -65.64   0
       361    470.6571    124.5136 300.3236618 +22.5616290     357.1614     72.89248      1.250     3.91     4.689479     20.53904     44.07239         6     0.921     0.474  88.59   0
       362    643.7961    121.3757 300.3785848 +22.6125791      320.636     72.76273      1.171     2.89     4.783692     20.53904     44.45626         5     0.712     0.466 -14.17   0
       363    702.3281    119.7716 300.3973377 +22.6296430      667.201     72.79982      1.245     2.32     4.783789     20.53904     101.8632        10     0.862     0.691  52.21   0
       364    794.7193    118.3449 300.4265895 +22.6568913     395.9343      72.8369      1.124     2.63     4.967625     20.53904     58.97323         8     0.848     0.620  83.85   0
       365    142.6300    114.1310 300.2250123 +22.4603605     475.6497     72.78127      1.462     2.63     4.805624     20.53904     69.78981         7     0.789     0.662  19.05   0
       366    500.9737    112.6422 300.3369481 +22.5672981     414.1476      72.8369      1.228     3.22     4.662243     20.53904     63.63897         8     0.841     0.699  49.16   0
       367    578.1284    110.2570 300.3617413 +22.5897194     6111.114     72.81836      1.278     2.24     4.792012     20.53904     841.3969        31     1.123     0.976  76.45   0
       368    353.0668    109.3450 300.2919940 +22.5220450     1486.208     72.85543      1.351     2.56     4.713882     20.53904     190.2005        18     1.095     0.882  74.99   0
       369    688.8854    106.4983 300.3974551 +22.6218024     402.7552     72.96651      1.888     5.06     4.784812     20.53904     53.50765         7     1.404     0.517 -85.75   0
       370    619.2070    107.5749 300.3754030 +22.6012493     818.4202     72.79982      1.251     2.40     4.785695     20.53904     118.6209        11     0.928     0.679  56.85   0
       371    635.3856    103.4603 300.3817761 +22.6049109     687.9506     72.76273      1.566     3.09     4.785569     20.53904     86.95172        11     0.947     0.782 -42.55   0
       372    904.9778    101.0089 300.4665840 +22.6849055     498.6507     72.79982      1.226     2.92     5.023769     20.53904     92.20264         9     0.965     0.692 -75.03   0
       373    102.0892    101.8762 300.2163886 +22.4446905     701.8603     72.94801      1.395     3.04     5.089296     20.53904     98.17289        13     1.037     0.842  27.17   0
       374    673.7853     99.2064 300.3951163 +22.6151852     502.4133     72.70705      1.230     2.97     4.785651     20.53904      82.7302        10     1.025     0.633  46.27   0
       375    622.2858     95.1088 300.3804050 +22.5985878     2717.334     72.96651      1.275     2.11     4.772693     20.53904     408.2399        24     1.076     0.947  60.97   0
       376    262.8675     95.4300 300.2684545 +22.4910227     393.2934     72.78127      1.420     4.99     4.544591     20.53904     49.90261         8     1.226     0.575  71.80   0
       377    637.3903     93.7573 300.3855474 +22.6027219     847.8117     72.79982      1.493     4.32     4.766042     20.53904     91.67059        14     1.286     0.696  49.93   0
       378    708.7006     86.6045 300.4100803 +22.6220152     1460.535     72.68848      1.237     2.30     4.724813     20.53904     215.8419        16     0.946     0.855  71.76   0
       379    869.1332     85.1112 300.4605642 +22.6696061       295.94       72.911      1.156     2.65     4.905323     20.53904     49.96226         6     0.741     0.553  35.54   0
       380     25.2581     79.4926 300.1997778 +22.4152337     553.8194     72.85543      1.508     3.57      4.95792     20.53904     71.67266        11     1.057     0.734 -75.43   0
       381    646.8204     79.7027 300.3930425 +22.6015050     700.3392     72.72561      1.286     2.71     4.672916     20.53904     115.4693        14     1.038     0.842  23.60   0
       382    452.3748     79.2470 300.3326531 +22.5431456     1245.454     72.81836      1.500     2.21      4.57075     20.53904     147.2843        16     1.083     0.799  48.50   0
       383    356.0553     77.3729 300.3032924 +22.5137552     749.2802     72.79982      1.241     3.53      4.58308     20.53904     104.3049        13     1.153     0.730  48.30   0
       384    738.3860     76.1405 300.4227228 +22.6278930     475.8329     72.76273      1.068     2.17     4.668282     20.53904     61.06946         5     0.701     0.445  68.72   0
       385    999.1794     74.0504 300.5047065 +22.7053373     2310.651     72.79982      1.358     2.24     4.235795     20.53904     313.4033        24     1.104     0.997  60.04   0
       386    695.7452     67.9497 300.4120939 +22.6127732      507.266      72.8369      1.207     2.43     4.602976     20.53904     101.0887        10     0.914     0.693  86.75   0
       387    127.5346     67.5149 300.2354383 +22.4424504     3719.891       72.911      1.449     2.51     4.633995     20.53904     434.7112        29     1.241     1.016  57.24   0
       388    258.1409     67.8390 300.2759322 +22.4816813     263.4042     72.79982      1.262     3.40     4.390363     20.53904      43.1824         5     0.761     0.665  43.69   0
       389    549.8781     64.6205 300.3677458 +22.5681427     344.4627     72.79982      1.340     4.11      4.56578     20.53904     35.75594         6     0.766     0.630 -50.07   0
       390    453.7871     64.9292 300.3377356 +22.5394542     234.2381     72.79982      1.013     2.40     4.524119     20.53904     55.27247         7     0.728     0.640 -77.17   0
       391    688.8547     59.7659 300.4126012 +22.6083575     786.2034     72.81836      1.254     2.40     4.548651     20.53904     140.6824        12     0.948     0.756  57.21   0
       392    243.5062     59.5239 300.2740781 +22.4749080     1275.958      72.9295      1.505     2.73     4.353476     20.53904     153.1862        17     1.066     0.921  43.28   0
       393    654.6435     58.6090 300.4023196 +22.5977830     400.5301     72.81836      1.147     2.34     4.533229     20.53904     49.14587         5     0.681     0.465  17.26   0
       394    726.6699     54.8161 300.4259875 +22.6182542     763.9742     72.81836      1.640     5.19     4.540222     20.53904     65.64505        11     1.343     0.628  66.37   0
       395    650.3159     54.4714 300.4023134 +22.5952978     498.9599       72.911      1.587     2.98      4.49997     20.53904     72.46094         7     0.958     0.499  48.10   0
       396    746.7340     51.0083 300.4334740 +22.6231650     2198.712     72.79982      1.287     2.19     4.531497     20.53904     313.7729        19     0.982     0.910  62.34   0
       397    452.1446     49.5296 300.3422180 +22.5345369     409.4409     72.81836      1.270     2.90     4.482717     20.53904     64.17374         8     0.856     0.677  74.52   0
       398    130.0861     46.5549 300.2430274 +22.4371961     981.7283     72.78127      1.369     3.00     4.440757     20.53904     111.4214        15     1.095     0.821  54.89   0
       399    921.5195     44.1976 300.4901662 +22.6735134     712.0229     72.70705      1.291     3.10     4.517275     20.53904     86.06854        11     0.974     0.752  82.61   0
       400    695.0756     43.4993 300.4198139 +22.6055426     880.8977      72.9295      1.294     2.78       4.4444     20.53904     131.6384        14     1.028     0.785  65.58   0
       401    402.2015     42.2202 300.3290473 +22.5174779     314.8614     72.72561      1.168     3.26     4.471632     20.53904     33.58213         6     0.742     0.571  43.49   0
       402    453.0834     36.1293 300.3468551 +22.5309671     279.1053      72.9295      1.083     2.48     4.440024     20.53904      51.9036         6     0.723     0.548  27.43   0
       403    201.7581     33.9656 300.2693858 +22.4550577     1779.778     72.85543      0.644     1.86     4.320179     20.53904     801.5773         8     0.668     0.321   1.28   0
       404    279.5512     33.0143 300.2938815 +22.4780922     506.0426     72.81836      1.642     3.44     4.143643     20.53904     51.18879         9     1.064     0.640  48.88   0
       405    780.1277     27.4326 300.4515247 +22.6263800     208.0353     72.79982      0.959     2.86      4.36797     20.53904     51.97054         7     0.834     0.594  79.62   0
       406    682.9663     25.9817 300.4217215 +22.5968808     370.2759     72.78127      1.165     3.35     4.324238     20.53904     48.86477         5     0.650     0.577  -0.40   0
       407    547.5412     28.2745 300.3788035 +22.5569956     711.3049     72.85543      1.224     2.90     4.328212     20.53904     107.5796        12     1.027     0.699  51.63   0
       408    157.0213     25.8100 300.2581243 +22.4393100     476.8206     72.78127      1.291     3.05     4.277445     20.53904     60.53278        10     0.897     0.732  82.41   0
       409    341.3612     24.6307 300.3158232 +22.4942000     285.5814     72.79982      1.324     4.08     4.321655     20.53904     28.16712         5     1.207     0.395 -37.20   0
       410    710.7358     23.2729 300.4312509 +22.6044143      718.446      72.8369      1.264     2.74     4.335423     20.53904     96.68714        12     1.036     0.679  59.25   0
       411     72.0378   1019.2319 299.9089821 +22.6987858     746.1229     72.81836      7.445     8.41     47.87221     20.53904     46.44427        11     1.862     1.061  60.24  16
       412    242.3692     18.8600 300.2869089 +22.4628866     723.7737      72.8369      1.410     2.80     4.216791     20.53904     99.13878        12     0.981     0.780 -30.27   0
       413    415.8524     18.3925 300.3410202 +22.5147194     202.3733     72.78127      1.261     3.39     4.351786     20.53904     33.61755         5     0.800     0.416 -21.97   0
       414    608.6917   1017.4255 300.0764643 +22.8593571     6836.711     72.74417      1.692     3.34     2.760057     20.53904     556.0374        43     1.362     1.299  -1.75  16
       415    121.9008   1020.2568 299.9241387 +22.7140542      1471.07     71.62209      3.947     4.47     29.76504     20.53904     40.42166         5     1.149     0.495  36.78  18
       416    120.1616   1012.6126 299.9260868 +22.7113416      1527.62     72.79982     11.321    14.20      28.4412     20.53904     45.46666        36     2.883     1.946  11.73  27
       417    199.7652   1011.7731 299.9510964 +22.7350042     949.0922     72.81836      2.722     4.62     10.61993     20.53904     75.07281        17     1.212     1.080 -27.49   0
       418    760.9855   1011.0272 300.1259813 +22.9032039      363.886     72.81836      1.550     4.47     2.925664     20.53904      39.5069         6     0.933     0.620  46.42   0
       419    487.9896   1011.7979 300.0407248 +22.8215268     495.2386     72.61415      1.632     5.86     3.236848     20.53904     46.95533        10     1.127     0.859  30.97   0
       420    517.0519   1008.2428 300.0509268 +22.8292281     1551.607      72.8369      1.577     3.34     3.243834     20.53904     134.3489        25     1.284     1.123  -4.29   0
