#   1 NUMBER                 Running object number                                     
#   2 X_IMAGE                Object position along x                                    [pixel]
#   3 Y_IMAGE                Object position along y                                    [pixel]
#   4 ALPHA_J2000            Right ascension of barycenter (J2000)                      [deg]
#   5 DELTA_J2000            Declination of barycenter (J2000)                          [deg]
#   6 FLUX_APER              Flux vector within fixed circular aperture(s)              [count]
#   7 FLUXERR_APER           RMS error vector for aperture flux(es)                     [count]
#   8 FLUX_RADIUS            Fraction-of-light radii                                    [pixel]
#   9 FWHM_IMAGE             FWHM assuming a gaussian core                              [pixel]
#  10 BACKGROUND             Background at centroid position                            [count]
#  11 THRESHOLD              Detection threshold above background                       [count]
#  12 FLUX_MAX               Peak flux above background                                 [count]
#  13 ISOAREA_IMAGE          Isophotal area above Analysis threshold                    [pixel**2]
#  14 A_IMAGE                Profile RMS along major axis                               [pixel]
#  15 B_IMAGE                Profile RMS along minor axis                               [pixel]
#  16 THETA_IMAGE            Position angle (CCW/x)                                     [deg]
#  17 FLAGS                  Extraction flags                                          
         1    217.4756     15.7798 300.2354402 +22.4423966     4049.069     72.21241      1.556     2.46     4.937993     20.37331     561.6694        34     1.307     1.132  48.92   0
         2    640.0252     12.5715 300.3679959 +22.5680182     432.3805     72.21241      1.502     3.17     4.381511     20.37331     55.55663         8     0.927     0.809 -74.54   0
         3    543.5237     12.8649 300.3378440 +22.5392120      414.221     72.30431      1.453     3.71     3.899641     20.37331     45.33952        10     1.037     0.708 -79.14   0
         4    778.9285      8.2311 300.4126879 +22.6083441     886.4402     72.21241      1.312     2.65      5.32859     20.37331     132.6544        13     1.097     0.764  64.75   0
         5    333.4917      7.9078 300.2740764 +22.4748885     1387.071     72.37776      1.506     2.72     5.022892     20.37331     186.7195        18     1.153     0.914  49.16  16
         6    744.7603      7.7564 300.4021917 +22.5979819     255.3586     72.30431      1.153     3.86     5.380473     20.37331     34.52152         6     0.766     0.558  43.46   0
         7    816.8154      3.6102 300.4259963 +22.6183521     776.6844     67.26033      1.464     3.54     5.169106     20.37331     83.66049        12     1.177     0.683  82.10  16
         8    740.0344      3.1602 300.4022082 +22.5952451     531.0987     65.45892      1.454     3.35     5.421348     20.37331     56.21515        11     0.975     0.818  68.05  24
         9    399.4725   1011.5102 299.9687098 +22.7828645     511.1127     72.37776      2.103     3.57     2.665324     20.37331     31.33354         5     0.796     0.461 -17.75   3
        10    341.7989   1023.3589 299.9469116 +22.7689527     395.9324     57.92331      1.223     3.58     13.00812     20.37331     82.92314        11     1.168     0.640  16.83  24
        11    247.2703   1016.6346 299.9197014 +22.7386478     2515.194      72.2308      6.972    26.97     75.48582     20.37331     58.93436       186     5.357     3.769   7.85  19
        12    246.4942    998.7459 299.9252809 +22.7332852     4181.716     72.26756      7.586    20.83     63.01414     20.37331     93.64053       281     4.889     4.722   7.50  19
        13    264.9272    998.0890 299.9312263 +22.7386303     5497.208     72.37775     11.983    49.78     54.41771     20.37331     109.1053       651     9.370     7.339 -69.23  19
        14    177.7310   1019.6620 299.8970974 +22.7186376     1638.387     72.10196      3.194    12.07     88.70583     20.37331     62.11445        40     2.498     1.679 -41.19  24
        15    130.0030   1012.0650 299.8847353 +22.7021283     4810.151      72.2308     12.938    58.32     69.24134     20.37331     100.7096      1024    13.097     7.206  36.94  27
        16    124.4319    954.3252 299.9017895 +22.6839017       5296.1     72.21241     27.029    89.62      26.8656     20.37331     107.2586      4220    21.194    16.853 -81.66  18
        17     12.4528   1021.9312 299.8450029 +22.6696537     1260.635     65.09266      7.624    15.57    -14.99433     20.37331     51.15002        35     3.113     2.165  -3.90  27
        18    213.6526    989.2913 299.9181463 +22.7207146     1682.347     72.26756      4.205    13.79     63.75577     20.37331      52.8232        50     2.708     1.953  81.50   2
        19      6.7122   1014.9766 299.8454827 +22.6659363      1647.48     72.13879      7.620    12.94    -17.77755     20.37331     40.71614        41     3.022     1.542  27.23  19
        20    544.1802    987.5126 300.0215581 +22.8194022     450.6041     72.13879      1.926     6.39     2.503472     20.37331     34.89574         7     1.319     0.870  19.21   0
        21     29.1790    985.4181 299.8620786 +22.6642120     608.7892     72.21241      2.506     4.97     1.672535     20.37331     31.73558         9     1.081     0.646 -67.86   0
        22    972.8850    982.7704 300.1567020 +22.9466037     836.0101     72.21241      2.058     5.93     2.590917     20.37331     46.99669        17     1.413     1.231  56.42   0
        23    163.7931    970.3936 299.9087954 +22.7003267     755.3889     72.06511      8.305     7.66      48.4638     20.37331     38.87524        14     1.516     1.084  76.13   1
        24      1.9715    971.5487 299.8581396 +22.6520654     726.4018     59.75184      4.696     5.00    -9.418573     20.37331     54.78514        11     1.342     0.854  71.78  25
        25    191.4300    968.1145 299.9181276 +22.7079706     1473.904     72.21241      4.440    10.66     46.85412     20.37331     48.14149        27     2.489     1.272  45.91   2
        26    697.9517    965.8895 300.0764859 +22.8593223      6875.25     72.19401      1.846     4.09     2.610503     20.37331     427.4419        47     1.497     1.390  18.23   0
        27    577.6678    960.6669 300.0407198 +22.8217444     570.6945     72.26756      2.147     5.59     2.745177     20.37331     34.53378         8     1.121     0.785 -15.90   0
        28    278.7830    981.9333 299.9407917 +22.7381565     3447.981     72.19401      0.494     3.39      39.2208     20.37331     2404.114        12     0.810     0.410  28.04   3
        29    606.4034    956.6262 300.0509830 +22.8292046     1506.918     72.17561      1.693     4.00     2.812463     20.37331     131.3732        21     1.208     1.121  43.01   0
        30    275.1915    957.9655 299.9474725 +22.7302045     573.1844     72.21241      2.650     4.80     26.14375     20.37331     33.00764         5     1.264     0.517  21.51   0
        31    500.2422    953.1719 300.0190526 +22.7963656     1002.997      72.2308      1.598     3.97     2.807316     20.37331     82.05122        19     1.151     1.101  53.31   0
        32    430.8681    951.1041 299.9981334 +22.7749570     6593.752     72.34105      1.766     3.72     2.856871     20.37331     531.7763        43     1.422     1.344  15.11   0
        33      3.7944    991.9922 299.8520548 +22.6584724     1127.256     67.85017     10.547    13.41    -14.00979     20.37331     46.19585        26     3.737     1.339 -68.79  27
        34      7.6432    997.1943 299.8515577 +22.6611194     1281.817     72.21241     12.817    12.65    -12.71705     20.37331     38.97609        27     3.458     1.287  88.69  27
        35    463.2913    937.7363 300.0125727 +22.7808501     556.3479     72.32269      1.763     6.51      2.96754     20.37331     44.55231        12     1.229     1.114  47.58   0
        36    977.2581    930.0228 300.1752286 +22.9327630     2105.707     72.21241      2.021     4.95     3.425402     20.37331     103.7779        31     1.553     1.283 -20.31   0
        37      2.8224   1008.2413 299.8464661 +22.6628376     1371.442      64.0228      9.282    11.07    -19.13605     20.37331     42.99946        28     2.599     1.314 -88.66  27
        38    627.7152    927.3467 300.0671460 +22.8271929     351.7031     72.26756      1.610     4.85     2.997589     20.37331     38.46034         6     0.906     0.735 -12.77   0
        39    766.0742    918.6878 300.1130697 +22.8661990     818.8323     72.35941      2.124     5.15     2.905661     20.37331     51.75966        15     1.286     0.935  49.29   0
        40    800.9837    912.9849 300.1258053 +22.8750283     1077.506     72.17561      1.806     4.49     2.895422     20.37331     70.24026        20     1.273     1.043 -50.65   0
        41     11.3511   1009.2426 299.8487893 +22.6656862     1493.353     72.24918     11.157    16.80    -13.20604     20.37331     37.58455        48     3.887     2.019  33.43  19
        42      1.9374   1018.9642 299.8427022 +22.6656449       1383.9     59.55145      7.341    14.95    -23.10675     20.37331     44.90411        45     6.208     1.000  88.67  27
        43    593.2029   1003.5618 300.0316003 +22.8387150     2346.036     72.24918      1.816     3.98     2.435217     20.37331     174.4133        28     1.336     1.207  47.89   0
        44     11.3288    909.8610 299.8811121 +22.6371928     538.8622     72.24918      1.320     2.71     3.432873     20.37331     56.53837         7     0.813     0.573  68.09   0
        45    823.1546    906.6293 300.1347838 +22.8798501     11424.24     72.24918      1.761     4.19     2.921057     20.37331     797.0746        52     1.423     1.377 -33.53   0
        46    868.9944    906.5948 300.1490862 +22.8935822     459.4997     72.06511      1.768     4.91     2.968215     20.37331     33.90132         8     1.154     0.591 -65.47   0
        47    957.3271    901.8384 300.1781804 +22.9186930     298.8955     72.17561      2.189     3.36     3.243194     20.37331     35.13927         5     1.408     0.232  72.92   0
        48    904.3894    934.9528 300.1508976 +22.9123373     390.8328      72.2308      1.931     5.45     2.943199     20.37331     26.78164         6     1.168     0.718 -25.90   0
        49    134.5038    898.0297 299.9232310 +22.6707836     1351.837      72.1572      7.194     7.04     8.281906     20.37331     66.90868        25     1.853     1.311  67.77   0
        50    874.8524    894.5831 300.1548199 +22.8918883     550.9641     72.19401      1.958     6.14     2.966182     20.37331     39.10044         9     1.136     0.933  55.22   0
        51    528.2468    894.5971 300.0468248 +22.7879572     503.6249     72.19401      1.845     5.50     3.150184     20.37331     46.53748        12     1.294     0.878  18.79   0
        52     16.3302   1003.1804 299.8523084 +22.6654441     1241.743      72.2308      9.102    18.76    -8.365361     20.37331      39.2836        39     4.757     2.054  16.30  19
        53    831.7708    888.6680 300.1433123 +22.8772748     1498.487     72.19401      1.755     4.35     2.931129     20.37331     103.3767        24     1.352     1.196  54.65   0
        54    124.3808    889.0052 299.9230200 +22.6651567      683.808     72.17561      4.208     6.88     6.595482     20.37331     36.40106        12     1.833     0.723  36.56   0
        55    683.8292    885.8212 300.0981332 +22.8321005     456.3641     72.21241      1.626     4.84     2.987471     20.37331     43.53051        10     1.154     0.893  17.07   0
        56    869.7615    882.1553 300.1572750 +22.8867927     673.5649     72.28594      1.594     5.99     2.963979     20.37331     52.57183        17     1.283     1.040 -84.02   0
        57    679.6052    998.7769 300.0600691 +22.8632600     8405.396     72.19401      1.851     4.47     2.328053     20.37331     507.4402        40     1.446     1.349  21.42   3
        58    978.3198    879.9854 300.1918370 +22.9187064     288.5613     72.19401      1.464     4.86     3.449191     20.37331     29.42878         8     0.986     0.679 -15.10   0
        59    918.3100    873.4304 300.1752518 +22.8988383     586.7884     72.17561      1.834     6.45     2.962454     20.37331     37.08295        14     1.122     1.042 -29.32   0
        60    769.7708    872.5879 300.1292169 +22.8540695     905.1834     72.21241      1.901     5.68     2.957061     20.37331     58.19726        22     1.482     1.086  21.78   0
        61    372.4969    872.3061 300.0056017 +22.7348338     261.1472     72.39611      1.956     4.76     3.515481     20.37331     25.90909         6     1.356     0.474  50.14   0
        62     29.6584    871.0346 299.8994328 +22.6315654     327.9072      72.2308      1.387     4.68     3.796814     20.37331     40.54528         5     1.313     0.474 -89.84   0
        63    780.7575    869.8099 300.1335446 +22.8565656      705.399     72.21241      1.606     3.56     2.939779     20.37331      59.9988        13     1.011     0.886  31.92   0
        64    482.1212    868.6821 300.0408946 +22.7666830     4127.994     72.34105      1.612     3.27     3.493813     20.37331     424.5154        34     1.261     1.248  17.92   0
        65    685.2012    996.6686 300.0624985 +22.8643333     9779.554     72.17561      1.949     4.40     2.352437     20.37331     566.6376        54     1.570     1.464   4.43   3
        66    525.9316    856.9939 300.0583338 +22.7764700     383.4829     72.17561      1.528     2.63     3.321113     20.37331     50.30241         6     0.748     0.655 -70.15   0
        67    260.7040    857.4955 299.9756460 +22.6970379     474.9848     72.37776      2.000     4.82     4.546933     20.37331     44.15779         7     1.332     0.494  -3.47   0
        68    207.4064    854.1629 299.9601580 +22.6800862     700.7889      72.2308      1.729     4.87       5.1797     20.37331     64.10593        14     1.207     0.931  10.95   0
        69    184.5257    851.3487 299.9539600 +22.6724115     1583.239      72.2308      1.750     3.79     5.100477     20.37331     138.7175        25     1.371     1.119   5.05   0
        70     59.8392    841.6605 299.9183607 +22.6322043     367.7349     72.21241      1.707     3.22     3.921095     20.37331      49.8812         7     0.960     0.613 -85.31   0
        71   1010.6301    839.1642 300.2151934 +22.9166599     2068.829      72.2308      1.849     4.25     3.717253     20.37331     122.5597        30     1.435     1.269 -46.70   0
        72    715.9375    839.0776 300.1233392 +22.8283063     498.2581     72.28594      1.939     5.86      3.17135     20.37331     40.92264         9     1.154     0.839 -72.84   0
        73    216.6599    832.8301 299.9699716 +22.6767442     535.8137     72.24918      1.697     4.99     4.625141     20.37331     46.51444        10     1.179     0.949  89.77   0
        74    794.1422    832.5395 300.1498373 +22.8498741     658.9532     72.28594      1.798     5.21     3.194153     20.37331     52.40087        14     1.205     0.956  48.08   0
        75    662.1240    826.9290 300.1105240 +22.8086827      4994.98     72.30431      1.543     3.21     3.248938     20.37331     481.8058        36     1.281     1.200 -12.28   0
        76    464.5434    824.0101 300.0499502 +22.7485890     671.6462     72.19401      1.569     3.71     3.442242     20.37331     76.04842        12     1.001     0.955  79.90   0
        77    212.2422    820.7643 299.9725212 +22.6719573     1274.403     72.26756      1.640     4.00     4.308249     20.37331     131.3997        21     1.305     1.083 -27.59   0
        78    682.6899    819.4444 300.1193647 +22.8127000     722.9173     72.21241      1.536     3.83     3.277279     20.37331     68.44563        15     1.047     0.950  29.96   0
        79    231.9406    817.5215 299.9797001 +22.6769386     495.0055     72.24918      1.769     4.24     4.203229     20.37331     44.80091         9     1.043     0.659  84.86   0
        80    813.1443    811.1034 300.1627310 +22.8494131      193.696     72.30431      1.326     5.20     3.394241     20.37331     28.63102         6     1.081     0.706   3.06   0
        81    599.7944    810.1196 300.0965757 +22.7851661     319.5461     72.13879      1.312     3.86     3.346349     20.37331     32.94548         6     0.921     0.464 -54.52   0
        82    838.2124    806.7703 300.1719547 +22.8556822     4298.511     72.21241      1.628     3.48     3.431961     20.37331     338.7091        33     1.312     1.192  36.04   0
        83    246.8171    800.9857 299.9897020 +22.6766591     398.7307      72.1572      1.407     4.78     3.853339     20.37331     39.63813        10     0.987     0.739 -34.42   0
        84    555.4283    799.0610 300.0863556 +22.7686865     572.9016     72.21241      1.395     3.93     3.339008     20.37331     71.62732        13     1.041     0.839 -31.11   0
        85    201.5597    796.8582 299.9769724 +22.6618935     1005.015     72.21241      1.674     4.50     3.779154     20.37331     88.82047        16     1.158     0.987  54.33   0
        86    616.9458    792.6486 300.1075979 +22.7852929     470.3929     72.24918      1.439     4.45     3.416115     20.37331     55.91363        13     1.052     0.925  33.33   0
        87    351.1862    789.1060 300.0260252 +22.7045660     53844.45     72.13879      1.563     3.05      4.00671     20.37331     5685.137        84     1.400     1.327  23.87   0
        88   1022.0361    787.8781 300.2354292 +22.9053395     920.7527     64.58051      1.718     4.80     3.763572     20.37331     72.29762        21     1.342     1.094  44.66  24
        89    609.1312    788.2627 300.1065900 +22.7816904     1544.993     72.26756      1.384     2.96     3.437017     20.37331     167.8145        20     1.120     1.023 -45.17   0
        90    279.5496    787.1584 300.0043762 +22.6825139     519.4722     72.21241      1.559     3.90     3.976067     20.37331     65.07324         8     1.213     0.699  23.46   0
        91    637.8425    784.0718 300.1168952 +22.7890960     991.2535     72.19401      1.477     3.62     3.486627     20.37331     93.47432        15     1.081     0.942  55.61   0
        92      4.5654    784.3957 299.9198071 +22.5991895     750.5533     70.48107      1.789     5.23     3.914209     20.37331     72.09779        16     1.514     0.849 -33.66  16
        93     37.8891    783.6630 299.9303970 +22.6089833     772.7471     72.30431      1.616     4.19     3.876613     20.37331     83.10162        15     1.331     0.826  48.36   2
        94    648.9141    782.7498 300.1207736 +22.7920360     612.5781     72.21241      1.405     3.57       3.5053     20.37331     64.60062        12     1.070     0.854   2.69   0
        95    754.5574    779.1136 300.1548715 +22.8226630     341.4922     72.17561      1.267     3.32      3.47498     20.37331     48.17643         8     0.941     0.656 -30.33   0
        96    792.1270    769.3081 300.1697687 +22.8311078     792.3206     72.37776      1.496     3.65     3.539339     20.37331     88.89445        15     1.138     0.941 -29.26   0
        97    400.8961    766.3698 300.0488827 +22.7129534     31437.14      72.1572      1.528     3.00     3.802728     20.37331     3059.014        68     1.334     1.265  14.13   0
        98    415.1442    766.9954 300.0531130 +22.7174068     1974.163     72.17561      1.512     3.08     3.732893     20.37331     226.1423        22     1.140     1.068  30.26   0
        99    924.1893    762.4197 300.2131836 +22.8687064     2615.546     72.19401      1.570     3.45     3.742045     20.37331      215.033        26     1.276     1.095  -6.60   0
       100    412.0627    761.0274 300.0540941 +22.7147696     605.8542     72.21241      1.533     3.44     3.763441     20.37331     70.18069         9     0.927     0.734  10.46   0
       101    682.1147    758.3196 300.1390587 +22.7949741     1013.467     72.37775      1.459     3.04     3.721132     20.37331     108.2855        18     1.063     0.966   1.92   0
       102    518.3047    758.5629 300.0879632 +22.7459267     416.7595     72.21241      1.441     3.07     3.632126     20.37331     52.22767         8     0.903     0.609 -19.12   0
       103    283.3352    758.2599 300.0149477 +22.6753578      814.624     72.24918      1.474     3.22     4.015416     20.37331     88.73679        14     0.982     0.952  84.13   0
       104    528.8413    753.4234 300.0929143 +22.7476110     887.2338     72.24918      1.419     3.04     3.677303     20.37331     90.71588        14     0.940     0.906 -11.35   0
       105     88.6453    753.8331 299.9558634 +22.6156636     494.6681     72.26756      1.466     3.76     3.825167     20.37331     70.79366        11     1.154     0.627 -41.34   0
       106    930.2214    750.0034 300.2191013 +22.8669461     479.7474     72.17561      1.543     6.17     3.844476     20.37331     51.23648        12     1.140     0.939  27.65   0
       107    431.1155    749.5027 300.0637694 +22.7171765     364.3633     72.37776      1.402     3.71     3.755526     20.37331     34.45381         6     0.794     0.499   2.48   0
       108    387.1541    748.9858 300.0502577 +22.7038418     350.3774      72.2308      1.344     4.06     3.904222     20.37331     36.13122         6     0.972     0.485 -50.02   0
       109    475.0031    748.2007 300.0778521 +22.7299657       316.15     71.99135      1.301     2.68     3.720742     20.37331     53.71671         6     0.846     0.480  34.77   0
       110    116.8723    747.5303 299.9666838 +22.6223275     583.2063     72.28594      1.658     4.88     3.788553     20.37331     57.09793         8     1.367     0.566 -27.51   0
       111    683.3900    747.3537 300.1430207 +22.7922070     276.1378      72.2308      1.625     4.83     3.805987     20.37331     36.69722         6     1.160     0.569 -27.88   0
       112    908.0062    744.9962 300.2138008 +22.8588507     354.4888     72.04668      1.404     4.35     3.784409     20.37331     32.76437         9     0.819     0.772 -43.26   0
       113    281.2326    742.5825 300.0193897 +22.6702283     566.2087     72.19401      1.451     2.98     4.021052     20.37331     65.72708        11     0.966     0.745 -76.05   0
       114    604.3642    733.0867 300.1230420 +22.7644175     542.9644     72.19401      1.697     3.83      3.72126     20.37331      54.4928         9     1.010     0.713 -13.61   0
       115    595.8657    728.7585 300.1218021 +22.7606265     1385.789     72.19401      1.434     2.79     3.754008     20.37331     149.4256        20     1.170     1.015 -28.93   0
       116    574.0146    731.2689 300.1141813 +22.7547957     690.9479      72.2308      1.600     4.01     3.772501     20.37331     61.72602        10     1.085     0.683 -11.36   0
       117    990.5588    727.7480 300.2451569 +22.8786279     4462.263     72.21241      1.669     3.67     4.160229     20.37331     350.8456        36     1.321     1.235 -34.50   0
       118    483.5137    730.6028 300.0862213 +22.7274661     272.7467     72.13879      1.200     3.88     3.813244     20.37331     35.45572         6     0.880     0.489  -1.15   0
       119    515.6685    728.3315 300.0969693 +22.7364568     194.2589     72.26756      1.250     3.60     3.819092     20.37331     47.74578         6     0.844     0.548  48.72   0
       120    676.9920    723.5269 300.1487724 +22.7834457     291.1992     72.19401      1.478     5.32      3.94857     20.37331     38.96213         6     1.181     0.676 -34.72   0
       121    978.9114    719.1970 300.2443029 +22.8726809     1642.569     72.12038      1.554     3.37     4.187735     20.37331     153.1806        24     1.252     1.081 -26.77   0
       122    341.8379    713.0098 300.0478523 +22.6799228     763.9532      72.2308      1.422     3.59      4.06488     20.37331     96.77039        16     1.156     0.971 -74.01   0
       123    207.9516    713.5683 300.0060328 +22.6399160     258.2924     72.24918      1.213     3.70     3.843924     20.37331     38.88977         6     0.793     0.495   0.49   0
       124    805.2994    710.3044 300.1930547 +22.8181051     2648.352     72.39611      1.513     2.81     3.764911     20.37331     248.4986        27     1.279     1.049   5.31   0
       125   1010.0555    709.2493 300.2572525 +22.8791517      1584.84     72.24918      1.584     3.45     4.255392     20.37331     153.5305        23     1.192     1.119 -12.15   0
       126     27.8217    700.8950 299.9541706 +22.5822237     864.5358     72.12038      1.652     3.83     4.078507     20.37331     90.17785        15     1.299     0.789 -37.68   0
       127    887.4842    696.3205 300.2232229 +22.8387144     531.0605     72.35941      1.258     4.11     4.025579     20.37331     58.38533         8     1.100     0.510  51.04   0
       128    190.5107    696.6872 300.0060967 +22.6298392     579.9957     72.37776      1.549     4.03     3.852613     20.37331     72.67731        15     1.127     1.004   6.61   0
       129    923.7432    687.3241 300.2374543 +22.8469927     149122.4     72.24918      1.552     2.99     4.422367     20.37331     14706.65       151     1.436     1.418 -11.56   0
       130    686.2419    691.0356 300.1622143 +22.7768862     292.9373     72.26756      1.310     4.08     4.005773     20.37331     44.09899         7     0.849     0.682  31.63   0
       131    776.3221    687.7104 300.1913657 +22.8029297     843.8962     72.34105      1.406     3.23     3.890305     20.37331     100.8387        14     0.974     0.937  61.76   0
       132    956.8550    680.3176 300.2500591 +22.8548989     465.6565     72.26756      1.507     4.80     4.471764     20.37331     45.25568         9     1.264     0.517  18.22   0
       133    609.9974    676.1395 300.1433046 +22.7497521      1618.26     72.19401      1.300     2.72     4.061519     20.37331     191.4858        20     1.012     0.958  14.90   0
       134    791.2109    673.4600 300.2006375 +22.8032973     9702.472     72.17561      1.412     2.57       3.9758     20.37331     1117.544        45     1.200     1.185   6.20   0
       135    292.6742    668.4580 300.0470376 +22.6523883     4949.205     72.24918      1.474     2.77     4.064117     20.37331     598.5042        31     1.184     1.122   5.63   0
       136      6.5503    666.7159 299.9586688 +22.5660358     1760.738     72.19401      1.869     3.82     4.069125     20.37331     168.0854        24     1.328     1.157  59.86  16
       137    374.7281    666.6414 300.0731530 +22.6764786     1162.476     72.19401      1.457     2.86     4.032202     20.37331     149.3467        16     0.992     0.967 -10.03   0
       138    250.4636    664.1127 300.0353224 +22.6384788     430.3703     72.32269      1.570     5.67     4.064119     20.37331     45.82756         9     1.056     0.859   6.87   0
       139    582.9432    661.9805 300.1394800 +22.7375750     718.9836     72.21241      1.385     3.31     4.097956     20.37331     90.51569        10     0.995     0.695  67.88   0
       140    122.7306    656.1652 299.9981953 +22.5978748     872.7723     72.21241      0.629     0.98     3.981177     20.37331     465.8899         5     0.512     0.371  -4.10   0
       141    574.6467    654.2559 300.1394064 +22.7328694     3154.721     72.24918      1.321     2.52     4.133602     20.37331     403.3639        22     1.019     0.995 -55.13   0
       142    564.8813    647.9982 300.1383988 +22.7281446     1489.042     72.12038      1.344     2.54     4.149057     20.37331     197.3394        16     0.994     0.884  51.15   0
       143    493.5590    646.8421 300.1165685 +22.7064290     221.3579     72.30431      1.032     2.66      4.03213     20.37331     39.65009         5     0.715     0.466  71.58   0
       144    958.3840    646.0923 300.2616582 +22.8455195     431.0898     72.13879      1.534     4.77     4.550143     20.37331     36.61743         9     0.963     0.669 -18.06   0
       145    228.2865    644.0330 300.0349506 +22.6260633     600.0914     72.17561      1.317     3.76     4.064209     20.37331     76.58948        10     0.945     0.798  48.46   0
       146    242.5771    642.5828 300.0398653 +22.6299341     526.1083     72.17561      1.385     3.26     4.064213     20.37331     90.53344        10     1.049     0.713  10.55   0
       147    268.2400    639.2620 300.0489247 +22.6366792     426.9709     72.21241      1.102     4.16     4.064231     20.37331     62.49243        13     1.130     0.892 -53.65   0
       148   1011.8253    639.4371 300.2804927 +22.8596139     491.3488      72.2308      1.485     3.45       4.4457     20.37331      54.2668         8     0.880     0.634   1.26   0
       149    589.0856    638.5961 300.1489912 +22.7327003     526.8702     72.13879      1.530     3.01     4.273256     20.37331     52.55043         7     0.817     0.598  25.79   0
       150    299.5860    639.3138 300.0586568 +22.6460966     377.3126      72.1572      1.398     3.34     4.064254     20.37331     43.83837         6     0.876     0.464  -0.86   0
       151    489.6369    637.5986 300.1183509 +22.7025987     1809.026     72.21241      1.361     2.57     4.049357     20.37331     252.6458        18     1.048     0.948  31.59   0
       152    523.0489    636.7935 300.1290142 +22.7123852     164.5236     72.21241      1.174     3.78     4.122087     20.37331     27.18826         5     0.804     0.510  53.87   0
       153    143.6598    632.5737 300.0123649 +22.5973856     20080.32     72.21241      1.603     3.10     3.997226     20.37331     2283.749        59     1.378     1.298  30.55   0
       154     64.6676    634.3479 299.9872404 +22.5741923     632.8925      72.2308      1.713     4.08     4.069125     20.37331     67.98105        10     1.146     0.723 -17.43   0
       155    574.5691    633.0246 300.1462807 +22.7267484     937.3356     72.21241      1.249     2.42     4.276888     20.37331     138.5684        13     0.909     0.804  -6.83   0
       156    609.9924    632.3356 300.1575366 +22.7371693     405.1842     72.19401      1.314     3.63     4.373796     20.37331     45.97357         7     0.748     0.662 -16.52   0
       157    337.2378    631.1403 300.0730243 +22.6550434     262.5361      72.2308      1.577     4.31     4.064341     20.37331     29.16921         5     0.750     0.705 -47.38   0
       158    992.6944    619.2759 300.2810748 +22.8480880     1021.102     72.35941      1.463     3.15     4.526702     20.37331     110.9828        19     1.109     1.018   4.30   0
       159    657.9464    620.8336 300.1762108 +22.7482390      285.563      72.2308      1.202     3.53     4.233906     20.37331     44.93406         5     1.088     0.331  -9.53   0
       160     89.7643    616.9487 300.0006911 +22.5767312     1438.832      72.2308      1.943     4.55     4.069125     20.37331     135.8959        24     1.583     1.019 -81.62   0
       161    859.2794    617.5129 300.2400371 +22.8076161     523.9401     72.37776      1.274     2.67     4.338378     20.37331     71.61968         9     0.830     0.739 -25.93   0
       162    155.7374    617.0106 300.0211750 +22.5965434     365.8014     72.13879      1.482     3.72     4.054915     20.37331     52.75252        11     0.986     0.951 -11.05   0
       163    538.1277    613.5876 300.1412483 +22.7102414     403.7354      72.2308      1.256     3.58     4.290614     20.37331     55.39952         9     1.059     0.609   5.73   0
       164    932.6564    612.0251 300.2647025 +22.8280204     898.0978     72.21241      1.806     3.97     4.611758     20.37331       79.729        15     1.163     0.960   3.12   2
       165    928.4636    611.5217 300.2635584 +22.8266197     347.6641     72.30431      1.180     3.13      4.61327     20.37331     44.63614         5     0.745     0.447 -21.26   3
       166    677.4310    610.0496 300.1857845 +22.7509808     403.9026     72.24918      1.406     3.98     4.177093     20.37331     43.52204         5     0.925     0.491  85.05   0
       167    494.5971    605.9106 300.1301899 +22.6949862     787.1308     72.12038      1.421     3.38     4.154441     20.37331     106.2538        11     1.049     0.732  38.08   0
       168    642.6373    604.5726 300.1767247 +22.7389793      480.126      72.2308      1.209     2.66     4.379308     20.37331     62.95145         9     0.866     0.722 -16.54   0
       169    690.0046    603.1298 300.1919500 +22.7527610     533.2953     72.17561      1.468     2.80     4.201835     20.37331     54.55879         9     0.777     0.756  44.75   0
       170    660.3573    602.7585 300.1828341 +22.7437691     621.5504     72.32269      1.345     2.43     4.305686     20.37331     90.84702        10     0.869     0.726  45.16   0
       171    538.8519    601.7024 300.1453350 +22.7070450     951.1035     72.28594      1.405     2.55     4.337896     20.37331     124.4326        14     0.925     0.859  35.80   0
       172    972.7520    597.3741 300.2819693 +22.8358186     3283.319      72.2308      1.479     2.72     4.565127     20.37331     379.1528        25     1.179     1.076 -33.36   0
       173    504.4914    597.1324 300.1361218 +22.6954316     1633.301     72.34105      1.290     2.49     4.219568     20.37331     207.4664        19     1.068     0.910  84.89   0
       174    479.8772    592.5823 300.1299375 +22.6867454     345.8779     72.21241      1.436     5.14     4.151324     20.37331     36.10281         8     0.884     0.845  21.23   0
       175     66.4235    590.7124 300.0019608 +22.5622000     5076.875      72.1572      1.647     3.21     4.194541     20.37331     618.4631        39     1.380     1.232  11.98   0
       176    533.5607    587.8493 300.1481877 +22.7014801      298.158     72.24918      1.265     4.18      4.34826     20.37331     40.84376         6     0.731     0.684 -34.04   0
       177   1012.0201    587.5032 300.2974269 +22.8447414     409.5909     72.12038      1.561     3.69     4.533939     20.37331      33.9128         6     0.789     0.496  -5.57   0
       178    367.8878    583.9211 300.0978992 +22.6506793      8827.55     72.35941      1.367     2.70     4.175033     20.37331     1202.827        37     1.149     1.080  74.22   0
       179    490.3297    580.9675 300.1369642 +22.6865435     9062.612     72.21241      1.330     2.49     4.228686     20.37331     1225.771        39     1.131     1.100  80.01   0
       180    736.7740    577.5928 300.2148192 +22.7594389     296.3599     72.21241      1.418     3.18     4.171833     20.37331     38.18582         5     0.739     0.441  21.45   0
       181    134.0634    577.0258 300.0274264 +22.5785667      248.236     72.19401      1.343     2.53     4.285754     20.37331     36.76741         5     0.619     0.585  -2.31   0
       182    902.0912    574.9930 300.2672006 +22.8082199     1798.698     72.12038      1.429     3.00     4.505023     20.37331     195.9879        24     1.151     1.131  -0.03   0
       183    986.6889    572.4546 300.2944125 +22.8328284     12492.76     72.24918      1.500     2.72     4.550381     20.37331     1378.282        43     1.229     1.213  70.17   0
       184    550.9279    570.5587 300.1592118 +22.7017198     11544.82     72.19401      1.304     2.32     4.438111     20.37331     1731.308        37     1.094     1.065  61.45   0
       185    720.4561    566.5876 300.2133090 +22.7513870     501.2724     72.21241      1.198     3.49     4.300296     20.37331      77.1249        11     1.126     0.725 -49.62   0
       186    278.4807    565.9099 300.0759377 +22.6186958     1318.267     72.32269      1.319     2.30     4.368092     20.37331     199.1132        14     0.901     0.872  -8.49   0
       187    436.6247    565.2377 300.1253573 +22.6659250     335.6856      72.2308      1.399     3.70     4.256009     20.37331      39.0833         6     0.707     0.666  26.74   0
       188    525.1451    563.5731 300.1534530 +22.6919848     474.0439     72.21241      1.234     2.53     4.377247     20.37331     58.01276         8     0.733     0.704 -52.12   0
       189    482.5001    558.6874 300.1417638 +22.6777975     4442.745     72.37776      1.351     2.44     4.296015     20.37331     676.2912        33     1.232     1.064  43.80   0
       190    825.5903    558.6820 300.2486455 +22.7806148      801.074      72.1572      1.325     2.75     4.270372     20.37331     127.0155        15     1.042     0.911 -16.84   0
       191    460.8015    557.1698 300.1355026 +22.6708566      1219.96     72.17561      1.296     2.38      4.29677     20.37331      183.144        14     0.915     0.838  82.94   0
       192    215.0943    556.7307 300.0592079 +22.5970493     728.8324     72.34105      1.485     3.74      4.42888     20.37331     86.72259        13     1.047     0.900  83.33   0
       193    902.4817    554.3589 300.2740250 +22.8024053     1615.402     72.17561      1.469     2.89      4.48364     20.37331     169.5951        17     1.115     0.880 -38.57   0
       194    599.2371    546.2953 300.1821368 +22.7092298       201678     72.21241      1.294     2.34     4.712875     20.37331     25209.28       197     1.394     1.341  -6.68   0
       195    423.0338    552.7140 300.1251952 +22.6582538     380.7289     72.17561      1.390     5.31     4.310313     20.37331     50.94066        11     1.275     0.697  57.98   0
       196    783.0082    551.2690 300.2377794 +22.7657271     764.9764     72.19401      1.260     2.81      4.22886     20.37331     112.7091        12     0.899     0.868 -44.00   0
       197    875.8617    549.8790 300.2671789 +22.7931439     185.2923     72.28594      1.226     3.91      4.40882     20.37331     35.17097         5     0.768     0.680 -33.93   0
       198    285.3154    546.2177 300.0844591 +22.6150924     3436.949     72.17561      1.340     2.53      4.50936     20.37331     448.4141        25     1.104     1.031  46.48   0
       199    851.0733    542.6705 300.2617910 +22.7836465     583.2953     72.28594      1.467     3.78      4.34533     20.37331     59.97386         9     1.008     0.689  57.35   0
       200    489.6617    530.7313 300.1530728 +22.6719151     411.0572     72.26756      1.545     2.35     4.476011     20.37331     57.14933         5     0.687     0.466  76.66   3
       201    489.9542    526.6061 300.1545035 +22.6708178     2608.401      72.2308      1.272     2.14     4.507911     20.37331     426.8673        20     0.970     0.946 -67.06   2
       202    334.3792    528.7709 300.1053865 +22.6247964     461.6156     72.21241      1.251     2.57     4.451367     20.37331     71.96323         8     0.865     0.602 -73.04   0
       203    940.1569    526.8521 300.2947095 +22.8057815     231.6657     72.24918      1.338     3.90     4.526621     20.37331     33.55157         6     0.750     0.579 -34.60   0
       204    647.3103    523.6011 300.2044812 +22.7171167     351.8564     72.12038      1.824     4.62     4.791837     20.37331     37.32398         5     1.373     0.440 -42.43   0
       205    901.4876    523.4238 300.2837625 +22.7932145     383.4551      72.1572      1.227     3.19     4.449948     20.37331     66.51922         7     0.950     0.464  11.78   0
       206    807.3318    515.6720 300.2569226 +22.7627829      365.397     72.26756      1.177     2.84     4.306701     20.37331      75.1053         6     0.869     0.457  -8.51   0
       207    886.9091    512.9097 300.2826308 +22.7858254     1842.395     72.37775      1.394     2.59     4.414424     20.37331     222.0482        21     1.037     1.007 -16.55   0
       208    773.0300    513.1356 300.2470542 +22.7517780     269.1685      72.2308      1.191     2.68     4.348705     20.37331     46.89898         6     0.772     0.644   9.32   0
       209     17.0002    511.5275 300.0123218 +22.5246504     844.2646     72.08354      1.680     3.98     4.609142     20.37331     85.40059        15     1.065     1.039  49.75   0
       210    758.0439    510.4165 300.2432664 +22.7465069     2621.865      72.2308      1.331     2.29      4.38203     20.37331     361.3567        23     1.027     1.008 -27.92   0
       211    396.6607    510.2672 300.1307731 +22.6381571     253.6066     72.24918      1.311     4.16     4.395836     20.37331     31.03012         6     0.725     0.682  23.24   0
       212   1002.1751    508.1044 300.3201450 +22.8189631     423.6418     72.12038      1.365     3.76     4.628317     20.37331     61.66144         7     1.133     0.508  27.63   2
       213   1001.1879    503.6107 300.3212963 +22.8173753     929.9595     72.10196      1.774     3.22     4.634822     20.37331     90.61099        17     1.123     0.991  36.37   2
       214    967.6846    507.3233 300.3096385 +22.8084104     313.0155     72.32269      1.123     3.75     4.560714     20.37331     38.39602         5     0.846     0.477 -45.17   0
       215    662.8511    507.2424 300.2146351 +22.7170731     564.4321      72.2308      1.449     3.50     4.783329     20.37331     68.84631         9     0.895     0.714  14.11   0
       216    545.3820    506.5313 300.1782795 +22.6816653     812.5035     72.21241      1.214     2.27     4.705381     20.37331     102.9846        11     0.822     0.756 -60.78   0
       217   1015.4504    504.3857 300.3254946 +22.8218688     1288.133      72.2308      1.498     2.74     4.665825     20.37331     163.1497        20     1.228     0.989 -71.92   0
       218    887.1729    502.8723 300.2859728 +22.7830187     2397.706     72.21241      1.634     3.51     4.408364     20.37331     283.1729        30     1.627     1.056  81.25   0
       219    640.5518    501.0971 300.2096840 +22.7086252     680.8868     72.24918      1.282     2.40      4.83602     20.37331     90.84562        10     0.923     0.623 -23.40   0
       220    478.7878    499.8072 300.1597302 +22.6597731     438.4789     72.10196      1.195     3.17     4.707407     20.37331     74.30454         8     0.870     0.782  48.58   0
       221    426.0855    500.5823 300.1430748 +22.6441972     251.8507      72.1572      1.139     2.24     4.406801     20.37331     52.17897         6     0.761     0.491   4.91   0
       222    925.2781    498.0403 300.2994257 +22.7930418     4286.931     72.19401      1.383     2.68     4.459137     20.37331     517.0353        31     1.144     1.096  29.97   0
       223    566.2554    497.3706 300.1877540 +22.6852895     261.1237     72.21241      1.059     2.76     4.820004     20.37331      43.9697         6     0.725     0.610 -53.44   0
       224    585.5017    494.0228 300.1948348 +22.6900957     266.3937     72.13879      1.221     3.23     4.880451     20.37331     53.99737         6     0.802     0.641 -58.48   0
       225   1016.9133    488.4518 300.3311255 +22.8177247     751.5328     72.24918      1.421     3.68     4.718096     20.37331     84.14857        14     1.066     0.975  15.25  16
       226    157.1432    488.2803 300.0634197 +22.5600195     1072.409     72.24918      1.493     2.86     4.514813     20.37331     120.0549        15     1.166     0.809  10.68   0
       227    817.9487    481.9435 300.2711852 +22.7562680     441.3852     72.26756      1.420     2.50     4.372622     20.37331     58.09367         5     0.918     0.360  59.75   0
       228    150.2133    478.1520 300.0645540 +22.5550337     450.0134      72.2308      1.346     4.81     4.524306     20.37331     54.23531        10     1.126     0.756 -13.40   0
       229    757.9245    472.4651 300.2555529 +22.7355631     457.1776     72.28594      1.388     3.50     4.486015     20.37331     77.39023         9     1.014     0.637  37.96   0
       230    646.4965    470.1925 300.2215708 +22.7015261     319.5669     72.10196      1.329     3.67     4.852695     20.37331     43.71951         8     0.906     0.631 -34.82   0
       231    698.7529    468.2902 300.2384690 +22.7166363     775.8381     72.19401      1.425     2.41      4.68255     20.37331     105.1558        10     0.844     0.726 -28.61   0
       232    487.1756    466.4391 300.1731757 +22.6527023     153.8975      72.2308      1.160     3.64     4.849221     20.37331     46.70026         6     0.909     0.582 -72.86   0
       233   1013.2473    461.0473 300.3388802 +22.8087458     530.0007     72.24918      1.355     2.40       4.7252     20.37331     76.71799        10     0.874     0.694  -8.68   0
       234    759.4444    460.7079 300.2598440 +22.7326390     832.1877     72.19401      1.248     2.26     4.486745     20.37331     124.2843        13     0.881     0.832 -48.00   0
       235    916.8283    456.6014 300.3102460 +22.7785964     1133.906     72.17561      1.558     3.29     4.427216     20.37331     122.9122        19     1.344     0.901  76.75   0
       236    875.3436    454.7591 300.2979069 +22.7656432     280.1258     72.19401      1.187     3.17     4.401974     20.37331      60.7367         7     0.859     0.647  19.45   0
       237    901.2499    453.3293 300.3064499 +22.7729904     573.1338     72.21241      1.324     2.52     4.418525     20.37331     81.42901        12     0.951     0.774  30.50   0
       238    645.3359    451.2765 300.2273508 +22.6957425      3122.81     72.28594      1.200     2.36     4.854908     20.37331     408.9145        24     0.999     0.981  81.58   0
       239   1005.7453    449.9594 300.3401396 +22.8033108     435.0338     72.17561      1.277     4.49     4.701002     20.37331     76.13166        11     1.219     0.719  81.19   0
       240    121.4124    443.0496 300.0669980 +22.5363193     293.4006     72.26756      1.133     4.10     4.580674     20.37331     39.38206         8     0.909     0.766  20.77   0
       241    651.1152    439.3870 300.2330111 +22.6940573     147.9777      72.1572      0.908     1.67     4.847825     20.37331     54.45253         5     0.654     0.447  24.04   0
       242    417.0268    438.8457 300.1603000 +22.6237496     283.0146      72.2308      1.279     3.29     4.623863     20.37331     38.00895         6     0.796     0.647  -7.37   0
       243    484.9999    438.4603 300.1815819 +22.6440126     321.7676      72.1572      1.203     2.74     4.801531     20.37331     63.45181         6     0.745     0.657  17.74   0
       244    928.6254    430.0732 300.3225381 +22.7745008     501.2932     72.24918      1.221     3.14     4.434831     20.37331     62.78172        10     0.884     0.746 -12.69   0
       245   1015.2104    428.8901 300.3499333 +22.8000848     943.8288      72.1572      1.464     3.50     4.732113     20.37331     109.4009        16     1.084     0.954 -42.16   0
       246    665.0464    427.2806 300.2412814 +22.6947518     329.0598     72.19401      1.373     3.63     4.844022     20.37331     45.53918         7     0.876     0.705 -10.52   0
       247    755.9339    425.1745 300.2702861 +22.7213734     1187.172     72.19401      1.359     2.51     4.502515     20.37331     142.4233        15     1.006     0.830  64.57   0
       248    551.8057    425.7059 300.2065219 +22.6603690     446.2769     72.10196      1.222     2.42     4.790911     20.37331     74.33143         9     0.831     0.702  82.88   0
       249    259.8694    423.4131 300.1164182 +22.5722026     669.5634      72.2308      1.355     2.70     4.670811     20.37331     88.87209        10     0.861     0.764  17.39   0
       250    322.2344    419.0408 300.1372351 +22.5896450     3658.814     72.26756      1.310     2.48     4.781574     20.37331     497.4774        25     1.074     1.000  57.78   0
       251    269.4756    413.8047 300.1225245 +22.5723237     7460.267     72.12038      1.351     2.38     4.688578     20.37331     1155.527        35     1.140     1.083  69.40   0
       252    410.2790    408.0779 300.1681876 +22.6128890     4666.049     72.34105      1.281     2.38     4.812919     20.37331     625.2768        25     1.042     0.952  41.86   0
       253    654.4627    404.8168 300.2452763 +22.6851248     18705.23     72.19401      1.248     2.13     4.809986     20.37331     2874.232        46     1.102     1.080 -82.18   0
       254    671.8494    405.0764 300.2506087 +22.6904082     814.8329     72.21241      1.738     5.66     4.798995     20.37331     76.27319        14     1.364     0.745 -43.85   0
       255    497.5202    404.7813 300.1964122 +22.6380891     415.1586     72.21241      1.388     2.37     4.785169     20.37331     49.62003         5     0.719     0.473 -72.69   0
       256    898.0526    401.3944 300.3223130 +22.7570992     251.5537     72.17561      1.570     4.05     4.429116     20.37331     31.58082         5     0.781     0.601  82.61   0
       257    511.1388    401.2031 300.2018135 +22.6411422     268.2429     72.19401      1.372     3.80     4.790583     20.37331     45.31429         5     0.811     0.511 -44.84   0
       258    851.2572    395.5631 300.3096137 +22.7414095     408.4981     72.21241      1.439     2.04     4.431894     20.37331     51.34211         5     0.660     0.475 -18.00   0
       259    274.6424    391.5734 300.1313472 +22.5674886     306.4196      72.2308      1.317     3.07     4.751912     20.37331       42.869         6     0.852     0.479 -89.59   0
       260     69.4409    390.5616 300.0678835 +22.5056649     190.0054     72.28594      1.513     4.80     4.712365     20.37331     32.41106         7     1.363     0.480 -54.81   0
       261    812.6199    390.2052 300.2993068 +22.7282982     212.1856     72.19401      1.267     4.36     4.439794     20.37331     31.88417         5     0.973     0.555  40.47   0
       262    988.0600    387.4854 300.3549031 +22.7800476     751.9749     72.32269      1.322     2.84     4.479709     20.37331     129.7588        13     1.124     0.725 -62.51   0
       263    697.8724    386.0198 300.2649023 +22.6927262     250.5435      72.2308      1.244     2.98     4.628316     20.37331     40.02517         5     0.788     0.496  30.62   0
       264    525.0427    386.6794 300.2108564 +22.6411356     179.1591     72.19401      1.067     2.88      4.81017     20.37331     41.35645         5     0.859     0.460   6.01   0
       265    209.1484    384.8275 300.1131699 +22.5459147     2023.495      72.2308      1.403     2.43     4.687249     20.37331     269.7469        21     1.094     0.953   9.59   0
       266    595.1390    374.2212 300.2367281 +22.6585584     6574.111     72.17561      1.254     2.36     4.801355     20.37331     907.1591        32     1.074     1.018  80.04   0
       267   1008.8024    374.5653 300.3655684 +22.7825407     1202.586     72.19401      1.366     2.76      4.41501     20.37331     163.3817        20     1.105     1.062 -11.39   0
       268    309.8984    373.5469 300.1481637 +22.5728809     592.2386     72.30431      1.306     2.61     4.875659     20.37331      108.161        11     0.905     0.804  89.51   0
       269    167.1790    367.0827 300.1058805 +22.5282351     490.2397     72.17561      1.426     3.50     4.584841     20.37331     69.34418         9     1.034     0.723  21.39   0
       270    855.1613    365.8630 300.3204709 +22.7340383     450.2056     72.21241      1.475     2.89     4.436683     20.37331     57.81808         9     0.909     0.647  71.05   0
       271    709.0085    364.6304 300.2753144 +22.6899133      434.928     72.21241      1.044     2.42      4.53572     20.37331     89.21114         7     0.746     0.563  20.50   0
       272     15.0650    364.2741 300.0595200 +22.4818101     1350.142     72.24918      1.497     3.24      5.10118     20.37331     163.5294        21     1.265     1.020  81.03   0
       273    799.1935    363.1581 300.3039000 +22.7165006      1124.04     72.24918      1.312     3.60     4.456726     20.37331     164.7075        17     1.197     0.875 -71.44   0
       274    501.7381    360.4808 300.2121035 +22.6266243     6014.804     72.32269      1.239     2.18     4.856779     20.37331     971.0377        25     1.046     0.962  74.76   0
       275    991.2115    355.2030 300.3663643 +22.7717053     653.9484     72.02824      1.318     2.84     4.304869     20.37331     76.10913        11     0.909     0.774 -43.65   0
       276    893.6270    354.8910 300.3360267 +22.7424006      1437.19      72.1572      1.425     2.48     4.424178     20.37331     178.7141        18     0.996     0.958 -50.44   0
       277    486.0321    349.3090 300.2108395 +22.6187078     379.8354      72.1572      1.167     2.78     4.859484     20.37331     67.60835         7     0.827     0.579  27.13   0
       278    568.8733    347.1420 300.2373362 +22.6429068     417.2288     72.24918      1.124     2.10     4.790895     20.37331     78.04291         8     0.764     0.625  70.11   0
       279     13.3229    345.8700 300.0649508 +22.4760049     1035.444     72.32269      1.491     3.83     5.207174     20.37331     137.4859        17     1.209     0.917  33.55   0
       280    847.4882    346.1846 300.3244650 +22.7260819     336.6371      72.1572      1.660     4.43     4.440718     20.37331     30.75037         7     0.897     0.622 -10.37   0
       281    866.6904    342.4733 300.3316567 +22.7307642     574.2461     72.37776      1.278     3.03     4.432879     20.37331     95.01778        11     1.034     0.762  78.39   0
       282    148.2875    341.6633 300.1082566 +22.5152718     219.1494     72.32269      1.185     4.35     4.583828     20.37331     35.76381         7     0.950     0.566 -59.23   0
       283    389.2666    339.7039 300.1838392 +22.5869494     2492.345     72.34105      1.290     2.29     5.042968     20.37331     358.2451        20     0.987     0.928  -4.81   0
       284    107.7528    336.9913 300.0971736 +22.5017756     1094.877      72.2308      1.444     3.19     4.650688     20.37331     147.3234        18     1.100     0.989  38.98   0
       285    737.1341    334.4423 300.2938760 +22.6896585     333.1422     72.19401      1.445     3.51     4.378307     20.37331      43.4714         7     0.996     0.657 -10.79   0
       286    358.6385    329.1120 300.1777461 +22.5747270     29813.63     72.19401      1.326     2.41     5.038493     20.37331     4173.628        67     1.258     1.146  63.68   0
       287    893.2034    326.7955 300.3450122 +22.7341935      1312.49     72.02824      1.256     2.16     4.422687     20.37331     220.1778        15     0.900     0.871  24.59   0
       288    848.5945    324.4375 300.3318671 +22.7201592     410.6238      72.2308      1.433     3.28     4.435204     20.37331     52.09624         6     0.847     0.521  44.96   0
       289     54.9669    316.8795 300.0872955 +22.4801721     5081.625     72.19401      1.538     3.00     4.949564     20.37331     561.1461        36     1.304     1.180  30.86   0
       290    808.6049    315.6028 300.3222664 +22.7056445     607.3634     72.02824      1.247     2.42     4.440496     20.37331     86.17808        10     0.861     0.742 -25.63   0
       291    233.0197    315.4167 300.1431164 +22.5331388     539.6469     72.19401      1.255     3.41     4.689009     20.37331     72.73241         9     0.993     0.645  36.25   0
       292    457.2391    314.5832 300.2131449 +22.6001017     486.4333      72.2308      1.107     2.38     4.865035     20.37331     75.25855         8     0.771     0.672 -48.78   0
       293    769.0708    308.8673 300.3121284 +22.6918693       1939.5     72.24918      1.294     2.35     4.353531     20.37331     301.7496        20     1.024     0.943 -89.60   0
       294    577.2510    303.7579 300.2540228 +22.6329476     353.4195      72.2308      1.298     2.53     4.558687     20.37331     42.29927         6     0.727     0.547 -42.02   0
       295    984.0385    302.1293 300.3813494 +22.7542905     661.2219     72.17561      1.416     2.80     4.306982     20.37331     93.22845         9     0.943     0.665   0.34   0
       296    430.9085    293.6024 300.2117567 +22.5861830     2152.376     72.12038      1.434     2.70     4.982862     20.37331     292.5139        23     1.165     0.940  63.96   0
       297    643.1894    292.4862 300.2782181 +22.6494592     309.9774      72.1572      1.270     3.26      4.39597     20.37331     43.01611         8     0.861     0.663 -57.51   0
       298    870.0599    286.4596 300.3508831 +22.7156634     608.3549     72.28594      1.234     1.85     4.425578     20.37331     125.6169        11     0.937     0.684 -89.42   0
       299    862.3297    287.3286 300.3481907 +22.7135990     311.3993     72.28594      1.094     3.30     4.426949     20.37331     53.13385         7     0.940     0.558 -22.87   0
       300      3.1777    284.8552 300.0815948 +22.4554472     654.5354     65.51977      1.909     6.13     5.216692     20.37331     68.24651        12     1.668     0.633 -38.12  24
       301    769.6633    283.9791 300.3203883 +22.6848901     330.4164     72.17561      1.374     4.28      4.30219     20.37331     34.67759         7     0.745     0.701  74.34   0
       302    752.5228    284.4494 300.3148933 +22.6798926     423.6824     72.21241      1.009     2.36     4.238219     20.37331     66.12053         6     0.824     0.420  22.02   0
       303    720.6499    283.2357 300.3053540 +22.6699989     199.6633      72.2308      1.049     3.46      4.21949     20.37331     39.52658         5     0.790     0.437 -73.13   0
       304    506.6317    272.8601 300.2420574 +22.6029108     1161.108     72.24918      1.235     2.16     4.664459     20.37331     219.2021        15     0.997     0.790  53.24   0
       305     79.0092    273.1278 300.1089602 +22.4748200     186.6812     72.19401      1.446     3.95     4.831625     20.37331     35.82729         6     0.927     0.483  32.98   0
       306    591.3934    270.2988 300.2692826 +22.6275664     406.4435     72.10196      1.700     2.95     4.445435     20.37331     43.13428         6     0.911     0.640 -67.34   0
       307   1018.3323    269.5342 300.4026248 +22.7551769     372.8018     72.26756      1.352     2.95     4.233289     20.37331     49.71164         5     0.715     0.447 -23.46   0
       308    751.5795    264.7470 300.3209913 +22.6739446     2167.414     72.19401      1.272     2.17     4.217049     20.37331     359.7962        23     1.120     0.925  78.60   0
       309   1012.9427    259.1959 300.4042971 +22.7505893     3125.583     72.17561      1.386     2.59      4.23808     20.37331     433.4232        27     1.164     1.086  71.35   0
       310    459.9705    248.7361 300.2353572 +22.5819979     711.8037      72.2308      1.255     2.47     4.922331     20.37331     101.8517         9     0.829     0.669 -60.48   0
       311    165.5716    242.9774 300.1456450 +22.4921143     542.6207     72.21241      1.298     2.73     4.511593     20.37331      90.4413        11     0.969     0.738  63.27   0
       312    134.8939    242.7158 300.1361936 +22.4828423      1379.55     72.39611      1.580     3.35     4.584441     20.37331     153.2959        23     1.373     1.017 -33.70   0
       313    872.5723    236.5050 300.3678725 +22.7020466     365.9742     72.12038      1.216     2.89     4.413595     20.37331     51.25541         6     1.000     0.464  12.13   0
       314    218.7846    234.7565 300.1648560 +22.5057041     551.1545      72.2308      1.257     2.32     4.417995     20.37331     92.21593        10     0.794     0.781 -52.21   0
       315   1014.1541    232.3238 300.4133923 +22.7432197     427.1723     72.21241      1.621     4.48     4.223147     20.37331      40.9131         7     1.041     0.548 -25.43   0
       316     74.2448    231.8776 300.1208595 +22.4615467     364.1329     72.19401      1.292     3.73     4.797374     20.37331     39.50674         5     0.886     0.450 -41.18   0
       317    895.1974    228.6245 300.3774844 +22.7065523     409.6476      72.1572      1.446     4.89     4.411401     20.37331     40.96333         9     0.935     0.823  21.51   0
       318    823.2338    226.3522 300.3557820 +22.6843562     620.0294     72.24918      1.188     2.64     4.349428     20.37331     93.00903        11     0.912     0.795 -18.83   0
       319    914.0114    219.4616 300.3863241 +22.7095477     254.2876      72.1572      1.079     2.48     4.423154     20.37331     48.15839         6     0.756     0.492  -7.76   0
       320     97.6747    218.2504 300.1325604 +22.4646580     239.9906     72.21241      1.099     4.11     4.656539     20.37331     36.32117         6     0.739     0.654  23.74   0
       321    921.3300    215.3311 300.3899465 +22.7105499     1934.882     72.26756      1.275     2.35     4.432451     20.37331      304.301        20     1.017     0.942  65.60   0
       322    339.8706    212.4966 300.2097371 +22.5355983     2275.029     72.34105      1.368     2.40     4.890987     20.37331     319.1936        22     1.066     0.943  56.95   0
       323    417.7614    207.8536 300.2354799 +22.5576026     1006.597     72.21241      1.287     2.50     5.040285     20.37331      127.128        13     0.967     0.766 -22.32   0
       324    169.9101    207.9443 300.1583560 +22.4833526     245.8789     72.24918      1.359     1.87     4.482667     20.37331     56.37809         5     0.588     0.556  -7.79   0
       325    819.8254    207.0208 300.3609896 +22.6777754      587.865     72.19401      1.222     2.49     4.385795     20.37331      92.9166         9     0.839     0.658 -17.33   0
       326    926.8082    204.1018 300.3952974 +22.7089588     251.9344     72.08354      1.111     2.77      4.45818     20.37331     43.32157         5     0.759     0.502  33.75   0
       327    871.6276    203.3720 300.3783249 +22.6922326     212.1473     72.17561      1.710     5.20       4.4416     20.37331     28.52686         6     1.145     0.668  17.99   0
       328    234.6434    199.9958 300.1810611 +22.5004720     879.2933      72.2308      1.324     2.85     4.377266     20.37331     135.5091        11     1.047     0.672  -2.23   0
       329    772.3950    196.6615 300.3495638 +22.6605964     1670.535     72.19401      1.252     2.19     4.313018     20.37331     255.6592        19     1.137     0.836  76.45   0
       330    837.1652    196.3168 300.3698673 +22.6798872      544.561     72.17561      1.207     2.75     4.425382     20.37331     76.79669        10     0.863     0.690  61.61   0
       331    204.7810    195.3085 300.1732954 +22.4901752     406.0451     72.13879      1.919     3.86     4.415594     20.37331     34.88718         5     0.907     0.472 -47.02   0
       332    256.1495    193.5753 300.1898313 +22.5050729     588.0163      72.2308      1.321     2.41     4.377266     20.37331     81.57446         7     0.772     0.612  26.30   0
       333    545.6821    189.2139 300.2813475 +22.5905651     275.2384     72.19401      1.164     3.46     4.722482     20.37331     52.62069         7     0.949     0.515 -28.71   0
       334    776.5333    188.1092 300.3536274 +22.6593755     658.2656     72.34105      1.227     2.44     4.351786     20.37331     90.94026        12     0.910     0.752 -11.31   0
       335    697.2219    187.4379 300.3291275 +22.6354364     1232.398      72.2308      1.200     2.16     4.288193     20.37331     212.7776        15     0.884     0.841 -20.67   0
       336    892.4966    178.9977 300.3927378 +22.6914667     1365.944     72.12038      1.243     2.71     4.489472     20.37331     207.7196        17     1.030     0.837  58.02   0
       337    623.0607    179.0860 300.3087311 +22.6108276     954.5633     72.32269      1.257     2.73     4.601472     20.37331     143.8075        13     1.030     0.769  66.69   0
       338    904.6577    178.0450 300.3968395 +22.6948324     866.6589     72.24918      1.410     2.75     4.500692     20.37331     98.07938        11     0.881     0.800  22.10   0
       339    950.8651    177.0254 300.4115827 +22.7083679     383.1934     72.19401      1.370     3.78     4.527391     20.37331     43.15772         5     0.806     0.509  30.39   0
       340    463.7815    174.9992 300.2604583 +22.5619466     271.2014     72.13879      1.489     3.53     4.968873     20.37331     35.69439         5     0.804     0.494  35.61   0
       341   1021.3417    168.4061 300.4363659 +22.7269769     1120.829     67.43783      1.384     2.49     4.613916     20.37331     161.0585        15     1.048     0.858  16.30  24
       342     44.9684    164.9337 300.1334713 +22.4335452     600.6288     72.21241      1.505     2.47     4.821616     20.37331     71.57322         8     0.819     0.633 -47.59   0
       343    255.3696    161.2711 300.2000640 +22.4955580     739.0624     72.21241      1.414     3.70     4.377266     20.37331     87.64354        14     1.068     0.998  65.33   0
       344    940.3003    153.1425 300.4160320 +22.6983340     720.6431     72.30431      1.404     3.27     4.600045     20.37331     88.12808        14     0.981     0.958  35.50   0
       345     66.9963    152.9612 300.1441979 +22.4367105     496.0784      72.2308      1.401     3.73     4.804543     20.37331      76.2337        10     1.181     0.760 -48.30   0
       346    274.5895    149.3992 300.2098910 +22.4979064     5693.962     72.02824      1.370     2.33     4.479826     20.37331     819.4172        34     1.185     1.081  46.61   0
       347    117.1521    156.0142 300.1587955 +22.4526223     2357.376     72.21241      1.466     2.76     4.703097     20.37331     279.2378        28     1.227     1.093  50.24   0
       348     58.8517    143.8018 300.1446367 +22.4316383     1415.427     72.19401      1.542     3.29     4.819157     20.37331     176.1712        22     1.160     1.083  33.35   0
       349     20.7532    145.5678 300.1322265 +22.4207240      281.488     72.24918      1.313     3.32     4.825369     20.37331     42.43282         5     1.105     0.396 -16.77   0
       350    257.9198    140.3377 300.2076444 +22.4903075     701.7656     72.32269      1.228     2.77     4.556746     20.37331     89.81105         9     0.935     0.649 -14.84   0
       351    918.7514    131.0967 300.4164590 +22.6855417     3513.694     72.24918      1.330     2.51     4.645163     20.37331     426.0284        25     1.091     1.028 -84.35   0
       352   1022.2464    129.7560 300.4491811 +22.7161239      2727.76     63.64827      1.481     2.82     4.933549     20.37331      349.818        25     1.204     1.094 -88.43  24
       353    468.0779    126.1612 300.2776311 +22.5491949     586.7219     72.19401      1.169     2.57     4.964586     20.37331     104.7782        11     0.927     0.724  73.03   0
       354    221.2569    126.8539 300.2006144 +22.4754467     453.3067     72.26756      1.336     2.99      4.67176     20.37331     61.82315         9     0.915     0.716 -78.25   0
       355    582.6379    124.5038 300.3138389 +22.5830279     262.1658     72.19401      1.025     3.69     4.825712     20.37331     47.20094         7     0.859     0.671   3.85   0
       356    392.4744    117.8179 300.2568052 +22.5241499     794.4105     72.21241      1.727     2.84     4.965033     20.37331     88.35647        11     0.942     0.805  60.92   0
       357    158.4933    115.0365 300.1849313 +22.4532422     736.5633     72.17561      1.531     2.87     4.815648     20.37331     97.09612        11     1.014     0.696  -5.79   0
       358    519.5289    113.5091 300.2977510 +22.5609673     1742.519     72.37776      1.238     2.16     4.897477     20.37331     254.1111        18     0.991     0.903  85.04   0
       359    447.6165    113.9838 300.2752099 +22.5395655     577.5015     72.17561      1.455     2.47     4.965256     20.37331     96.43153         8     0.841     0.636 -36.19   0
       360    343.6188    109.3191 300.2443586 +22.5070712     187.4654     72.19401      1.059     4.37     4.945307     20.37331     34.44012         7     1.003     0.542 -29.30   0
       361    262.8490    108.8500 300.2193856 +22.4827368     351.9967     72.24918      1.429     3.01     4.821694     20.37331     64.61253         6     0.924     0.550  11.10   0
       362    807.8580    102.8511 300.3910372 +22.6442266     423.5479     72.26756      1.293     3.39     4.956294     20.37331      66.1173         8     0.978     0.661 -61.46   0
       363    655.8038     99.4251 300.3447603 +22.5977236     245.3831     72.17561      1.145     2.78     4.785871     20.37331     40.18159         5     0.717     0.459 -19.57   0
       364    953.9717     97.5543 300.4383200 +22.6864281     179.1896     72.24918      1.078     3.06     4.876047     20.37331     51.11917         6     0.779     0.488  -8.77   0
       365    799.9003     94.2322 300.3913506 +22.6393651     291.8219     72.19401      1.129     2.62     5.039686     20.37331     73.52061         6     0.835     0.607  61.08   0
       366    293.5510     93.2335 300.2339974 +22.4874481     6121.101     72.24918      1.405     2.52     4.928411     20.37331      808.554        37     1.270     1.090  56.77   0
       367    265.1889     87.1836 300.2271368 +22.4772118     388.3088      72.1572      1.341     4.51     4.925729     20.37331     46.52786         8     0.823     0.702 -51.76   0
       368    769.4077     84.7593 300.3849163 +22.6275130      192.572      72.2308      1.093     2.73     4.968174     20.37331     42.37899         5     0.723     0.444 -68.35   0
       369    144.7310     92.8911 300.1878318 +22.4427556       839.63     72.34105      1.669     3.06     4.938027     20.37331     99.48177        12     1.018     0.802  48.77   0
       370     55.2278     83.7911 300.1629643 +22.4133158     497.8521     72.21241      1.504     3.95     4.886953     20.37331     60.42313         9     0.970     0.785 -27.69   0
       371    539.6547     78.6120 300.3153304 +22.5569604       6306.5      72.2308      1.335     2.28     4.668361     20.37331     969.1023        35     1.162     1.082  61.64   0
       372    425.0695     78.6149 300.2796575 +22.5226446     638.4274      72.2308      1.324     2.32     4.978089     20.37331      109.752         9     0.869     0.669  85.30   0
       373    596.8495     73.2822 300.3348702 +22.5725538      370.748      72.2308      1.341     3.73     4.673229     20.37331     49.35324         5     0.884     0.452 -48.71   0
       374    792.0301     68.8997 300.3971090 +22.6297212     880.7532      72.1572      1.509     5.98     5.096776     20.37331     123.3341        14     1.596     0.758 -72.55   0
       375    884.6383     67.2938 300.4265043 +22.6569735     501.6204      72.2308      1.171     3.03     4.756258     20.37331     67.76825         8     0.877     0.614   8.48   0
       376    232.5407     62.6153 300.2249465 +22.4603696     460.4779     72.17561      1.265     3.34     4.929268     20.37331     60.08676         8     0.872     0.697 -29.44   0
       377    908.2549     61.8841 300.4356232 +22.6624834     282.3084     72.28594      1.938     5.51     4.756258     20.37331     30.09739         5     1.164     0.736 -84.53   0
       378    668.0702     58.7582 300.3617643 +22.5896991     6568.575     72.17561      1.334     2.35     4.606301     20.37331     1028.746        38     1.167     1.122 -85.22   0
       379    591.1152     61.2166 300.3369950 +22.5673669     423.8564     72.17561      1.201     2.36     4.577306     20.37331      78.6412         8     0.785     0.690   1.45   0
       380    443.0593     57.6034 300.2920672 +22.5219921     1362.863     72.17561      1.288     2.23     4.955672     20.37331     241.5432        18     1.038     0.956  77.05   0
       381    709.2192     56.0989 300.3754480 +22.6012520     1026.658     72.13879      1.395     2.69     4.857434     20.37331     126.5049        13     0.926     0.831  60.90   0
       382    733.4758     69.8953 300.3785354 +22.6124817     350.2717     72.35941      1.247     1.95     4.949586     20.37331     60.36927         5     0.682     0.456 -66.37   0
       383    725.2041     52.1634 300.3817050 +22.6049047      540.243      72.2308      1.197     2.93     4.994555     20.37331     84.81064         9     0.896     0.727 -56.73   0
       384     38.7989     50.9277 300.1685108 +22.3989516     369.3008     72.10196      1.426     4.10     4.932877     20.37331       42.026         5     1.020     0.471 -23.42   0
       385    994.9245     50.0410 300.4664983 +22.6850051      537.815     72.19401      1.289     2.49     5.542412     20.37331      79.0442        10     0.883     0.673   3.49   0
       386    191.8179     50.1963 300.2163088 +22.4445991     570.6073     72.13879      1.308     2.83     4.937521     20.37331     67.90501         8     0.770     0.687  43.69   0
       387    763.5552     47.8215 300.3950651 +22.6151344     405.5547     72.26756      1.257     2.08     5.144115     20.37331     79.63445         8     0.803     0.589  69.55   0
       388    712.1578     43.5887 300.3804185 +22.5985328     2829.427     72.21241      1.306     2.32     4.907457     20.37331     444.1675        24     1.105     0.969  69.51   0
       389    727.2565     42.3565 300.3855232 +22.6026977     881.7542     72.21241      1.630     3.95      5.06107     20.37331     104.0427        17     1.375     0.886  48.18   0
       390    353.2095     44.2752 300.2684256 +22.4912488     413.7282     72.19401      1.473     3.61     5.023109     20.37331     52.25309         8     0.993     0.625  38.33   0
       391      5.8864     37.7827 300.1625450 +22.3853108     952.2975      72.1572      1.675     3.80     4.955718     20.37331     106.9158        18     1.274     0.949  18.09  16
       392    798.6042     35.1745 300.4100895 +22.6219851     1478.557     72.17561      1.363     2.62     5.215782     20.37331     197.1447        21     1.131     0.964 -81.98   0
       393    542.2249     27.7921 300.3326021 +22.5431160     1176.457     72.21241      1.326     2.10     4.093925     20.37331      157.858        16     0.943     0.872  71.61   0
       394    736.5563     28.1326 300.3930314 +22.6013891     733.7078     72.19401      1.314     3.55     5.256038     20.37331     117.6221        10     1.047     0.724  45.20   0
       395    114.8286     27.5978 300.1996988 +22.4150356     538.6216      72.1572      1.355     3.68      4.96623     20.37331     66.92328         9     1.019     0.698  22.80   0
       396    446.1851     25.8792 300.3033218 +22.5138072     834.7887      72.2308      1.268     2.46      4.93602     20.37331     120.2922        13     1.034     0.804 -42.14   0
       397    828.1064     24.9905 300.4225878 +22.6278834     442.1916      72.1572      1.500     2.49     5.038976     20.37331      62.6526         7     0.840     0.605 -25.14   0
       398    785.5074     16.6314 300.4120164 +22.6127301     651.3445     72.13879      1.269     2.47     5.283338     20.37331     92.88185        11     0.840     0.814  60.16   0
       399    227.7997   1011.9186 299.9151821 +22.7314501     895.9208     72.08354      3.126     3.96     80.85412     20.37331     42.39728         5     0.881     0.508  35.91   3
       400      9.8825     15.8895 300.1708810 +22.3802199     466.7704     72.32269      1.340     3.24     5.022818     20.37331     55.58278         7     0.918     0.577 -15.90   0
       401    218.8274   1010.4154 299.9128817 +22.7283253     2939.192      72.2308      5.868    21.61     80.65742     20.37331     80.11954       137     4.122     3.360  43.62  18
       402    218.7617   1002.9125 299.9153027 +22.7261543     1515.677     72.19401      4.258    11.69     75.02354     20.37331     49.61176        32     3.006     1.266 -31.82   3
       403    779.9494    999.3841 300.0911385 +22.8935289     817.7973      72.2308      1.992     6.53     2.424808     20.37331      63.0742        11     1.341     0.894  -2.38   0
       404    286.9198    987.8227 299.9414059 +22.7422880     8338.004      72.1572      7.375    32.73     39.74958     20.37331     171.2378       645    11.859     4.260  67.99  19
       405    532.8782   1013.3497 300.0096319 +22.8234249     384.2348     72.21241      1.848     4.81     2.312937     20.37331     40.56547         7     1.227     0.534  78.26   0
       406    401.7763   1010.4582 299.9697690 +22.7832542     668.8215     72.21241      3.011     4.05     2.616302     20.37331     47.79819         9     1.264     0.637  75.77   2
