#   1 NUMBER                 Running object number                                     
#   2 X_IMAGE                Object position along x                                    [pixel]
#   3 Y_IMAGE                Object position along y                                    [pixel]
#   4 ALPHA_J2000            Right ascension of barycenter (J2000)                      [deg]
#   5 DELTA_J2000            Declination of barycenter (J2000)                          [deg]
#   6 FLUX_APER              Flux vector within fixed circular aperture(s)              [count]
#   7 FLUXERR_APER           RMS error vector for aperture flux(es)                     [count]
#   8 FLUX_RADIUS            Fraction-of-light radii                                    [pixel]
#   9 FWHM_IMAGE             FWHM assuming a gaussian core                              [pixel]
#  10 BACKGROUND             Background at centroid position                            [count]
#  11 THRESHOLD              Detection threshold above background                       [count]
#  12 FLUX_MAX               Peak flux above background                                 [count]
#  13 ISOAREA_IMAGE          Isophotal area above Analysis threshold                    [pixel**2]
#  14 A_IMAGE                Profile RMS along major axis                               [pixel]
#  15 B_IMAGE                Profile RMS along minor axis                               [pixel]
#  16 THETA_IMAGE            Position angle (CCW/x)                                     [deg]
#  17 FLAGS                  Extraction flags                                          
         1    704.5004     14.6736 300.4312682 +22.6044118     675.1953     72.50682      1.193     2.78     4.830004        20.42     100.5542        11     0.920     0.781 -62.17   0
         2    513.0922     12.9184 300.3722255 +22.5465963     1880.434     72.52522      1.314     2.28     4.637512        20.42     285.7143        20     1.104     0.857  63.98   0
         3    235.7988     10.3346 300.2867913 +22.4627891     682.4036     72.35944      1.393     3.01     5.257075        20.42      89.3709        11     1.042     0.678  76.03   0
         4    470.3431      6.8432 300.3608879 +22.5320472       1353.8       72.341      1.299     2.47     4.290942        20.42     175.3816        17     1.133     0.769  67.55  16
         5    575.7971      3.5709 300.3947789 +22.5626860     1123.021     67.19639      1.221     2.31     4.940776        20.42     177.5078        13     0.955     0.738  62.34  16
         6    171.1176      2.2927 300.2692893 +22.4410969       407.51     61.66705      1.323     3.57     5.333848        20.42      58.1897        11     0.974     0.840  71.85  24
         7     81.6251   1011.3490 299.9137169 +22.7037654     1219.284     72.39632      4.873     8.47     47.01653        20.42     37.42566        15     1.849     1.083  67.23  18
         8    181.5050   1017.1949 299.9428492 +22.7354377     4997.012     72.28564      9.929    40.54     15.13836        20.42     151.4807       563     8.473     6.139  17.01  26
         9    149.0602   1019.3456 299.9320662 +22.7263105     1885.664     72.43317     12.654    21.75     24.56565        20.42      46.9689       100     4.527     2.901   0.66  27
        10    130.6801   1023.3387 299.9250551 +22.7219348     661.7529     58.30831      5.639     5.75     31.88486        20.42     34.92824        10     1.590     0.584   8.03  25
        11    114.6637   1022.5554 299.9203335 +22.7169000     1415.062     62.35561     10.473    14.63     37.63372        20.42     61.40028        37     2.793     2.132 -15.16  26
        12     29.9890    987.9317 299.9052995 +22.6815455     883.2553     72.37788      6.717     8.36     54.83028        20.42     40.38366        12     2.126     0.918 -29.06   3
        13     41.8160    981.7234 299.9109934 +22.6833190     895.8346     72.37788      7.126    15.16     46.22071        20.42     53.22881        30     4.772     1.339 -27.97   3
        14     33.4538   1010.2185 299.8991217 +22.6889722     2670.638     72.35944      6.054    16.40     70.71621        20.42     62.70142       125     3.404     3.336 -82.51  19
        15     29.4239    998.8644 299.9015657 +22.6845084     2181.197     72.35944      8.744    25.36     63.93954        20.42     56.78768       121     5.322     3.356  74.53  19
        16    193.7700   1003.1063 299.9512472 +22.7350827      560.625     72.28564      1.604     5.93     11.04967        20.42     53.79577        13     1.352     0.812  75.80   0
        17    481.8882   1003.2309 300.0408142 +22.8216116      501.074     72.35944      1.735     3.78     2.261933        20.42     49.60456         8     1.029     0.690  74.55   0
        18    754.3074   1002.4639 300.1258938 +22.9031259     326.1663     72.48841      1.446     4.00     2.371996        20.42     38.94167         5     0.952     0.498   2.35   0
        19    510.8594    999.6321 300.0510023 +22.8292738     1535.904     72.41475      1.572     3.29     2.288891        20.42     138.0903        21     1.205     1.059 -20.57   0
        20    688.2891    996.9178 300.1071321 +22.8817310     334.3809     72.48841      1.374     4.35     2.635497        20.42     37.07629         7     0.757     0.711 -57.07   0
        21    404.5618    996.0049 300.0191058 +22.7963309     1097.161     72.39632      1.703     3.78     2.476415        20.42     98.69112        17     1.112     1.037 -26.62   0
        22    335.1714    994.1338 299.9981307 +22.7749650     6469.987     72.37788      1.668     3.21     3.217665        20.42     647.1537        41     1.349     1.315  70.27   0
        23     60.2616    994.3564 299.9126113 +22.6924794     1079.521     72.37788      6.132     8.45     47.69037        20.42     53.03817        18     1.930     1.033  13.03   3
        24     63.4124    991.7932 299.9144244 +22.6926913     861.6982     72.24872      6.161    10.18     45.32601        20.42     39.78114        16     2.783     1.038  40.28   2
        25    645.9360    983.5367 300.0982964 +22.8651859     321.6067     72.41475      1.335     4.08     2.618089        20.42     46.46765         6     0.902     0.697  61.20   0
        26    367.7288    980.8840 300.0125697 +22.7809389     394.7752     72.48841      1.310     2.78     2.887003        20.42      71.0387         9     0.939     0.704 -54.32   0
        27     40.6996    972.2379 299.9137337 +22.6802655     918.7407     72.39632      2.946     3.57     39.31985        20.42     34.49779         5     1.095     0.336 -20.78   3
        28     40.0739   1018.1824 299.8985857 +22.6932427     1963.145     72.37788      7.695    18.70     73.09066        20.42     58.12624        74     3.507     2.769 -24.11  19
        29     30.9537    976.5629 299.9092991 +22.6785776     1848.761     72.41475     10.003    12.85     45.85501        20.42     54.31729        45     2.336     1.965 -44.03   3
        30     24.9366    976.7491 299.9073697 +22.6768236     1674.151     72.43317      6.367    11.25     47.60902        20.42     47.10099        20     2.482     1.421 -21.51   3
        31    881.5008    972.6137 300.1752529 +22.9327030     2104.307     72.28565      1.689     3.57     2.533326        20.42      156.679        25     1.294     1.105 -28.43   0
        32    532.2349    970.5475 300.0671226 +22.8273452     234.8151     72.39632      1.003     3.81     2.616035        20.42     48.02447         7     0.945     0.560 -61.24   0
        33     30.6763    963.4540 299.9134791 +22.6747379     2165.375     72.41475      6.277    15.72     34.88927        20.42     59.01915        63     3.368     2.039 -12.84   2
        34    997.2379    960.8825 300.2151624 +22.9640340     382.7847       72.341      1.518     4.73     3.382159        20.42     40.38158         8     0.985     0.644 -24.56   0
        35    670.6599    961.9289 300.1130298 +22.8664025     821.2004     72.41475      1.948     6.98     2.785364        20.42     59.61711        16     1.589     0.859  61.53   0
        36    705.1746    955.7883 300.1257795 +22.8749933     1062.277     72.37788      1.647     3.97      2.73793        20.42     99.38625        14     1.071     0.934 -64.11   0
        37    482.5397    956.6856 300.0561668 +22.8084566     400.8315     72.48841      1.455     2.90     2.739463        20.42     44.01373         5     0.731     0.459 -70.08   0
        38    727.3631    949.4763 300.1347462 +22.8798371     11309.34       72.341      1.597     3.03     2.735596        20.42     944.9465        54     1.357     1.313  78.44   0
        39    773.1530    949.5322 300.1489952 +22.8935863     602.0921     72.35944      1.746     5.41     2.713804        20.42     51.29393        11     1.400     0.590 -65.63   0
        40    918.5900    949.2845 300.1944101 +22.9371257     503.5193       72.341      1.739     6.01     2.802452        20.42     43.10069         9     1.163     0.875   6.83   0
        41     38.5694    940.7810 299.9233088 +22.6706112     378.4101     72.37788      1.433     5.20     17.07272        20.42     49.43909         9     1.274     0.600  -0.39   0
        42    432.4201    937.6536 300.0467645 +22.7879569     555.7676     72.35944      1.822     4.01     2.889129        20.42      59.6369         9     0.936     0.831 -33.73   0
        43    735.9116    931.6191 300.1432212 +22.8772757     1272.276     72.32256      1.507     3.29     2.832516        20.42      128.252        17     1.121     0.909  48.74   0
        44     28.5256    931.8372 299.9230995 +22.6650316     156.3734     72.32256      1.278     3.21     10.64452        20.42     49.09504         7     1.091     0.598  32.26   0
        45    919.1816    930.5240 300.2007003 +22.9319163      449.615     72.37788      1.522     4.87     2.965267        20.42     42.85682         9     1.083     0.636  28.91   0
        46    426.1823    929.7614 300.0473919 +22.7838212     270.0297     72.39632      1.721     4.36     2.955181        20.42     25.89056         5     0.745     0.726  15.69   0
        47    587.9465    928.4129 300.0981794 +22.8319721     541.6105     72.39632      1.662     5.61     3.114898        20.42     43.82022        11     1.312     0.677  42.62   0
        48    773.9796    924.7205 300.1573277 +22.8867122     870.8307     72.37788      1.776     3.53     2.906121        20.42     77.61049        16     1.059     1.010 -19.05   0
        49    113.0844    924.3604 299.9518004 +22.6882826     525.9075       72.341      4.086     4.58     7.120073        20.42      42.2356         8     1.098     0.925  10.71   0
        50    882.6995    922.0412 300.1920863 +22.9185430     311.6615     72.35944      1.659     4.62     2.890731        20.42     32.28337         6     0.950     0.639  49.78   0
        51    822.6003    916.3129 300.1752163 +22.8988785     606.8038     72.26719      1.422     3.10     2.989885        20.42      61.8863        11     0.909     0.808  17.36   0
        52    673.7173    915.1116 300.1292184 +22.8538841     647.5207     72.48841      1.400     3.18     2.972038        20.42     67.31592        12     0.935     0.845 -39.78   0
        53    386.4046    911.8013 300.0408609 +22.7667322     4192.655     72.19329      1.531     2.90      3.13348        20.42      444.484        30     1.174     1.160  23.31   0
        54    685.3293    912.4442 300.1337034 +22.8566014     593.7684       72.341      1.410     3.37     3.010417        20.42     67.87486        12     1.003     0.866  11.42   0
        55     48.6497    900.3915 299.9395816 +22.6620631     514.8289     72.37788      1.895     5.08     6.201411        20.42     39.27255         7     1.539     0.474 -35.65   0
        56    165.1957    900.4182 299.9757838 +22.6970664     332.9091     72.32256      1.648     3.42     4.233358        20.42     26.28287         5     0.752     0.451  19.46   0
        57     29.4202    899.7961 299.9338025 +22.6561176     442.4687       72.341      1.424     3.47     6.112497        20.42     26.07854         5     0.778     0.447 -70.81   0
        58    435.7146    899.1819 300.0603082 +22.7779103     837.6522     72.32256      0.698     1.74     3.077015        20.42     349.3022         5     0.630     0.330  21.88   0
        59    111.3975    897.5030 299.9600148 +22.6800775     972.3809     72.28565      2.012     4.65     5.837361        20.42     74.37685        16     1.231     1.056 -13.86   0
        60     88.7035    894.6191 299.9539022 +22.6724365     1687.208     72.28565      1.807     3.73     6.055285        20.42     138.4844        26     1.370     1.157 -22.61   0
        61     20.5169    895.2780 299.9325071 +22.6521489     682.4332     72.48841      4.195     6.17     5.700854        20.42     52.13391        11     1.271     0.984  51.80   0
        62    960.4943    883.5051 300.2288840 +22.9307986     2139.017     72.54362      1.700     3.28     3.087244        20.42     166.1014        24     1.266     1.113 -25.73   0
        63    914.7498    881.8492 300.2151578 +22.9166107     2019.885     72.41475      1.522     3.17     3.126378        20.42     183.8076        23     1.167     1.055 -67.47   0
        64    619.9526    882.3525 300.1231332 +22.8283559     470.6633     72.41475      1.651     6.60     3.277436        20.42     37.35027        12     1.456     0.839 -45.74   0
        65   1011.7717    877.5155 300.2468267 +22.9444476     324.8471     72.37788      1.347     4.60      3.10235        20.42     42.14415         8     0.859     0.796  62.18   0
        66    698.5186    876.2411 300.1495918 +22.8501662     731.7112       72.341      1.750     3.40     3.391068        20.42     71.29357        11     0.993     0.833  44.05   0
        67    566.3558    869.8461 300.1105139 +22.8086897     4802.372     72.41475      1.446     2.65     3.333354        20.42        534.7        34     1.204     1.156  40.34   0
        68     56.2788    870.0874 299.9518101 +22.6556682     422.5124     72.52522      1.440     4.01     4.137035        20.42     42.08643         7     0.772     0.635  79.91   0
        69    368.7903    866.8538 300.0500055 +22.7485540     564.8601     72.37788      1.424     4.34        3.331        20.42     65.53764        11     1.143     0.742 -49.31   0
        70    116.4791    863.6557 299.9726051 +22.6719005     1293.536     72.41475      1.656     3.34     4.031009        20.42     128.7752        21     1.307     1.056  38.01   0
        71    586.9776    862.3151 300.1193845 +22.8127145     640.7289     72.32256      1.352     3.12     3.352313        20.42     75.75964        11     1.000     0.732  25.49   0
        72    135.8091    861.0216 299.9794683 +22.6769489     426.1082     72.37788      1.544     4.05     3.855613        20.42     45.33201         9     1.064     0.860  84.10   0
        73    503.5581    852.9688 300.0964562 +22.7850080     304.9088     72.39632      1.322     2.13     3.351201        20.42     46.85451         6     0.741     0.493 -83.98   0
        74    742.3944    849.4777 300.1719683 +22.8556411     4194.305     72.28565      1.454     2.62     3.670972        20.42     420.3582        34     1.247     1.104  25.25   0
        75    998.1401    849.9363 300.2515477 +22.9324404     550.1796     72.41475      2.319     5.04       3.1587        20.42     41.57738         7     1.006     0.714  16.37   0
        76    959.3911    849.5331 300.2395931 +22.9207110      1212.26     72.37788      1.649     3.49     3.178141        20.42     111.0133        18     1.117     1.002  47.76   0
        77    150.8001    843.6641 299.9897730 +22.6764731     451.0515     72.35944      1.641     5.39     3.662378        20.42      47.9076        11     1.167     0.811   0.03   0
        78    459.1644    842.0595 300.0861890 +22.7685590     605.6179     72.39632      1.511     3.36     3.279727        20.42     62.18628        13     1.020     0.877   4.22   0
        79    105.8917    840.1050 299.9769762 +22.6619701     1069.086       72.562      1.567     3.31     3.877903        20.42     107.3773        14     1.120     0.860  30.12   0
        80    255.4414    832.2994 300.0259961 +22.7046251     53390.22     72.35944      1.542     2.72     3.535086        20.42     5846.901       102     1.436     1.387  68.18   0
        81    520.7266    835.2218 300.1075733 +22.7850661     483.0359     72.37788      1.349     2.71     3.348809        20.42      64.9903         9     0.886     0.648  21.96   0
        82    513.3456    831.1683 300.1065944 +22.7816888     1563.323     72.39632      1.380     2.82     3.348437        20.42     165.2843        16     0.980     0.906  67.68   0
        83    926.1972    830.3013 300.2354982 +22.9052382     885.6204     72.26719      1.659     3.20     3.381675        20.42     72.50684        13     0.958     0.888   2.25   0
        84    183.6851    830.1106 300.0044019 +22.6824589     501.2237     72.52522      1.521     3.38     3.559222        20.42     46.32486         9     0.899     0.686  20.95   0
        85    542.1566    827.2327 300.1168429 +22.7892021     813.1351     72.41475      1.374     3.40      3.34769        20.42     102.1993        13     0.987     0.951  71.47   0
        86    553.3469    825.5371 300.1208781 +22.7920722     573.6628     72.43317      1.245     2.72     3.347628        20.42     75.97272         9     0.869     0.708  22.54   0
        87    873.0677    822.8167 300.2213677 +22.8871632     293.9665     72.37788      1.514     6.28     3.754488        20.42      39.7421         8     1.116     0.993 -67.61   0
        88    658.7579    821.7828 300.1549233 +22.8226102       404.89     72.39632      1.171     3.05     3.350804        20.42     56.45417         9     0.868     0.732  86.69   0
        89    454.0900    818.9843 300.0921159 +22.7604160     211.8374     72.30411      1.195     3.87     3.271023        20.42     34.09484         5     0.844     0.509 -26.44   0
        90    305.1579    809.4964 300.0488719 +22.7130060      31198.5     72.37788      1.457     2.62     3.473692        20.42      3219.92        76     1.339     1.306  54.45   0
        91    696.2901    812.0099 300.1697930 +22.8310599     745.5089     72.32256      1.306     2.90     3.417838        20.42     98.05795        11     1.041     0.649 -19.58   0
        92    319.2898    809.9954 300.0531045 +22.7173900     2075.996     72.28564      1.487     2.79     3.470723        20.42      249.928        21     1.126     0.998  26.19   2
        93    316.3076    804.0881 300.0540984 +22.7148006     753.4894     72.54362      2.335     3.37     3.471897        20.42     69.41467         9     1.049     0.721  70.34   3
        94    828.2695    805.2436 300.2131192 +22.8686875     2710.276       72.341      1.398     2.52     3.845992        20.42     292.4528        26     1.074     1.069  86.43   0
        95    586.1057    801.3994 300.1389285 +22.7949705     848.6475     72.24872      1.338     2.86     3.344901        20.42     109.3219        15     0.996     0.899  14.85   0
        96    187.4929    801.3280 300.0149467 +22.6753483     878.7648     72.50682      1.526     3.97     3.457683        20.42     84.71713        13     1.035     0.877  -7.41   0
        97    422.7174    801.2651 300.0881171 +22.7459197     415.5002     72.48841      1.559     4.46     3.198497        20.42     48.74546         8     1.112     0.578  16.15   0
        98    433.4115    796.3535 300.0930420 +22.7477188     863.3442     72.37788      1.380     2.55     3.239897        20.42     102.8039        13     0.932     0.816  61.51   0
        99    582.0173    793.6919 300.1401623 +22.7915321      342.847     72.30411      1.495     4.47     3.353246        20.42     35.48279         6     0.895     0.636 -36.45   0
       100    834.2697    793.2381 300.2188944 +22.8670386     495.5703       72.341      1.457     2.85     3.884631        20.42     63.63808         8     0.867     0.632  -2.95   0
       101    291.4841    791.9816 300.0503162 +22.7038786     257.5241     72.32256      1.581     4.45     3.468677        20.42     38.77731         7     1.225     0.460  51.30   0
       102    378.9597    790.9607 300.0778550 +22.7298345     422.7455     72.45159      1.362     3.45     3.369046        20.42     50.91328         8     0.824     0.664 -47.07   0
       103     21.4112    790.4689 299.9668758 +22.6223757     484.0283     72.39632      1.586     4.95      3.51462        20.42     46.67705        11     1.147     0.758 -79.71   0
       104    587.7954    790.0225 300.1431548 +22.7922119     362.2008       72.341      1.344     4.43     3.358851        20.42     39.96056         8     0.851     0.669 -47.43   0
       105    812.1786    787.5466 300.2138601 +22.8587819     515.8303     72.37788      1.570     5.43     3.875003        20.42     54.32512        10     1.104     0.884  87.72   0
       106    185.7313    785.4852 300.0195515 +22.6702763     617.9225        72.47      1.557     2.86     3.447618        20.42     76.45186        11     0.992     0.844 -43.35   0
       107    508.6460    776.1678 300.1230204 +22.7644957       450.06     72.41475      1.412     3.26     3.386889        20.42     63.43134        10     0.954     0.821 -12.06   0
       108    478.0320    774.0416 300.1141836 +22.7547025     723.0086     72.43317      1.473     3.14     3.404122        20.42     80.42397        11     0.951     0.795  84.77   0
       109    894.5668    770.5211 300.2450803 +22.8785878     1768.195     72.35944      0.781     2.54     3.886209        20.42     470.4278        30     1.143     1.072  46.21   0
       110    500.0704    771.5945 300.1218385 +22.7606110     1334.979       72.341      1.324     2.59      3.40054        20.42      163.099        17     1.055     0.925  63.60   0
       111    387.3313    773.4181 300.0861643 +22.7273133     223.6152     72.37788      1.068     3.47     3.370801        20.42     55.07987         5     0.799     0.435  20.29   0
       112    419.5253    770.9143 300.0969946 +22.7362537      305.646     72.48841      1.251     2.85     3.294439        20.42     63.45122         7     0.922     0.486  81.67   0
       113    581.8829    766.7300 300.1488890 +22.7837530     348.2412     72.48841      1.230     2.21     3.385434        20.42     54.82965         6     0.712     0.551  53.62   0
       114    883.2526    761.9549 300.2443386 +22.8727363     1671.523     72.39632      1.398     2.53     3.944149        20.42     224.0443        20     1.103     0.996 -80.70   0
       115    651.1901    761.3796 300.1722118 +22.8030012     286.6518     72.35944      1.361     4.13     3.407948        20.42     30.22437         6     0.750     0.650 -51.65   0
       116    246.0270    756.2705 300.0477951 +22.6799939     805.5968     72.37788      1.407     3.63     3.454242        20.42     98.55781        14     1.078     0.921 -55.39   0
       117    261.9804    756.6840 300.0526208 +22.6849000     195.3837     72.32256      1.105     3.55      3.45464        20.42      37.7157         5     0.813     0.503 -53.70   0
       118    709.5594    753.3113 300.1930174 +22.8181862     2562.997     72.37788      1.436     2.48     3.487741        20.42     290.7109        28     1.344     1.044   0.96   0
       119    914.2836    752.0644 300.2572304 +22.8791955     1583.982     72.48841      1.409     2.57     3.942371        20.42     202.8911        20     1.023     1.010  -0.52   0
       120    219.9294    751.9833 300.0410758 +22.6709321     217.3862     72.39632      1.254     3.73     3.449445        20.42     28.58001         5     0.650     0.617  -1.60   0
       121     94.8511    739.8643 300.0061443 +22.6299148     694.8487     72.43317      1.777     3.92     3.409015        20.42      63.8324        11     1.031     0.852 -15.66   0
       122    791.8893    739.0562 300.2233064 +22.8387745     520.4122     72.41475      1.379     3.84     3.949329        20.42     62.93203         8     0.932     0.680  25.04   0
       123    827.8795    730.1512 300.2374192 +22.8470049     145772.3     72.37788      1.363     2.38     4.022226        20.42     18759.48       150     1.392     1.329  81.94   0
       124    974.7717    731.7490 300.2827004 +22.8914856     1244.217     72.39632      1.547     2.85     3.777447        20.42     143.8753        20     1.134     1.020  48.74   0
       125    680.2552    730.5434 300.1912922 +22.8028630     744.4808     72.43317      1.326     2.53     3.498077        20.42     86.60396         9     0.808     0.729  36.13   0
       126    433.1439    731.3159 300.1141083 +22.7289764     198.9955        72.47      1.095     3.52     3.450298        20.42         40.3         5     0.841     0.426  14.94   0
       127    590.2299    733.8933 300.1621659 +22.7768305     348.3102     72.30411      1.203     4.20     3.434364        20.42      44.0393         8     0.796     0.719  56.82   0
       128    860.6623    722.8777 300.2500034 +22.8547414      309.019     72.45159      1.328     2.62     4.023334        20.42     58.47411         7     0.804     0.606 -62.55   0
       129   1023.4985    720.8831 300.3014332 +22.9029633     304.8376     57.43214      1.020     3.56     3.642494        20.42     53.15838         6     0.786     0.489 -80.32  24
       130    514.1132    718.9374 300.1433319 +22.7497102     1729.258     72.48841      1.316     2.37     3.470833        20.42     226.2523        20     1.055     0.923  50.62   0
       131    695.3373    716.3190 300.2006155 +22.8033006     9241.145     72.48841      1.274     2.23     3.632146        20.42     1155.917        44     1.177     1.105 -88.47   0
       132    176.9548    718.5074 300.0386019 +22.6484334     455.2487     72.39632      1.938     4.77     3.423601        20.42     34.13826         6     0.958     0.826  42.76   0
       133    196.8071    711.5717 300.0470273 +22.6524019     4867.969     72.37788      1.438     2.62     3.439977        20.42     580.3215        34     1.188     1.138  74.00   0
       134    279.0130    709.5817 300.0732315 +22.6764991     1107.121       72.341      1.302     2.56     3.457425        20.42     154.7806        16     1.060     0.902  -8.61   0
       135    154.5344    707.5936 300.0351819 +22.6385743     579.1709     72.37788      1.322     3.03     3.447184        20.42     82.90573        11     0.911     0.827  37.04   0
       136    486.8357    705.0511 300.1393565 +22.7375434     892.6094     72.39632      1.401     3.29     3.544079        20.42     113.0989        14     1.003     0.941  40.36   0
       137    690.2639    702.3270 300.2035843 +22.7977619     1733.262     72.41475      0.971     3.59     3.724821        20.42     477.9003         8     1.023     0.363 -32.39   0
       138    478.8597    697.2133 300.1394223 +22.7329016      3241.18       72.341      1.293     2.27     3.569313        20.42     463.5411        23     1.025     0.972  62.95   0
       139    524.6313    694.7928 300.1544559 +22.7459343     1120.407     72.37788      0.718     1.02     3.484644        20.42     483.9328         6     0.588     0.436 -39.73   0
       140    469.1411    690.9363 300.1384383 +22.7281852     1595.469     72.41475      1.407     2.24     3.580522        20.42     211.4816        23     1.201     1.059  75.82   0
       141    397.8139    690.2955 300.1164523 +22.7066069     352.3186     72.30411      1.320     4.15     3.591397        20.42     43.84171         9     0.866     0.785  79.89   0
       142    664.4509    689.8585 300.1995973 +22.7864428     247.9766     72.43317      1.540     4.08     3.750998        20.42     38.28199         5     1.118     0.441  77.04   0
       143    529.7747    690.1544 300.1575649 +22.7461453     1564.955     72.39632      0.565     0.84     3.481485        20.42     969.2778         5     0.460     0.358  -9.10   0
       144    862.5773    688.7091 300.2617098 +22.8455004     429.9855     72.30411      1.521     2.19     4.023431        20.42     59.35376         5     0.697     0.442 -65.85   0
       145    146.6864    685.7247 300.0398520 +22.6299468     546.4275     72.50682      1.397     3.64     3.542908        20.42     73.26879        12     1.071     0.920   3.89   0
       146    132.5470    687.2659 300.0349570 +22.6261453     579.9373     72.41475      1.284     2.36     3.643644        20.42     82.06522        10     0.881     0.670  -2.74   0
       147    916.0027    682.1225 300.2805084 +22.8596180     620.4222     72.28564      1.435     4.15     4.089337        20.42      62.5696        10     0.927     0.786  69.27   0
       148    203.1672    682.4151 300.0584826 +22.6459472     476.0529     72.35944      2.205     4.73     3.458812        20.42     35.51907         7     0.939     0.676 -43.37   0
       149    172.1766    682.2536 300.0489024 +22.6366009     596.3019     72.39632      1.563     3.52     3.445071        20.42     78.54185        11     0.997     0.938   1.51   0
       150    492.7230    681.2297 300.1489331 +22.7324717     423.2771     72.35944      1.279     3.53     3.572109        20.42     61.16491        11     1.072     0.704 -36.45   0
       151    393.7892    680.7639 300.1182987 +22.7026643     1686.186     72.37788      1.268     2.21     3.623454        20.42     262.4912        19     1.048     0.904  56.57   0
       152    427.3762    679.9463 300.1290145 +22.7125042      319.079     72.39632      1.138     2.21     3.620425        20.42     49.82762         7     0.692     0.651 -77.24   0
       153     47.7993    675.7640 300.0123652 +22.5974101     19473.83       72.341      1.570     2.88     4.384915        20.42     2051.231        65     1.392     1.320  33.54   0
       154    969.4943    677.9661 300.2985414 +22.8744514     800.4784     72.35944      1.287     2.42     4.127858        20.42     113.6098        12     0.867     0.826   4.76   0
       155    478.7999    676.1603 300.1462477 +22.7268410     993.2457     72.35944      1.368     2.35     3.607224        20.42     140.6809        15     0.990     0.824 -62.20   0
       156    514.0783    675.1937 300.1575424 +22.7371435     417.2127     72.30411      1.352     3.67     3.536698        20.42     63.62106        10     1.116     0.816  60.51   0
       157    850.3022    671.5462 300.2634629 +22.8368914     256.3451        72.47      1.483     4.26     4.027901        20.42      35.1495         7     0.967     0.534 -62.22   0
       158    232.0286    667.4459 300.0723205 +22.6503133     287.8456     72.41475      1.232     4.92     3.521465        20.42     46.80607         7     0.871     0.790  39.48   0
       159    562.3885    663.7597 300.1762985 +22.7483480     356.6736     72.37788      1.354     2.53     3.658636        20.42     38.13213         5     0.685     0.478 -78.67   0
       160    896.8046    662.1646 300.2810104 +22.8481314     880.2485     72.37788      1.265     2.47     4.110717        20.42     138.7567        13     0.932     0.802  80.46   0
       161     59.7567    660.5620 300.0210209 +22.5966397     371.1953        72.47      1.460     4.48     4.367888        20.42     56.90971         6     1.058     0.539 -30.51   0
       162    763.5836    660.0237 300.2401807 +22.8075917     419.9352     72.37788      1.236     2.76     4.093395        20.42     74.87148        10     0.993     0.708 -38.14   0
       163    442.0497    656.3891 300.1412379 +22.7101442     415.2993     72.39632      1.377     3.64     3.841083        20.42     56.44162         9     0.904     0.703  74.19   0
       164    837.1470    654.9344 300.2647622 +22.8281770     709.7997     72.41475      1.364     3.02     4.103575        20.42     82.45148        12     0.947     0.818  69.41   0
       165    234.6670    655.7268 300.0769499 +22.6477429     315.6947     72.43317      1.459     4.57     3.611884        20.42     36.16007         8     0.997     0.596 -17.57   0
       166    832.8651    654.3448 300.2636191 +22.8267245     385.7933     72.43317      1.359     2.46     4.108027        20.42     59.40488         5     0.698     0.619 -40.26   0
       167    399.2514    649.2365 300.1302462 +22.6952547     750.9962     72.39632      1.389     3.76     3.908396        20.42     93.72452        12     1.118     0.761  36.88   0
       168    546.7057    647.4390 300.1767210 +22.7389599     522.0942     72.39632      1.352     3.73     3.922043        20.42     63.18858         9     0.957     0.749  34.48   0
       169    593.9996    646.0716 300.1918905 +22.7527478     357.7586     72.24872      1.147     2.30      3.99619        20.42     63.20127         8     0.767     0.649  42.53   0
       170    564.3541    645.5834 300.1828187 +22.7437190     479.9301     72.39632      1.218     2.81     3.959796        20.42     79.58551         9     0.900     0.703 -41.98   0
       171    443.3503    644.7125 300.1454379 +22.7071828     1044.528     72.37788      1.512     3.56     3.974985        20.42     112.8487        17     1.227     0.930  13.17   0
       172    876.8586    640.1645 300.2819431 +22.8358339     3266.311     72.37788      1.295     2.22     4.177357        20.42     469.1535        27     1.137     0.987  60.02   0
       173    408.5885    640.1813 300.1360943 +22.6954564      1879.51       72.341      1.363     2.21     4.005177        20.42     256.5706        20     1.049     0.949 -49.08   0
       174    974.8453    638.3660 300.3130835 +22.8646754     535.1972     72.41475      1.187     2.45      4.18915        20.42     86.19916         9     0.818     0.685  66.81   0
       175    384.3171    635.1706 300.1301717 +22.6867384      235.312     72.39632      1.242     3.49     4.058108        20.42     41.34645         5     0.795     0.442  77.32   0
       176    916.0099    629.9001 300.2974867 +22.8446157     278.5474     72.28564      1.374     3.25      4.23045        20.42     42.17593         5     0.797     0.495  62.17   0
       177    272.0496    627.0318 300.0978991 +22.6507256     9137.681     72.41475      1.359     2.30     3.850261        20.42     1259.155        40     1.194     1.091  76.12   0
       178    394.4586    624.0164 300.1369520 +22.6865789     8950.148       72.341      1.308     2.17     4.176335        20.42     1287.874        41     1.152     1.089 -76.28   0
       179    159.2750    621.6811 300.0645799 +22.6153541     407.9877     72.48841      1.839     3.78     3.901097        20.42     39.73224         5     0.912     0.450 -45.81   0
       180    640.8752    620.5519 300.2147829 +22.7594733     272.1214     72.37788      1.151     4.20     4.403348        20.42     43.24795         7     0.899     0.736 -50.77   0
       181    998.9943    619.2683 300.3268236 +22.8664215     944.3615       72.341      1.295     2.71     4.171915        20.42     129.9804        14     0.938     0.904 -14.58   0
       182    806.0776    617.8939 300.2671177 +22.8082255     1787.266     72.50682      1.300     2.18     4.268277        20.42     275.8068        19     0.969     0.919  48.87   0
       183    890.7762    615.2385 300.2943840 +22.8328425      12371.9     72.39632      1.292     2.26     4.278717        20.42     1620.579        43     1.145     1.095  88.36   0
       184    455.0241    613.6258 300.1591741 +22.7017605     11450.67       72.341      1.273     2.14     4.382373        20.42     1698.432        46     1.167     1.098 -80.79   0
       185    182.4758    609.2252 300.0758387 +22.6187423     1325.246     72.39632      1.332     2.43     3.998219        20.42     167.1716        17     1.048     0.887  80.76   0
       186    624.6676    609.3218 300.2133850 +22.7513897      480.914     72.48841      1.116     2.36     4.559517        20.42     74.47125         6     0.706     0.530 -52.35   0
       187    340.2596    608.1881 300.1252358 +22.6657797     367.9804     72.35944      1.513     2.62     4.267811        20.42     47.74329         6     0.759     0.517  43.72   0
       188    104.1853    608.4100 300.0517732 +22.5950160     114.2236     72.28564      0.955     3.48     4.396107        20.42     28.71687         5     0.759     0.462  16.27   0
       189    429.5803    606.3016 300.1536367 +22.6920277     445.8495     72.30411      1.144     2.79     4.385268        20.42     60.34944         8     0.867     0.626 -66.85   0
       190    386.7743    601.7828 300.1417868 +22.6778927     4309.434     72.39632      1.288     2.21     4.350618        20.42     663.5294        28     1.111     0.973  83.27   0
       191    729.5475    601.6944 300.2485339 +22.7806365     798.9872     72.45159      1.230     2.57     4.448158        20.42     114.9255        12     0.930     0.802  57.59   0
       192    365.0163    600.2413 300.1355190 +22.6709245     1168.325     72.39632      1.266     2.24     4.342275        20.42     178.9996        16     1.004     0.896  55.89   0
       193    119.2611    599.5374 300.0593408 +22.5969949     820.4348     72.41475      1.513     3.03     4.320775        20.42     91.51039        16     1.037     0.945 -19.93   0
       194    806.5817    597.1167 300.2740273 +22.8024076     1563.376     72.32256      1.357     2.66     4.329371        20.42     168.0033        17     1.104     0.851 -50.18   0
       195    503.3466    589.3240 300.1821109 +22.7092741       198440     72.41475      1.239     2.15      4.58534        20.42     26927.42       205     1.419     1.377 -18.77   0
       196    687.1237    594.1834 300.2377580 +22.7657637     774.0139     72.37788      1.192     2.70     4.569236        20.42      123.459        12     0.959     0.789 -27.55   0
       197    780.2498    592.5750 300.2672967 +22.7932121     304.3492     72.39632      1.193     2.80     4.373639        20.42     37.91234         5     0.713     0.457 -20.02   0
       198    189.3782    589.3457 300.0844440 +22.6151099     3515.607     72.39632      1.421     2.40     4.125248        20.42     396.9365        31     1.179     1.065  68.75   0
       199    891.5511    590.6690 300.3026107 +22.8260149      289.839     72.37788      1.096     3.46     4.336272        20.42     40.83482         5     1.040     0.332 -19.77   0
       200    272.2753    589.1038 300.1102947 +22.6399100      177.347     72.52522      1.152     3.90     4.105972        20.42       35.045         5     0.877     0.497  38.97   0
       201    755.3534    585.2944 300.2619044 +22.7836596     485.3841     72.39632      1.208     2.62      4.43251        20.42     68.12285         6     0.678     0.639 -50.56   0
       202    368.7537    585.4245 300.1414965 +22.6677928     325.4386     72.39632      1.140     3.34     4.358828        20.42     38.89542         5     0.785     0.412 -24.09   0
       203    393.9606    570.0626 300.1543299 +22.6709432     2700.183     72.37788      1.442     2.84      4.42954        20.42     341.3704        29     1.557     0.910  89.82   0
       204    238.1104    572.0065 300.1052274 +22.6247549     466.5309     72.28564      1.482     2.99     4.203036        20.42     58.57538         8     0.795     0.767 -83.51   0
       205    843.7455    569.2747 300.2946591 +22.8055442     291.5596     72.41475      1.312     3.84     4.378444        20.42     36.23489         5     0.899     0.470 -45.46   0
       206    805.4178    565.7625 300.2838535 +22.7930509     344.6779     72.37788      1.239     3.18     4.383702        20.42     49.65721         8     0.796     0.773  -6.07   0
       207    624.2067    564.9760 300.2276521 +22.7385162     633.2564     72.35944      1.690     4.01     4.735557        20.42      64.8256        10     1.147     0.694  50.83   0
       208    327.1093    595.5416 300.1252553 +22.6582059      290.434     72.45159      1.198     3.16     4.226702        20.42     50.84217         9     0.988     0.642  68.21   0
       209    711.1841    558.1248 300.2569709 +22.7626176     457.3936     72.37788      1.241     2.11     4.613731        20.42     68.55471         8     0.774     0.612 -39.57   0
       210    790.8428    555.6434 300.2825991 +22.7857762     1579.756        72.47      1.215     2.17     4.419468        20.42       257.87        17     0.983     0.866  24.56   0
       211    677.3216    555.5535 300.2472572 +22.7517303     242.2449     72.37788      0.959     3.22     4.752122        20.42     47.97533         5     0.756     0.441  21.93   0
       212    662.0638    553.4652 300.2431831 +22.7465574       2487.4     72.43317      1.243     2.10     4.781337        20.42     373.5183        21     1.021     0.883  48.06   0
       213    906.4559    550.8994 300.3201813 +22.8190518     473.3002        72.47      1.248     2.85     4.417743        20.42     68.42552         9     0.958     0.618  86.45   1
       214    566.9858    550.0121 300.2146960 +22.7170659     433.0753     72.30411      1.287     1.92     4.763765        20.42     84.72649         7     0.796     0.506  47.95   0
       215    449.2854    549.3164 300.1782851 +22.6815779     838.8994     72.48841      1.330     2.79     4.600264        20.42     97.25645        14     0.993     0.839 -57.31   0
       216    919.4941    547.3292 300.3254070 +22.8219316     1226.864     72.48841      1.307     2.28     4.428956        20.42     162.4963        18     1.057     0.907  79.19   0
       217    905.2991    546.3625 300.3212947 +22.8174015     712.8434     72.37788      1.417     2.44     4.427932        20.42     93.91643        10     0.885     0.687 -39.56   0
       218    791.2675    546.2111 300.2857961 +22.7831935     1961.929     72.39632      1.245     2.00     4.437129        20.42     312.5154        19     0.973     0.877  53.33   2
       219    790.3348    542.6855 300.2866510 +22.7819011     352.9651        72.47      1.280     3.40     4.440571        20.42     52.06094         5     1.105     0.303  36.22   3
       220    544.6045    543.9595 300.2096944 +22.7086183     665.6219     72.39632      1.281     2.34     4.761635        20.42     77.14863         9     0.781     0.692 -40.25   0
       221    330.3537    544.0942 300.1429807 +22.6444132     232.2113     72.39632      1.078     2.21     4.339006        20.42     59.58798         5     0.721     0.426  68.17   0
       222    382.9398    542.6855 300.1597962 +22.6597794     324.1374     72.48841      1.185     2.38     4.451932        20.42     79.86005         6     0.831     0.510  63.09   0
       223    829.3134    540.8193 300.2994064 +22.7930439     4228.507     72.32256      1.228     2.16     4.420323        20.42     661.2028        27     1.025     0.973  88.80   0
       224    469.9064    540.5726 300.1875433 +22.6852505     288.9316     72.30411      1.654     4.15     4.645003        20.42     33.58551         6     1.020     0.483   6.93   0
       225    567.1491    537.3047 300.2188755 +22.7134657     357.8797     72.45159      1.493     3.47     4.780107        20.42     48.83008         5     0.746     0.686 -60.14   0
       226    489.8460    536.9037 300.1949412 +22.6901755     429.8684     72.39632      1.375     2.45     4.678402        20.42     53.68343         8     0.802     0.632 -45.60   0
       227    921.0970    531.4013 300.3310820 +22.8178341     733.8808     72.28564      1.185     2.35     4.400663        20.42     114.1003        11     0.901     0.696  65.42   0
       228     61.2931    531.4310 300.0634577 +22.5600633     1115.359     72.30411      1.524     2.98     4.557457        20.42     116.9815        17     1.102     0.949 -12.11   0
       229    722.1625    524.7134 300.2712468 +22.7563096     313.0228     72.35944      1.216     2.94     4.584249        20.42      56.9004         5     0.829     0.602 -76.06   0
       230    108.7758    523.5397 300.0807739 +22.5720467     307.8137     72.35944      1.490     3.48     4.527489        20.42     32.25356         5     0.762     0.459  18.68   0
       231     53.9646    521.2585 300.0644855 +22.5549462     409.1233     72.37788      1.353     3.34     4.569864        20.42     57.13998         9     0.980     0.708  73.84   0
       232    917.1530    520.1675 300.3335019 +22.8134241     224.6888     72.41475      1.211     3.78     4.377816        20.42     40.67738         5     0.951     0.432  45.39   0
       233    661.5952    515.3406 300.2554235 +22.7354660     494.6528       72.341      1.378     3.36     4.735598        20.42     76.59012        10     1.005     0.808   9.96   0
       234    550.3860    513.0118 300.2215485 +22.7014642     317.2484     72.30411      1.221     2.93     4.765833        20.42     53.74866         7     0.829     0.582  60.76   0
       235    602.7078    511.3961 300.2383648 +22.7166836     762.9832     72.26719      1.138     2.21     4.810336        20.42     114.4182        12     0.913     0.777  85.60   0
       236   1010.2858    508.9823 300.3661834 +22.8381035     1022.517     72.32256      1.345     2.73     4.127072        20.42     124.1855        12     0.923     0.785  23.97   0
       237    917.4474    503.5012 300.3390081 +22.8087221      569.296     72.41475      1.344     3.50     4.342589        20.42     76.88188        14     1.152     0.922 -27.46   0
       238    663.3725    503.5659 300.2598022 +22.7326164     937.3525     72.39632      1.280     2.48      4.70429        20.42     122.9529        13     0.995     0.765  31.81   0
       239    820.6899    499.8120 300.3100409 +22.7786767     931.7946     72.32256      1.237     2.09     4.418439        20.42     170.0446        13     0.922     0.780   9.18   0
       240    805.0483    496.0188 300.3063977 +22.7729006     568.5629     72.41475      1.232     2.86     4.418255        20.42      99.3873        11     0.980     0.726 -22.24   0
       241    785.4889    496.2939 300.3002123 +22.7671195     89.07391     72.54362      0.913     2.62     4.445155        20.42     46.06714         5     0.699     0.480  74.22   0
       242    549.3422    494.2982 300.2273026 +22.6957769     3084.298        72.47      1.163     2.12     4.764994        20.42     472.8162        20     0.980     0.860  81.71   0
       243    909.7828    492.8275 300.3400855 +22.8033584     568.9181     72.37788      1.278     3.02     4.331798        20.42      75.4489        11     1.032     0.701  85.48   0
       244     25.4797    485.3768 300.0672918 +22.5361056      411.058       72.341      1.388     3.30     4.647125        20.42     42.92293         9     0.950     0.669 -55.30   0
       245   1020.9470    481.4330 300.3784589 +22.8333761     648.0052     69.11499      1.417     3.11     3.769092        20.42     78.46385        10     0.867     0.813  25.94  16
       246    555.0146    482.2343 300.2329872 +22.6940124     261.1492     72.35944      1.400     3.81     4.770031        20.42     36.89079         5     0.850     0.489 -43.87   0
       247    321.2658    481.5526 300.1604703 +22.6237356     274.7773     72.39632      1.419     3.73     4.382793        20.42     39.65579         6     0.985     0.829  57.50   0
       248    389.1989    481.0064 300.1817796 +22.6439494     382.5285     72.19329      1.228     2.42      4.59696        20.42     65.35803         6     0.809     0.491  54.35   0
       249    960.5872    473.0250 300.3623618 +22.8128828     1243.976     72.37788      1.250     2.25     4.045238        20.42     182.3094        16     0.986     0.824  58.87   0
       250    832.7023    472.8787 300.3225341 +22.7745355     487.6059     72.48841      1.274     2.91     4.395857        20.42     70.57753        10     0.904     0.816  20.94   0
       251    918.9519    471.7028 300.3498067 +22.8000329     965.8542     72.41475      1.264     2.30      4.21973        20.42     159.1978        14     0.944     0.820 -64.74   0
       252    569.2628    470.3062 300.2412977 +22.6948572     222.4059        72.47      1.159     3.39     4.721025        20.42     41.02277         5     1.096     0.304 -35.53   0
       253    455.6309    468.6583 300.2064612 +22.6603215     454.3628     72.39632      1.167     2.72      4.76502        20.42     60.20513         7     0.854     0.538  30.39   0
       254    659.9403    467.9903 300.2702890 +22.7213679     1053.449     72.35944      1.227     2.09     4.571419        20.42     180.9836        12     0.831     0.777  -0.32   0
       255    163.8483    466.4247 300.1164400 +22.5721802     461.2836     72.37788      1.082     2.18     4.471726        20.42     90.45992         8     0.808     0.606 -12.47   0
       256    226.2184    462.1714 300.1372092 +22.5896673     3600.646     72.37788      1.301     2.36     4.452285        20.42     457.3687        26     1.103     0.988  83.87   0
       257    959.3208    460.4405 300.3660545 +22.8088859     4284.613     72.35944      1.236     2.18     3.977795        20.42     585.1765        26     1.039     1.002 -55.87   0
       258    173.4329    456.9563 300.1224940 +22.5723380     7628.939     72.41475      1.374     2.37     4.475596        20.42     1001.253        39     1.213     1.070  76.06   0
       259    939.3345    451.5744 300.3627008 +22.8003515     1917.765     72.35944      1.300     2.34     3.989224        20.42     244.3356        20     1.065     0.920  81.03   0
       260    314.2720    451.1234 300.1681779 +22.6129031     4881.738     72.48841      1.271     2.16     4.445733        20.42     696.1133        31     1.146     0.952  70.25   0
       261    558.4385    447.7916 300.2452399 +22.6851461      18143.8     72.39632      1.219     2.06     4.601537        20.42      2623.88        55     1.213     1.116  54.24   0
       262    575.4026    448.5264 300.2502832 +22.6904416     801.5743     72.28565      1.880     2.32     4.604101        20.42     89.29016         8     0.830     0.635 -82.44   2
       263    958.1733    447.6075 300.3698647 +22.8048530     372.9459     72.37788      1.983     3.42     3.909467        20.42     27.67281         5     0.743     0.454 -17.81   0
       264    185.2934    445.8634 300.1297831 +22.5727120     190.9684     72.48841      0.934     3.86     4.481797        20.42     47.10922         6     1.011     0.422  79.29   0
       265    755.5755    438.1337 300.3097810 +22.7414449     497.2236     72.35944      1.421     2.63     4.386599        20.42     63.22424         7     0.816     0.596 -11.60   0
       266    892.1215    430.0389 300.3549725 +22.7800207     839.4562     72.35944      1.519     2.70     4.099807        20.42     106.1891        14     1.124     0.759 -70.38   0
       267    601.9108    428.6263 300.2650002 +22.6926695     287.2575       72.341      1.365     3.81      4.46897        20.42     36.85454         6     0.880     0.563 -85.80   0
       268    113.0528    428.0571 300.1131136 +22.5459329     1972.489     72.43317      1.386     2.56     4.593997        20.42     233.2134        21     1.088     0.941  45.68   0
       269    499.0968    417.2787 300.2366753 +22.6585957     6488.842     72.48841      1.226     2.06     4.679615        20.42     1048.943        33     1.102     0.969  66.76   0
       270    912.5980    417.3594 300.3654751 +22.7825085     1326.923     72.37788      1.432     2.31     3.858469        20.42     143.7017        16     0.986     0.894  41.55   0
       271    214.0684    416.7145 300.1481934 +22.5729761     592.5485        72.47      1.196     2.68     4.507898        20.42     85.10966        11     0.867     0.809   6.52   0
       272     71.4649    409.7319 300.1061418 +22.5281989     369.1037     72.43317      1.176     2.58     4.626744        20.42     59.43957         7     0.856     0.540 -29.55   0
       273    758.9184    408.8835 300.3203216 +22.7340407     308.4047     72.50682      1.305     3.40     4.325284        20.42     46.50539         6     0.764     0.561  44.91   0
       274    703.3211    406.0844 300.3039073 +22.7165800     1080.346     72.50682      1.248     2.29      4.30119        20.42     173.0023        16     1.057     0.782  70.24   0
       275    612.8666    407.2379 300.2753575 +22.6898082     521.2087     72.35944      1.299     2.60     4.358654        20.42     89.12794         8     0.876     0.606  32.81   0
       276    405.7644    403.5408 300.2120906 +22.6266730     5913.045     72.39632      1.253     2.17     4.771121        20.42     878.1694        31     1.111     0.966  68.16   0
       277    983.4435    402.2011 300.3924927 +22.7993657     255.6141     72.37788      1.210     3.36     3.723638        20.42      34.9083         5     0.754     0.432  66.68   0
       278    895.2394    397.5815 300.3664849 +22.7716242     556.2244     72.39632      1.432     4.11     3.948738        20.42     75.66207        10     1.146     0.764 -69.73   0
       279    797.7510    397.8092 300.3360198 +22.7424906     1254.265     72.39632      1.196     2.09     4.231719        20.42     214.9692        12     0.842     0.763 -88.93   0
       280    390.2652    392.2339 300.2109395 +22.6187797     493.3843     72.37788      1.131     1.70     4.801091        20.42     80.89353         6     0.641     0.540  35.12   0
       281    473.0742    390.1621 300.2373806 +22.6430075     493.8244     72.32256      1.181     2.34     4.775794        20.42     68.17159         8     0.786     0.642 -51.24   0
       282    770.3979    385.3007 300.3315565 +22.7307020     520.2403     72.26719      1.170     2.78     4.292509        20.42      81.9096         7     0.780     0.621 -68.99   0
       283    293.2772    382.7701 300.1838435 +22.5869841     2481.509     72.35944      1.318     2.33     4.316752        20.42     325.8406        25     1.219     0.899  62.29   0
       284     11.7110    380.3194 300.0971287 +22.5018335     1073.942     72.50682      1.516     3.22     4.423365        20.42     116.9706        14     0.970     0.928 -15.47   0
       285    641.0179    377.5122 300.2937769 +22.6897030      351.852     72.32256      1.223     2.29     4.291561        20.42     43.14148         6     0.742     0.500  -0.27   0
       286    262.6259    372.2508 300.1777270 +22.5747734      29640.9     72.39632      1.304     2.24     4.386148        20.42     4042.481        70     1.263     1.172  76.74   0
       287    797.2734    369.5561 300.3450445 +22.7342270     1203.924     72.35944      1.165     2.39     4.233041        20.42     200.1779        14     0.889     0.839  71.92   0
       288    752.6258    367.2076 300.3318927 +22.7201783     363.0689     72.35944      1.309     2.40     4.322115        20.42      42.9042         5     0.708     0.452 -71.57   0
       289    712.5837    358.5239 300.3222353 +22.7056876     594.3106     72.37788      1.280     3.21     4.323177        20.42     73.81451        14     1.082     0.902  87.13   0
       290    137.0982    358.4105 300.1431979 +22.5331570     467.5637     72.26719      1.502     4.07     4.546872        20.42     54.36868         9     0.985     0.710  51.58   0
       291    360.9334    357.6317 300.2130482 +22.6000499     591.2288     72.37788      1.227     2.74     4.942653        20.42     69.96113         9     0.851     0.682 -61.17   0
       292    672.9391    351.6497 300.3121164 +22.6918353     1858.172     72.43317      1.258     2.33     4.282927        20.42     314.1866        18     1.176     0.761  74.71   0
       293    481.0996    347.0164 300.2538859 +22.6330201     258.2452     72.28564      1.094     3.89     4.742819        20.42     52.22645         5     0.800     0.543 -62.82   0
       294    887.9990    344.5757 300.3814372 +22.7542173     533.6799     72.32256      1.220     2.61     3.897342        20.42     86.05241        11     0.916     0.733  77.40   0
       295    334.8369    336.6299 300.2117480 +22.5861957      2150.88     72.39632      1.475     3.24     4.773581        20.42     246.3427        25     1.299     0.959  58.73   0
       296    766.3665    330.3557 300.3481384 +22.7137020     171.1447     72.41475      1.125     3.35     4.218802        20.42     38.56734         5     0.967     0.336 -67.60   0
       297    773.9583    329.1536 300.3508945 +22.7156304     631.9084     72.43317      1.274     2.10     4.192084        20.42     109.1764         9     0.745     0.705 -72.76   0
       298    673.4983    326.8337 300.3203465 +22.6848714     289.4107     72.35944      1.112     2.64     4.259873        20.42      49.3129         5     0.735     0.456  69.21   0
       299    656.2885    326.8430 300.3149826 +22.6797184      387.555     72.37788      1.050     1.72     4.264901        20.42     83.00293         5     0.660     0.441 -77.81   0
       300    624.5422    326.1841 300.3053086 +22.6700180     234.1758     72.35944      1.094     3.46     4.273695        20.42     42.70992         5     0.749     0.462 -71.66   0
       301    734.7521    319.8963 300.3416821 +22.7012264     366.8474     72.41475      1.550     3.93     4.282936        20.42     38.36848         6     1.026     0.562  64.68   0
       302    410.5233    315.9070 300.2420206 +22.6029316     1232.777     72.52522      1.189     2.06     4.480181        20.42     203.2495        14     1.109     0.667  43.13   0
       303    218.0727    316.2532 300.1820518 +22.5453376     337.2043     72.39632      1.189     3.00     4.628924        20.42     57.58889         5     0.797     0.501 -66.28   0
       304    922.0904    311.3667 300.4028481 +22.7548769     425.2531       72.341      1.490     3.53     4.291493        20.42       53.272         7     0.882     0.555 -36.22   0
       305    793.8254    308.9598 300.3636413 +22.7157758     341.5675     72.41475      1.207     2.65     4.045714        20.42     48.81583         6     0.746     0.544  51.82   0
       306    655.5086    307.7231 300.3209459 +22.6739901     2314.286     72.52522      1.233     2.20     4.251054        20.42     310.6524        22     1.092     0.881  72.94   0
       307    916.7594    301.9664 300.4042369 +22.7505777     3119.707     72.43317      1.256     2.24     4.395713        20.42     477.0989        25     1.071     0.930  64.83   0
       308    978.0439    296.7926 300.4250298 +22.7674377     379.8979     72.39632      1.073     2.45     4.394169        20.42     72.16128         7     0.704     0.645  78.93   0
       309    849.7664    295.5460 300.3854327 +22.7286720     124.8242     72.39632      0.924     2.85      4.21607        20.42     37.39199         5     0.724     0.442  23.61   0
       310    363.7287    291.4023 300.2354151 +22.5818676     523.7244     72.32256      1.177     2.31     4.849687        20.42     96.57153        10     0.867     0.692  55.31   0
       311    986.2978    289.8823 300.4298473 +22.7679213     1536.323     72.54362      1.180     2.10     4.458848        20.42     269.9741        17     0.951     0.884  71.48   0
       312     38.6789    285.9174 300.1361466 +22.4828324     1438.342     72.50682      1.708     3.97     4.385124        20.42     126.1737        25     1.438     1.116 -56.84   0
       313     69.4874    285.8973 300.1457245 +22.4920666     612.8691       72.562      1.510     3.89     4.523428        20.42      82.9235        15     1.223     0.869  49.37   0
       314    932.7108    282.4652 300.4155409 +22.7497457     422.2319     72.50682      1.132     2.84     4.599319        20.42     72.23738         5     0.704     0.479 -15.60   0
       315    776.1057    279.0696 300.3678202 +22.7018763     526.8233     72.50682      1.544     4.04     4.089975        20.42        43.76         7     0.932     0.500  46.14   0
       316    122.5131    277.7339 300.1648502 +22.5056252     453.4214        72.47      1.486     3.42     4.650945        20.42     66.97107         9     0.942     0.787  39.84   0
       317    917.6365    274.6929 300.4133625 +22.7429975     252.2719       72.341      1.250     3.17     4.566907        20.42     57.18842         7     0.812     0.700  57.79   0
       318    798.4750    270.9527 300.3774262 +22.7062418     382.6432     72.37788      1.305     3.90      4.05406        20.42     50.00248         6     1.030     0.423  73.57   0
       319    727.0416    269.0929 300.3557687 +22.6843140     544.4273     72.39632      1.171     1.94     4.262594        20.42     111.2636         9     0.819     0.633  71.44   0
       320    817.8374    261.8767 300.3864068 +22.7094306     365.9557       72.341      1.249     2.27     4.176691        20.42     64.26562         6     0.752     0.516  44.20   0
       321    825.2709    258.0633 300.3899615 +22.7105601     2158.249     72.41475      1.264     1.98     4.225238        20.42     363.2796        20     1.068     0.839  55.05   0
       322    243.7664    255.7493 300.2096755 +22.5356684     2070.886     72.39632      1.320     2.41     4.532519        20.42     302.3442        20     1.092     0.904  86.07   0
       323    321.6131    250.6721 300.2355320 +22.5575458     983.8186     72.39632      1.348     2.64     4.508914        20.42     118.3619        14     1.014     0.812 -76.08   0
       324     73.2423    251.2795 300.1581244 +22.4832560     266.6134     72.35944      1.196     2.45     4.586299        20.42      56.1919         6     0.705     0.602  41.82   0
       325    723.5731    249.7966 300.3609500 +22.6777283     557.8908       72.341      1.213     2.76     4.298273        20.42     99.23026        10     0.914     0.755  79.74   0
       326    830.4794    246.5849 300.3953101 +22.7088193     409.2847     72.39632      1.470     3.36     4.290875        20.42     44.14937         6     0.899     0.443 -72.83   0
       327    138.5360    242.8886 300.1811366 +22.5004262     675.9081     72.50682      1.273     2.74     4.637639        20.42     105.9255        10     0.985     0.640  46.73   0
       328    676.4240    239.6331 300.3495587 +22.6606853     1565.389     72.37788      1.158     2.21     4.313132        20.42     234.8498        17     1.072     0.770  62.72   0
       329    741.3665    239.1409 300.3699521 +22.6799940     463.6622     72.39632      1.085     2.39     4.315993        20.42     95.92906         9     0.852     0.694  43.96   0
       330    159.9650    236.1169 300.1899939 +22.5049071      474.883       72.341      1.240     2.87     4.617378        20.42     82.46724         9     0.878     0.705   6.80   0
       331    947.7097    231.9216 300.4366214 +22.7396998      730.039     72.52522      1.201     2.08     4.562866        20.42     150.6024        11     1.003     0.673  26.56   0
       332    680.5699    231.1286 300.3536098 +22.6594825     750.3788     72.37788      1.279     2.40      4.32984        20.42     107.5896        10     0.825     0.742  81.99   0
       333    601.0235    230.5079 300.3290349 +22.6354773     1144.905     72.30411      1.185     2.27     4.343528        20.42     192.1385        14     0.974     0.756  78.00   0
       334    449.9628    232.2326 300.2814479 +22.5907145     356.7391     72.39632      1.106     2.41     4.479061        20.42     58.40739         7     0.692     0.660 -81.30   0
       335    422.0064    226.9545 300.2744606 +22.5808208     338.7417     72.39632      1.110     2.34     4.499896        20.42     63.77684         5     0.658     0.515  89.90   0
       336    796.4165    221.7026 300.3927665 +22.6914654      1318.43     72.28565      1.233     2.04     4.348548        20.42     208.4307        17     0.980     0.813  75.85   0
       337    527.1071    222.1153 300.3087429 +22.6109217     867.1684       72.562      1.251     2.20     4.447837        20.42     152.7584        13     0.970     0.732  78.59   0
       338    808.4760    220.7874 300.3968223 +22.6948132     758.5765     72.39632      1.214     2.35     4.357071        20.42     118.7714        11     0.858     0.736  77.57   0
       339    854.3925    219.3102 300.4116151 +22.7081363     225.0692     72.28565      1.472     3.79     4.409004        20.42      44.3149         5     0.870     0.473  43.69   0
       340    969.2130    211.6179 300.4499164 +22.7402965     1657.619       72.341      1.357     2.23     4.484349        20.42     255.1712        20     1.094     0.918  62.01   0
       341    925.2020    210.9214 300.4364160 +22.7269222     1141.215     72.28564      1.253     2.39     4.549291        20.42     179.1117        13     0.958     0.740 -74.11   0
       342    159.1014    204.1710 300.2000899 +22.4954757     642.3937     72.30411      1.240     2.41     4.564961        20.42     88.47626         9     0.773     0.703  48.80   0
       343     21.0450    199.1302 300.1588276 +22.4526333     2199.286       72.341      1.474     2.93     4.505093        20.42     241.7185        24     1.284     0.955  57.37   0
       344    844.1484    195.7156 300.4160768 +22.6982843     592.7446     72.37788      1.196     2.97     4.392066        20.42     121.0577        10     1.048     0.645  70.96   0
       345    178.4382    192.5633 300.2098660 +22.4979396     5555.943     72.45159      1.362     2.46     4.536681        20.42     664.2242        35     1.217     1.053  52.50   0
       346    160.2878    193.8237 300.2038154 +22.4928602     270.4782     72.32256      1.292     3.12     4.541632        20.42     39.00582         6     0.733     0.624  23.22   0
       347    161.8435    183.3925 300.2076827 +22.4903313       564.78     72.39632      1.325     2.81     4.515847        20.42     70.98132        10     0.877     0.724 -79.51   0
       348    977.3176    179.7747 300.4627757 +22.7335624     18229.71     72.35944      1.318     2.21     4.410929        20.42     2780.241        52     1.230     1.107  87.68   0
       349    822.5671    173.8861 300.4164311 +22.6855455     3483.658       72.341      1.249     2.25     4.381258        20.42      484.131        25     1.063     0.930  78.36   0
       350    926.2031    172.5694 300.4491709 +22.7161907     2848.843       72.341      1.258     2.10     4.418766        20.42     483.0977        23     1.128     0.873  71.04   0
       351    371.9868    169.1175 300.2776608 +22.5492159     674.3173     72.35944      1.346     2.40     4.509971        20.42     108.3853        11     0.961     0.688  88.25   0
       352    124.5845    169.4472 300.2006262 +22.4751569       324.54     72.41475      1.433     3.26     4.534388        20.42     52.83852         6     0.924     0.685 -18.10   0
       353    486.5070    166.8282 300.3140406 +22.5828708     392.6308     72.32256      1.224     4.56      4.48901        20.42     47.12431         7     1.186     0.504 -64.80   0
       354    299.9522    159.6885 300.2583121 +22.5249203     448.0525     72.37788      1.456     4.97     4.452082        20.42      44.5705         9     1.029     0.730 -77.64   1
       355    296.0659    160.9889 300.2566816 +22.5241291     553.7277     72.32256      1.297     2.64      4.44616        20.42     80.56217         9     0.837     0.697  17.40   1
       356    830.7694    159.1507 300.4237681 +22.6837634     240.1264     72.41475      1.068     3.33     4.383563        20.42     43.72633         5     0.946     0.339  41.62   0
       357     62.1605    158.3124 300.1848407 +22.4532441      577.134     72.35944      1.249     2.61     4.560717        20.42     81.47708        10     0.863     0.717 -80.77   0
       358    423.3534    156.5008 300.2977357 +22.5609823      1740.04     72.39632      1.191     2.15     4.518826        20.42     230.9106        16     0.986     0.792  64.76   0
       359    351.6078    157.1340 300.2752081 +22.5396664     508.8991     72.39632      1.457     4.57     4.510986        20.42     58.90945         9     1.101     0.654  22.46   0
       360    485.1158    155.7626 300.3171970 +22.5792741      314.071     72.35944      1.194     2.97     4.498702        20.42     71.94238         8     0.973     0.641   7.08   0
       361    167.0270    151.8981 300.2195096 +22.4828412      374.634     72.32256      1.222     3.68     4.478979        20.42     54.55625         9     0.941     0.676 -15.13   0
       362    639.4313    150.0634 300.3670945 +22.6238584     235.7037     72.39632      1.186     4.86     4.382846        20.42     32.47319         5     1.358     0.494  88.18   0
       363    711.5645    145.4592 300.3910590 +22.6441358     232.8223     72.39632      1.245     2.99     4.434175        20.42     52.12655         5     0.877     0.544 -48.03   0
       364    987.8571    137.0590 300.4799199 +22.7244280     3685.957     72.45159      1.371     2.41     4.375824        20.42     452.2736        30     1.207     1.039 -67.80   2
       365    197.3906    136.3346 300.2339959 +22.4874730      5933.57       72.341      1.381     2.45     4.498785        20.42     663.5888        36     1.230     1.058  60.88   0
       366    703.7813    136.7164 300.3914698 +22.6392915     405.6213     72.32256      1.110     2.32     4.455993        20.42     63.25741         8     0.835     0.614 -85.57   0
       367    608.7960    137.5132 300.3616238 +22.6110757     287.7248     72.30411      1.260     2.78     4.427843        20.42     53.11943         5     0.897     0.473 -12.31   0
       368     48.0815    135.8470 300.1877528 +22.4425729     789.3447     72.37788      1.538     3.89     4.712293        20.42     87.03172        13     1.118     0.808  30.73   0
       369    826.8446    133.3151 300.4309249 +22.6751583     402.9199     72.35944      1.339     2.72     4.389126        20.42     58.21746         7     0.696     0.684 -41.37   0
       370    169.3419    130.5092 300.2271661 +22.4773925     419.0727     72.43317      1.513     3.21     4.509024        20.42     47.35122         5     0.723     0.456 -21.44   0
       371    212.6357    127.1853 300.2417027 +22.4894147     415.9929     72.37788      1.443     3.23     4.511163        20.42     43.93407         7     0.836     0.633 -16.30   0
       372    443.4490    121.6931 300.3152789 +22.5570009     6348.554     72.41475      1.281     2.23     4.573192        20.42     803.7231        36     1.188     1.029  79.30   0
       373    328.9386    121.3682 300.2797565 +22.5225982     654.1887     72.41475      1.394     3.24     4.520539        20.42     83.82555        13     0.992     0.919  48.17   0
       374    695.9450    111.1105 300.3973332 +22.6295826     875.8798     72.41475      1.470     2.10     4.545266        20.42     121.1097        11     0.884     0.742 -49.62   2
       375    463.7973    115.6275 300.3235789 +22.5613536      265.072     72.32256      1.410     4.77     4.554913        20.42     28.70545         5     1.058     0.609  62.59   0
       376    788.4919    110.1953 300.4264688 +22.6570276     465.7733     72.28564      1.345     3.16     4.433122        20.42     67.97344         9     0.951     0.658 -64.72   0
       377    136.3221    104.9757 300.2251835 +22.4601618     334.6516     72.37788      1.279     4.51      4.69229        20.42     63.93057         8     0.949     0.633 -72.90   0
       378    494.6909    103.7950 300.3370321 +22.5672073     478.6334     72.28564      1.319     4.74     4.532473        20.42     73.93568        10     1.279     0.590  58.49   0
       379    571.8501    101.6925 300.3617360 +22.5897135     6347.303     72.41475      1.300     2.20     4.539541        20.42     982.7632        33     1.175     0.957  67.88   0
       380    346.7778    100.7682 300.2919862 +22.5220249     1573.706     72.37788      1.382     2.26     4.540516        20.42     213.3629        19     1.073     0.901  69.62   0
       381    613.0355     99.0013 300.3754343 +22.6012741     750.3825       72.341      1.213     2.11     4.577758        20.42      132.174        10     0.795     0.739  -7.54   0
       382    628.8541     95.1641 300.3816054 +22.6049080     418.8795     72.39632      1.158     2.09     4.590066        20.42     81.24281         8     0.769     0.618  52.13   0
       383     95.6813     92.9307 300.2164595 +22.4445202     584.6606     72.48841      1.468     3.73     4.978734        20.42     76.89359        12     1.150     0.812  85.47   0
       384    898.8860     92.3843 300.4666606 +22.6849487     567.4469       72.341      1.324     3.66     4.374286        20.42     67.85263         9     0.963     0.699  76.47   0
       385    937.6646     91.7991 300.4789435 +22.6963858     256.2728     72.39632      1.148     2.06     4.363853        20.42        52.85         5     0.707     0.436  71.09   0
       386    667.4343     90.4225 300.3951603 +22.6150972     490.2554     72.39632      1.266     2.89     4.613147        20.42     63.79892         9     0.876     0.729  59.94   0
       387    616.0510     86.5714 300.3804043 +22.5986036     2677.605     72.39632      1.280     2.20     4.589087        20.42     435.6554        24     1.081     0.929  82.26   0
       388    256.6699     87.3029 300.2683274 +22.4911555      447.497     72.50682      1.353     2.66     4.643681        20.42     61.92063         8     0.877     0.592 -75.24   0
       389    630.9576     85.1827 300.3854974 +22.6026681     693.2692     72.39632      1.516     3.93     4.600405        20.42     106.7303        15     1.454     0.724  60.12   0
       390    702.4835     78.0204 300.4101011 +22.6220253     1349.938     72.32256      1.265     2.43     4.650314        20.42     194.8116        17     1.040     0.833  73.58   0
       391    862.6894     76.4380 300.4605455 +22.6695279     250.0779     72.35944      1.093     3.38     4.414135        20.42     42.05505         5     0.751     0.439 -22.28   0
       392    372.0165     73.5503 300.3086637 +22.5217660      159.921     72.41475      1.231     4.66     4.766857        20.42     26.63879         5     1.079     0.570  75.33   0
       393    640.3688     71.3607 300.3929107 +22.6015122     700.9473     72.37788      1.162     2.48     4.626163        20.42     88.56716        11     0.852     0.756  86.45   0
       394    446.1089     70.6492 300.3326593 +22.5431284     1045.457     72.37788      1.383     2.70     4.676404        20.42     124.5082        12     1.022     0.705  70.01   0
       395     19.0250     70.6158 300.1998787 +22.4151320     566.3101     72.39632      1.761     2.83     5.043066        20.42     63.95398         8     0.829     0.647  87.36   0
       396    349.9216     68.8240 300.3033224 +22.5137882     784.9313     72.35944      1.218     2.41     4.761802        20.42     131.3365        10     0.874     0.684 -76.99   0
       397    732.1039     67.4763 300.4227494 +22.6278611     362.7113     72.52522      1.139     2.80     4.681689        20.42     55.31606         8     0.881     0.628  41.27   0
       398    992.9069     65.5277 300.5046937 +22.7053576      2345.69     72.50682      1.342     2.21     4.417093        20.42     341.5683        23     1.127     0.947 -87.08   0
       399    121.3919     58.8981 300.2354839 +22.4424533     3662.066     72.24872      1.482     2.63     4.978539        20.42     412.9245        35     1.429     1.066  41.29   0
       400    689.2226     59.3112 300.4120362 +22.6126750     654.8123     72.30411      1.253     2.45     4.704506        20.42     95.93789        10     0.940     0.636  74.48   0
       401    543.7829     56.0249 300.3678052 +22.5681797     440.0493     72.37788      1.528     3.24     4.856419        20.42     59.98508         9     1.026     0.609  89.95   0
       402    447.2707     56.2112 300.3377022 +22.5393268     279.9845     72.39632      1.158     3.60     4.704307        20.42     66.34332         8     1.040     0.556  66.73   0
       403    682.4944     51.3390 300.4125250 +22.6083680     919.0997        72.47      1.149     2.35     4.727324        20.42     122.1094        14     0.906     0.813  82.92   0
       404    237.1572     51.0676 300.2740088 +22.4748986     1172.635     72.35944      1.432     3.95     4.928967        20.42     140.3194        19     1.191     1.054 -69.81   0
       405    168.5681     50.7471 300.2527892 +22.4542517     366.3773     72.39632      1.723     3.45     4.935043        20.42     30.77592         5     0.779     0.441  69.50   0
       406    648.0300     50.3437 300.4021116 +22.5977630     427.9139     72.39632      1.400     4.23     4.673357        20.42     47.23328         7     0.759     0.674  19.97   0
       407    720.6093     46.3134 300.4260296 +22.6183337     662.8521     72.30411      1.418     4.36     4.741585        20.42      73.9966        13     1.235     0.757  73.13   0
       408    463.8390     47.8183 300.3455799 +22.5418772     239.9893     72.39632      1.386     4.65     4.495214        20.42     32.68844         6     1.123     0.547 -65.81   0
       409    643.8651     46.1661 300.4021688 +22.5953147     541.8051     72.37788      1.377     2.64     4.670506        20.42     75.34446        10     0.893     0.705 -87.78   0
       410    740.4407     42.4836 300.4334508 +22.6231690     2175.107       72.341      1.230     2.15     4.751741        20.42     276.6833        21     1.058     0.908  68.44   0
       411    446.1524     40.6798 300.3423897 +22.5345278     463.0983     72.39632      1.327     2.79     4.755298        20.42     60.70144         9     0.877     0.655  58.52   0
       412    123.8383     37.7091 300.2431136 +22.4371008     1062.443     72.37788      1.546     3.54      5.06679        20.42     128.5719        15     1.182     0.847  45.32   0
       413    915.4431     35.7724 300.4901805 +22.6736165     967.3884     72.39632      1.577     2.40     4.456778        20.42     109.2119        12     0.979     0.763  52.85   0
       414    688.7812     34.9540 300.4197960 +22.6055384     960.7891     72.41475      1.376     2.86      4.77296        20.42     126.8556        14     1.079     0.806  61.64   0
       415    110.7893     33.0452 300.2405703 +22.4318502     370.8551     72.39632      1.828     3.80     5.089674        20.42     27.57898         5     0.809     0.512  35.82   0
       416    446.4987     27.5191 300.3467642 +22.5308488     370.3072     72.50682      1.148     2.68     4.789486        20.42     67.44686         6     0.824     0.497 -84.96   0
       417    273.5676     24.3567 300.2939903 +22.4781345      344.145     72.41475      1.253     4.37     5.299853        20.42     50.68528         9     1.073     0.621  62.11   0
       418    541.3286     19.7769 300.3787929 +22.5570239     883.3831     72.41475      1.348     3.24     5.084101        20.42     107.1416        12     1.029     0.754  41.08   0
       419    676.8254     17.9783 300.4215748 +22.5970771     353.7113       72.341      1.457     2.65     4.821447        20.42     51.79328         6     0.862     0.457 -49.27   0
       420    150.8840     17.3160 300.2581303 +22.4393489     469.4489     72.50682      1.455     3.49     5.206429        20.42     54.16525         9     0.886     0.707  68.79   0
       421     58.9546   1022.3604 299.9030903 +22.7001112     552.1251     63.33229      1.902     5.31     65.24294        20.42     30.37583         8     1.792     0.444 -48.26  24
       422     93.2103   1007.3984 299.9186019 +22.7061130     1313.097     72.19329     15.060    17.49     39.90041        20.42     53.24262        31     3.081     2.760  15.18  18
       423     75.2780   1006.7029 299.9132574 +22.7005276     900.5574     72.50682      7.889    11.60     48.45118        20.42     43.33972        15     2.287     1.638  67.01  18
       424     97.4752   1015.0010 299.9174523 +22.7095726     1513.627     72.26719     14.559    15.88     41.05072        20.42     44.76487        28     3.549     1.974 -27.83  19
       425    602.2815   1008.7935 300.0764807 +22.8593348     6863.356     72.30411      1.701     3.32     2.160552        20.42      511.893        44     1.387     1.303  34.43   0
