#   1 NUMBER                 Running object number                                     
#   2 X_IMAGE                Object position along x                                    [pixel]
#   3 Y_IMAGE                Object position along y                                    [pixel]
#   4 ALPHA_J2000            Right ascension of barycenter (J2000)                      [deg]
#   5 DELTA_J2000            Declination of barycenter (J2000)                          [deg]
#   6 FLUX_APER              Flux vector within fixed circular aperture(s)              [count]
#   7 FLUXERR_APER           RMS error vector for aperture flux(es)                     [count]
#   8 FLUX_RADIUS            Fraction-of-light radii                                    [pixel]
#   9 FWHM_IMAGE             FWHM assuming a gaussian core                              [pixel]
#  10 BACKGROUND             Background at centroid position                            [count]
#  11 THRESHOLD              Detection threshold above background                       [count]
#  12 FLUX_MAX               Peak flux above background                                 [count]
#  13 ISOAREA_IMAGE          Isophotal area above Analysis threshold                    [pixel**2]
#  14 A_IMAGE                Profile RMS along major axis                               [pixel]
#  15 B_IMAGE                Profile RMS along minor axis                               [pixel]
#  16 THETA_IMAGE            Position angle (CCW/x)                                     [deg]
#  17 FLAGS                  Extraction flags                                          
         1    518.7524     16.9375 300.3326080 +22.5431808     1116.859     72.18834      1.480     3.20     5.644167     20.36134     119.1149        17     1.074     0.983 -58.93   0
         2    422.4155     15.1140 300.3032030 +22.5138203     870.1099     72.11479      1.375     2.73     5.299181     20.36134     106.0267        15     1.007     0.879   9.32   0
         3    762.1252      5.9812 300.4119905 +22.6128525     700.0497     72.16996      1.389     2.50      6.50817     20.36134     84.94165        10     0.858     0.721 -16.70  16
         4    193.9557      4.8746 300.2354363 +22.4424722     3994.885     71.20765      1.696     3.32     6.005468     20.36134     380.5176        37     1.461     1.229  45.07  24
         5    616.4128      2.2321 300.3677926 +22.5681787      335.974     61.05686      1.331     3.46     6.211831     20.36134     33.23816         5     0.757     0.457  72.43  24
         6    153.4537   1008.9481 299.8969047 +22.7184719     1757.232     72.20671      3.692    14.04     89.69939     20.36134     51.32832        43     2.733     2.006 -38.35  18
         7    270.8959   1016.8956 299.9308379 +22.7559956     3082.874     72.33521      8.065    39.34     31.43181     20.36134     67.83144       305     7.864     5.461  66.20  27
         8    222.9471    987.6233 299.9254480 +22.7332149     4503.458     72.18834      8.362    26.37     64.84918     20.36134      89.7624       319     6.150     4.402 -78.29  19
         9    243.2298    986.0898 299.9322542 +22.7388617     6208.938     72.13319     12.735    53.82     47.25029     20.36134     125.1325       874    11.453     8.152 -63.01  19
        10    260.9655    975.4634 299.9412266 +22.7411368     9205.554     72.16996     14.912    41.66     27.31925     20.36134     184.4642      1117    13.851     5.784  67.31  19
        11    187.3478    972.0519 299.9194433 +22.7180678     1225.222     72.20671      6.793    13.11     57.18142     20.36134     46.36966        34     3.672     1.303  58.24   3
        12    189.5673    978.8154 299.9179336 +22.7206728     1874.672     72.15157      3.931    12.65     62.44687     20.36134     51.67268        36     2.662     1.673  87.15   3
        13    194.6156    999.1006 299.9129051 +22.7280029     2743.763     72.07799      5.186    20.15     78.49959     20.36134       70.155       115     4.836     2.333  22.60  19
        14     15.2410    993.7920 299.8588816 +22.6726402     1845.763     72.18834     12.052    15.67     -10.3308     20.36134     43.01183        59     3.504     1.949  52.62  19
        15    510.0000   1004.0208 300.0094342 +22.8240347     456.8706     72.07799      2.676     3.45     3.359305     20.36134     40.17805         4     1.254     0.274  72.09   2
        16    311.7591   1008.2659 299.9463561 +22.7657828      704.938     72.13319      4.124     5.24     6.826988     20.36134     34.19498        10     1.088     0.713  54.56   1
        17    949.2647    972.2756 300.1566629 +22.9466066     692.6288     72.24345      2.111     5.96     3.894685     20.36134     43.74211        13     1.463     1.216 -38.42   0
        18    196.2820    991.1959 299.9159945 +22.7262370     1892.236     72.09639      7.484    13.60     71.57829     20.36134     54.43857        49     2.618     1.965 -83.46   3
        19    198.6083   1006.4709 299.9117490 +22.7313140     1158.205     72.15157      2.722     8.83     83.97754     20.36134     56.10308        18     2.561     0.850  49.92   3
        20    168.2747    957.1628 299.9183558 +22.7080757       1592.8     72.11479      4.404     9.83     49.10439     20.36134      50.7003        18     2.017     1.337  40.03   2
        21    674.3037    955.1954 300.0764926 +22.8592935     7074.402     72.07799      1.956     4.59     3.913057     20.36134     369.7928        51     1.613     1.451  42.82   0
        22    554.1259    949.5598 300.0408895 +22.8216435     382.7131     72.15157      1.751     4.78     3.936278     20.36134      41.0553         7     0.913     0.708  55.73   0
        23    266.2967    949.4551 299.9513436 +22.7352790     421.8555     72.26181      1.390     3.54     15.06806     20.36134     49.29533         5     0.783     0.461  17.30   0
        24    582.9415    945.9096 300.0510511 +22.8292366     1545.809     72.24345      1.777     4.38     3.947381     20.36134     113.2597        25     1.392     1.213   6.31   0
        25    377.5480   1000.1163 299.9694762 +22.7831841     361.3307     72.20671      1.626     6.03     4.369972     20.36134      42.7737         9     1.146     0.948  64.80   0
        26    476.5572    942.2662 300.0191090 +22.7962893     1215.923     72.15157      1.933     5.55     4.089928     20.36134     75.28857        27     1.437     1.355  41.19   0
        27    110.6759   1010.9838 299.8829454 +22.7062155     3736.475     72.16996     14.963    81.27     87.05395     20.36134      138.107      1681    18.917     9.687  45.07  27
        28    407.2068    940.2874 299.9981658 +22.7749217     6598.668     72.07799      1.884     4.04     4.584067     20.36134     477.2411        44     1.505     1.372  26.08   0
        29     99.3856    950.1532 299.8992215 +22.6853915     5471.865     72.18834     23.596    99.93     30.15301     20.36134     1304.771      3272    18.190    15.233  -0.34  19
        30    569.5690    992.9478 300.0315862 +22.8387230     2282.553     72.18834      1.939     4.48     3.466647     20.36134     132.1349        32     1.416     1.362 -19.14   0
        31    143.3317    928.7264 299.9198492 +22.6924383      822.056     72.24345      3.389     4.58     23.94691     20.36134     38.72525         7     0.917     0.651  23.61   1
        32    440.2466    927.7725 300.0125193 +22.7812415     492.7029     72.20671      1.733     4.35     4.516834     20.36134     43.55984         7     1.103     0.489 -59.99   0
        33    755.9957    989.1229 300.0909153 +22.8935205     688.5093     72.07799      1.898     7.47     3.628579     20.36134      42.0961        17     1.423     1.099  -2.46   0
        34    142.7516    918.8278 299.9228877 +22.6894264     1101.468     72.18834      8.993     9.84     21.44204     20.36134     37.72858        20     1.872     1.441  18.75   3
        35     99.0364    918.4861 299.9094108 +22.6762094     4541.202     72.15157     18.708    50.19     10.17597     20.36134     93.20895       880    11.274     6.967 -36.13   3
        36    953.6376    919.5255 300.1751846 +22.9327684      2137.07     72.11479      2.081     5.03     4.526192     20.36134     106.5449        33     1.502     1.412  39.32   0
        37    604.3770    916.1489 300.0674065 +22.8271235     465.3194     72.16996      1.849     3.42     4.154596     20.36134       32.262         5     0.744     0.454  73.19   0
        38    656.0383    988.1663 300.0600769 +22.8632791     9004.765     72.20671      2.060     5.33     3.615978     20.36134      506.612        45     1.622     1.430  14.02   3
        39    743.0411    908.8278 300.1129937 +22.8665892     712.4929     72.18834      1.925     5.42     4.256049     20.36134     57.98088        15     1.241     1.025   5.50   0
        40    661.5677    985.8110 300.0625658 +22.8642611     9622.511     72.16996      2.026     4.76     3.638895     20.36134     518.4964        51     1.626     1.475  14.37   3
        41    777.3087    902.2062 300.1258285 +22.8749586     1051.256     72.07799      1.796     5.14     4.423769     20.36134     71.04204        22     1.356     1.191 -42.95   0
        42    554.5015    903.5085 300.0559828 +22.8085423     322.5481     72.35355      1.356     4.67     4.318661     20.36134     37.34611         7     1.300     0.477   7.13   0
        43    233.5712    902.3855 299.9564721 +22.7119633     902.4801     72.18834      3.969     3.72     8.658452     20.36134     24.18747         5     1.448     0.275  44.89   0
        44    932.7048    900.8081 300.1747416 +22.9211215     463.3437     72.05958      2.766     4.21     4.525769     20.36134      32.1469         5     0.971     0.521 -39.38   0
        45    136.0962    900.9490 299.9266323 +22.6823036     852.1879     72.24345      4.064     4.19     15.66085     20.36134     38.43324         5     1.161     0.474  22.90   1
        46    799.4843    895.9719 300.1347690 +22.8798145      11522.3     72.16996      1.846     4.10     4.532372     20.36134     717.6756        55     1.491     1.429  -2.71   0
        47      4.0671    973.3976 299.8620434 +22.6634415      1876.47     68.93568     10.867    16.16    -12.88587     20.36134     68.20037        68     4.051     1.791 -89.29  27
        48    990.2593    896.1567 300.1942102 +22.9370279      527.181     72.15157      2.448     6.35       4.5841     20.36134      35.0012        10     1.541     0.734 -11.42   0
        49      6.5841   1010.8837 299.8506327 +22.6749387     2960.001     72.13319     13.485    47.04    -24.11442     20.36134     70.20296       562    11.746     5.227  84.94  26
        50    111.0379    887.2413 299.9233001 +22.6708541     1109.422     72.26181      6.656     6.25     9.416983     20.36134     61.57235        23     1.683     1.341  26.53   0
        51    851.4366    883.0504 300.1551694 +22.8916724     392.3069     72.18834      1.806     6.40      4.59532     20.36134     30.25017        10     1.330     0.864 -38.20   0
        52    504.8336    883.8611 300.0469051 +22.7880121     460.3196     72.18834      1.502     3.57     4.406818     20.36134     51.05843        10     0.949     0.745  60.46   0
        53    100.7034    879.6670 299.9225505 +22.6655814      650.428     72.28017      2.707     5.33     7.596649     20.36134     35.43289         9     1.219     0.657   6.22   0
        54    807.9190    878.0402 300.1432295 +22.8771937     1468.854     72.13318      1.844     4.58     4.616758     20.36134     100.4524        23     1.427     1.055  52.12   0
        55    990.0000    878.0876 300.2000051 +22.9317601     389.1564     72.07799      1.806     4.05     4.585624     20.36134     43.45086         5     1.112     0.422 -70.93   2
        56    660.0772    875.4533 300.0979922 +22.8321416     419.7859     72.20671      1.505     4.79     4.548461     20.36134     39.24042         8     1.069     0.608 -46.18   0
        57    845.9532    871.7652 300.1571290 +22.8867888     775.6812     72.18834      1.753     7.28     4.642483     20.36134     62.72053        17     1.527     0.972 -13.22   0
        58    186.3967    870.9995 299.9520075 +22.6888097      320.835     71.94903      1.979     3.89     9.334976     20.36134     23.90411         5     0.887     0.488  87.58   0
        59    955.5403    868.8451 300.1922590 +22.9187826     357.5039     72.18834      1.771     7.36     4.582548     20.36134     29.87978         9     1.449     1.047  84.11   0
        60    894.5638    862.7559 300.1752181 +22.8987662     588.3568     72.22508      1.712     7.18     4.634671     20.36134     51.70358        16     1.309     1.104  14.58   0
        61    745.8005    861.7164 300.1291727 +22.8538914     756.3983     72.04117      1.685     4.60     4.517307     20.36134     52.29266        15     1.141     1.009  69.37   0
        62    348.3015    862.1011 300.0052587 +22.7348264     285.9599     72.40854      1.775     4.79     4.830753     20.36134     29.49039         6     1.161     0.560 -22.37   0
        63    757.2157    858.9927 300.1336164 +22.8565304     710.5014     72.09639      2.089     5.93     4.551009     20.36134     38.70078        13     1.119     0.917   2.73   0
        64    458.4571    857.9106 300.0409040 +22.7666598     4151.975     72.20671      1.679     3.57     4.551177     20.36134     362.7433        34     1.339     1.256  47.00   0
        65    183.6173    843.9906 299.9599237 +22.6802309     870.5593     72.11479      2.124     6.26     7.152917     20.36134       47.918        17     1.259     1.050 -33.60   0
        66    160.8146    840.5764 299.9539440 +22.6724105     1584.179     72.16996      1.914     4.91     7.344584     20.36134     130.2017        28     1.470     1.335  75.05   0
        67     92.4638    841.7798 299.9323064 +22.6522468      410.274     72.15157      1.789     5.21     5.789376     20.36134     36.26288         7     1.049     0.731  86.41   0
        68     36.5809    830.7626 299.9185213 +22.6323187     355.8001     72.16996      1.373     3.38     5.138903     20.36134     38.85194         5     0.751     0.440  68.57   0
        69    986.8515    828.4746 300.2151537 +22.9165654     2095.329     72.18834      1.986     4.88     4.591373     20.36134     125.0605        31     1.489     1.361  52.19   0
        70    770.3206    822.0978 300.1496962 +22.8498640     596.1788     72.29852      1.659     5.42     4.623037     20.36134      64.9413        15     1.161     1.033  -9.79   0
        71    192.9547    822.1243 299.9699348 +22.6767616     418.5191     72.15157      1.659     6.18     6.107702     20.36134     50.62189        10     1.123     0.957  -2.88   0
        72    638.4644    816.1254 300.1105463 +22.8086333     4947.213     72.20671      1.698     3.50     4.617832     20.36134     398.9141        40     1.395     1.286  30.85   0
        73    128.4243    816.6389 299.9516557 +22.6558284     530.3547     72.18834      1.529     4.12     5.758864     20.36134     47.63157         6     0.898     0.539  42.94   0
        74    440.9405    813.3349 300.0499420 +22.7486171     578.1473     72.20671      1.609     5.11     4.633862     20.36134     50.68602         9     1.025     0.720  27.72   0
        75    188.6788    809.9221 299.9725715 +22.6719795     1352.615     72.29852      1.742     3.85     5.629519     20.36134     123.7598        25     1.338     1.218  11.00   0
        76    659.0295    808.7028 300.1193664 +22.8126662     701.7482     72.11479      1.608     4.09     4.687426     20.36134      74.0592        16     1.108     1.052 -35.94   0
        77    208.1301    806.8357 299.9796229 +22.6769295     473.2993     72.16996      1.798     4.51     5.432629     20.36134     34.38443         8     0.824     0.701  56.53   0
        78    192.1106    802.8589 299.9759342 +22.6709834     1857.675     72.26181      0.522     2.29     5.324111     20.36134     1217.586         6     0.422     0.376 -40.58   0
        79    575.9804    799.2374 300.0965717 +22.7850565     260.1093     72.18834      1.405     3.79     4.652825     20.36134     32.95778         5     0.814     0.507  54.21   0
        80    814.5157    796.0441 300.1719435 +22.8556246     4173.922     72.13319      1.686     3.46     4.793538     20.36134     337.0234        33     1.351     1.228  28.20   0
        81    188.6301    793.4150 299.9779213 +22.6672308     2242.605     72.16996      0.816     0.99     5.227097     20.36134     833.9248         9     0.617     0.486 -37.10   0
        82    546.8073    793.2108 300.0894448 +22.7745816     318.2487     72.04116      1.593     3.45     4.755055     20.36134     27.00774         5     0.993     0.347  44.33   0
        83    222.6802    790.2256 299.9895460 +22.6765302     495.7697     72.15157      1.700     4.40      5.15118     20.36134     44.03377         9     1.129     0.766  -0.81   0
        84    531.3438    788.5894 300.0861313 +22.7686196     583.9804     72.15157      1.599     4.46      4.73807     20.36134     62.20673        11     1.032     0.800  44.84   0
        85    177.7844    786.1197 299.9769201 +22.6618850     990.7645     72.16996      1.714     4.10     5.233613     20.36134     78.32532        22     1.343     1.050   9.06   0
        86    593.1631    781.5682 300.1076666 +22.7851350     451.0981     72.16996      1.449     4.21     4.681942     20.36134     53.19167        10     0.985     0.788  64.64   0
        87    327.5381    778.4120 300.0260017 +22.7045912     53629.29     72.13319      1.709     3.49     4.833264     20.36134      4710.32        90     1.490     1.418  31.06   0
        88    585.3569    777.4552 300.1065719 +22.7816146     1540.745     72.16996      1.576     3.44     4.721712     20.36134     141.7266        21     1.182     1.054 -85.57   0
        89    998.3890    776.9093 300.2355159 +22.9052065     901.0159     72.11479      1.857     5.58     4.662354     20.36134     68.64561        19     1.283     1.228 -42.66   0
        90    255.9064    776.4968 300.0043413 +22.6825584     551.6656     72.35355      1.912     4.65     5.002641     20.36134     46.10136         8     0.933     0.776 -23.38   0
        91    614.5339    773.6452 300.1168988 +22.7892660     910.6533     72.16996      1.742     3.53     4.696769     20.36134     86.37988        17     1.099     1.020 -71.28   0
        92     14.2360    772.5323 299.9305036 +22.6089194     829.8312     72.16996      2.068     4.45      5.04518     20.36134     63.33924        15     1.478     0.778  68.88   0
        93    625.5051    772.1646 300.1207978 +22.7921291     567.1497     72.16996      1.645     3.75     4.721184     20.36134      58.9037        12     1.093     0.889 -23.70   0
        94    730.8723    768.3236 300.1548790 +22.8226024        547.8     72.24345      1.464     4.65     4.680724     20.36134     39.78503        13     1.090     0.872   5.66   0
        95    197.8839    766.9863 299.9893877 +22.6624267     219.1278     72.13318      1.378     5.31      5.14267     20.36134     28.12445         6     1.156     0.688 -25.93   0
        96    768.4631    758.4809 300.1697951 +22.8310391      851.001     72.28017      1.714     3.74     4.828016     20.36134     82.25879        17     1.152     0.992  84.49   0
        97    377.2874    755.6688 300.0488728 +22.7129841     31587.44     72.29852      1.640     3.22     4.755665     20.36134     3295.383        73     1.431     1.349  42.82   0
        98    391.6349    756.2315 300.0531549 +22.7174476     2175.344     72.18834      1.731     3.56     4.747551     20.36134     180.9285        28     1.346     1.152 -21.01   0
        99    900.5096    751.8234 300.2131332 +22.8686841     2668.573     72.09639      1.657     3.63     4.955132     20.36134     212.7657        29     1.249     1.193  63.15   0
       100    388.5074    749.9817 300.0542126 +22.7147165     816.2674     72.09639      2.116     4.60     4.749786     20.36134     69.07861        17     1.269     1.101  24.59   1
       101    658.3439    747.6732 300.1389883 +22.7949391     981.5892     72.20671      1.595     3.60     4.821508     20.36134      93.3907        13     0.997     0.881 -36.15   0
       102    494.7312    747.6556 300.0880341 +22.7458954     466.9857     72.18834      1.766     5.14     4.858176     20.36134     52.31741         7     1.014     0.737 -33.34   0
       103    260.0291    747.4614 300.0150591 +22.6754658     903.3235     72.18834      1.689     3.73     4.894289     20.36134     70.47444        15     1.088     0.937  33.89   0
       104     64.7569    742.9201 299.9558245 +22.6155876     623.2592     72.15157      2.151     6.39     5.065016     20.36134     53.33592        10     1.418     0.868  60.43   0
       105    505.3313    742.6002 300.0929774 +22.7476220     850.4334     72.11479      1.562     3.75     4.886016     20.36134     89.74142        15     1.174     0.916 -22.66   0
       106    906.4086    739.6676 300.2189237 +22.8669590     351.5107     72.16996      1.492     5.62     5.013498     20.36134     37.61562        10     1.058     0.843  21.80   0
       107    407.6217    738.8876 300.0637664 +22.7172640      325.095     72.09639      1.531     5.18     4.749825     20.36134     36.66141         7     1.287     0.590  41.29   0
       108    451.3431    737.4003 300.0778588 +22.7299450     494.4263     72.07799      1.751     5.55     4.837318     20.36134     44.87767        10     1.204     0.775  17.11   0
       109     93.3639    736.1376 299.9669189 +22.6222252     523.6216     72.18834      2.467     3.68     5.060668     20.36134     42.57251         5     0.997     0.506  53.99   0
       110    884.4145    733.7214 300.2139960 +22.8586630       452.65     72.18834      1.860     6.06      5.05248     20.36134     32.49505         8     1.103     0.936 -21.28   0
       111    257.4680    731.8287 300.0193422 +22.6702131     484.0524     72.15157      1.516     3.53     4.870858     20.36134     57.97729        10     0.952     0.743   4.78   0
       112    580.7411    722.2197 300.1230842 +22.7643745     360.5721     72.11479      1.466     3.27     4.929065     20.36134     42.25999         6     0.871     0.650 -18.61   0
       113    550.3770    720.4000 300.1142185 +22.7547516     574.7498     72.07799      1.463     3.16     4.943736     20.36134     71.16637        11     0.994     0.780 -64.16   0
       114    966.9568    717.1339 300.2451348 +22.8786185     4584.385     72.15157      1.741     3.64     4.963237     20.36134     336.5462        42     1.432     1.359  38.06   0
       115    572.2779    718.0693 300.1217968 +22.7606465     1344.018     72.28017      1.599     3.34     4.940516     20.36134     120.8803        20     1.171     1.037   6.48   0
       116    363.8818    738.2878 300.0503492 +22.7039772     345.8655     72.28017      1.486     3.38     4.751721     20.36134     40.02962         7     0.832     0.612  29.98   0
       117    653.5585    712.4803 300.1489332 +22.7834001     435.2776     72.15157      1.790     4.85     4.913198     20.36134     34.17184         6     1.198     0.556  47.33   0
       118    955.3087    708.5221 300.2442991 +22.8726558     1700.262     72.31687      1.719     3.73      5.03133     20.36134     147.2844        25     1.252     1.190 -69.70   0
       119    318.3180    701.9080 300.0479925 +22.6798761     828.9633     72.31687      1.564     4.19     4.814279     20.36134     84.59203        15     1.177     0.907  16.40   0
       120    781.7491    699.7002 300.1930379 +22.8181373     2584.277     72.26181      1.664     3.35     4.962407     20.36134     260.6397        27     1.451     1.054   6.02   0
       121    986.2780    698.7380 300.2571408 +22.8791183     1621.786     72.24345      1.738     4.50     4.957224     20.36134     131.3881        25     1.287     1.243 -68.47   0
       122      4.1925    689.7385 299.9542836 +22.5821668     866.2606     69.33865      1.826     4.39     5.060668     20.36134     94.83773        18     1.397     1.088 -77.34  16
       123    863.8360    685.8633 300.2231288 +22.8387507     598.2715     72.16996      1.813     4.18      5.16528     20.36134     47.71994         9     0.983     0.820  28.37   0
       124    167.0899    685.7947 300.0061932 +22.6299014     593.8598     72.07799      1.540     3.65     5.132407     20.36134     56.57764        10     1.046     0.811  62.36   0
       125    900.1296    676.6698 300.2374352 +22.8469791     148719.4     72.24345      1.647     3.37      5.21741     20.36134     12561.91       159     1.511     1.491   5.06   0
       126    662.0840    680.5129 300.1619759 +22.7767751     331.4073     72.28017      1.322     4.46     4.985793     20.36134     47.46242        10     1.122     0.670  67.36   0
       127    752.3732    676.9271 300.1912795 +22.8027960     793.4613     72.16996      1.552     3.12     4.878863     20.36134     89.08998        15     1.046     0.934 -85.01   0
       128    932.9922    669.7956 300.2499195 +22.8548453     395.4922     72.02274      1.413     3.60     5.248075     20.36134     49.32122         6     0.879     0.479 -30.15   0
       129    586.3339    665.3102 300.1433159 +22.7497113     1635.241     72.28017      1.504     3.07      5.11845     20.36134     171.9789        22     1.191     1.089  84.97   0
       130    767.5563    662.7621 300.2006142 +22.8032756     9471.179     72.26181      1.518     2.99      4.96075     20.36134     1002.055        39     1.240     1.192  23.28   0
       131    249.0352    664.2504 300.0386742 +22.6482960     283.7699     72.18834      1.826     4.33     4.917737     20.36134      30.4106         5     1.033     0.517  38.22   0
       132    269.0396    657.7025 300.0470233 +22.6524157     4980.104     72.15157      1.601     3.09     4.970994     20.36134     534.2051        36     1.303     1.208  22.72   0
       133    351.1172    655.6711 300.0732182 +22.6764418     1206.113     72.29852      1.536     3.26     4.949783     20.36134     125.8721        19     1.155     1.030 -12.89   0
       134    226.5912    653.4093 300.0352154 +22.6384552      557.364     72.05958      1.995     2.80     4.963297     20.36134      65.3959         8     1.035     0.643 -32.64   0
       135    559.4810    651.2922 300.1395058 +22.7376394     806.5688     72.31687      1.481     3.35     5.266306     20.36134     83.00999        13     1.036     0.839  16.06   0
       136    550.9915    643.4225 300.1394181 +22.7328357     3285.082     72.16996      1.473     2.85     5.350795     20.36134     337.6177        29     1.225     1.110  77.50   0
       137    541.2789    637.2008 300.1384142 +22.7281387      1372.23     72.05958      1.334     2.69     5.395789     20.36134     146.7556        20     1.097     0.969 -67.92   0
       138    470.2802    636.8563 300.1164187 +22.7067616     321.7777     72.20671      1.326     4.87     5.112254     20.36134     32.92907         8     1.000     0.672  28.65   0
       139    934.8530    635.5294 300.2616317 +22.8455559     554.3633     72.15157      1.915     4.98     5.310527     20.36134     55.88069         7     0.917     0.792 -20.20   0
       140    452.3029    634.1778 300.1116921 +22.7006045     245.6066     72.09639      1.204     3.91      5.10868     20.36134     47.94201         5     0.917     0.478  41.95   0
       141    204.6298    633.6270 300.0348111 +22.6261937     693.8487     72.16996      1.574     3.51     5.134752     20.36134     70.12429        13     0.978     0.941 -74.27   0
       142    218.9729    631.6259 300.0399214 +22.6299206      697.748     72.13319      1.777     3.11     5.089326     20.36134     78.80387        13     1.010     0.874 -31.31   0
       143    244.3317    628.9509 300.0486769 +22.6367571     563.3929     72.16996      1.694     4.90     5.124776     20.36134     46.22046        13     1.198     0.930 -15.12   0
       144    988.8731    629.1450 300.2805598 +22.8598955     441.8402     72.16996      1.564     3.82     5.368608     20.36134     47.69083         6     0.923     0.454  36.69   0
       145    275.8186    628.8648 300.0584987 +22.6461734     288.3918     72.13319      1.429     3.35     5.198844     20.36134     33.30289         6     0.743     0.576  39.09   0
       146    565.6168    627.6336 300.1491016 +22.7326849     435.9535     72.15157      1.456     6.32     5.509212     20.36134     45.40707        12     1.614     0.696 -14.02   0
       147    466.0297    626.9459 300.1183144 +22.7026426     1831.488     72.16996      1.432     3.01     5.137191     20.36134     201.4377        23     1.145     1.015  16.68   0
       148    119.9493    621.7383 300.0123444 +22.5973876     19870.51     72.22508      1.723     3.51     5.344522     20.36134     1984.177        65     1.505     1.392  18.87   0
       149     40.8300    623.6852 299.9871221 +22.5742150     789.1195     72.16996      1.793     5.60     5.451444     20.36134     69.67325        14     1.406     0.998 -30.20   0
       150    550.9764    622.3827 300.1462474 +22.7267900     1050.596     72.16996      1.475     3.08     5.572578     20.36134     93.13538        16     0.994     0.969  73.94   0
       151    586.1590    621.1303 300.1576122 +22.7369729     261.2065     72.13319      1.288     2.65     5.583139     20.36134      41.2852         6     0.726     0.560  57.35   0
       152    921.7985    618.1880 300.2631922 +22.8366635     256.6069     71.98589      1.409     3.19     5.327511     20.36134     34.48363         5     0.821     0.638 -58.04   0
       153    633.6321    610.0048 300.1760145 +22.7480018     194.1472     72.15157      1.234     3.70        5.503     20.36134     32.76484         5     0.775     0.603  -0.74   0
       154    968.9421    608.8145 300.2809445 +22.8480851     1065.418     72.13319      1.608     3.52     5.464947     20.36134     92.71183        14     1.073     0.877  48.50   0
       155     66.1025    605.9561 300.0007334 +22.5767103      1444.06     72.16996      2.015     5.08     5.500914     20.36134     100.7717        28     1.652     1.189  79.48   0
       156    835.6719    606.6593 300.2400750 +22.8075598     457.5704     72.20671      1.570     3.44     5.274922     20.36134     53.60762         7     0.827     0.687  53.73   0
       157    132.7186    606.6904 300.0212008 +22.5969004     506.4926     72.28017      1.861     3.27     5.408521     20.36134     47.14747         6     0.818     0.704 -89.46   0
       158    514.2682    603.0514 300.1410943 +22.7102392     448.0558     72.15157      1.320     2.14     5.517026     20.36134      65.6565         7     0.695     0.626  12.58   0
       159    909.4646    601.5419 300.2647515 +22.8281867     900.3481     72.20671      2.382     3.93     5.326377     20.36134     74.35033        15     1.236     0.881  16.73   0
       160    307.2855    602.3283 300.0769058 +22.6479921     338.2817     72.28017      1.287     2.32     5.344748     20.36134     44.18751         5     0.715     0.440  16.98   0
       161    654.2949    599.6445 300.1858172 +22.7512167     320.6682     72.18834      1.349     4.07     5.424933     20.36134     40.10995         6     0.910     0.681 -83.00   0
       162    471.2205    595.0779 300.1302804 +22.6950493     811.3285     72.16996      1.510     4.36      5.32116     20.36134     79.98592        14     1.242     0.790 -59.08   0
       163    666.0072    592.2412 300.1918709 +22.7525990     659.1946     72.18834      1.843     5.82     5.413832     20.36134     51.59319        14     1.343     1.015  78.81   0
       164    618.6856    593.8167 300.1766155 +22.7388746     474.1237     72.13319      1.283     3.18     5.703903     20.36134     64.83227        10     0.904     0.798 -63.68   0
       165    636.6636    592.0668 300.1827847 +22.7437581     677.2311     72.22508      1.468     2.33     5.598877     20.36134     87.56741         9     0.824     0.679  15.74   0
       166    515.5524    590.9962 300.1454093 +22.7071626     958.7644     72.15157      1.505     3.68     5.654088     20.36134      98.5938        17     1.143     0.960 -50.25   0
       167    949.1312    586.7011 300.2819456 +22.8357982     3323.259     72.26181      1.594     3.21     5.406565     20.36134     329.0607        31     1.265     1.146  71.48   0
       168    480.9969    586.5388 300.1360972 +22.6955274      1730.29     72.15157      1.398     2.74     5.405081     20.36134     191.2397        19     1.045     0.968  -7.06   0
       169    569.0488    585.8361 300.1637454 +22.7217107      7743.53     72.18834      0.489     2.42     5.890628     20.36134      5371.72        11     0.459     0.383 -88.59   0
       170     42.7874    579.8763 300.0019567 +22.5622364     5001.881     72.18834      1.776     3.73     5.605862     20.36134     434.0907        37     1.435     1.302  38.61   0
       171    988.5002    576.9230 300.2974048 +22.8447740     317.0312     72.31687      1.499     5.13     5.523328     20.36134     40.53435         6     1.088     0.684 -27.60   0
       172    510.1309    577.0898 300.1482370 +22.7015449     393.4611     72.33521      1.691     3.36     5.745028     20.36134     39.67358         7     0.878     0.524  41.53   0
       173    344.2643    573.1750 300.0978783 +22.6507099      9086.31     72.15157      1.489     2.89     5.318571     20.36134     946.6609        45     1.281     1.201  49.30   0
       174    466.7370    570.2314 300.1369531 +22.6865719     9013.417     72.18834      1.447     2.71     5.554973     20.36134     993.4254        40     1.228     1.168  83.40   0
       175    712.3672    566.7065 300.2146104 +22.7591513      386.697     72.11479      1.940     4.77     5.409887     20.36134     38.44601         6     1.046     0.642  44.49   0
       176    110.7759    566.6208 300.0273912 +22.5788243     159.4242     72.16996      1.455     4.52     5.408521     20.36134     27.44674         5     1.133     0.512 -56.11   0
       177    878.5273    564.4143 300.2671594 +22.8082537      1880.42     72.16996      1.524     2.88     5.314341     20.36134     208.1943        24     1.146     1.108 -85.86   0
       178    963.1076    561.7971 300.2943939 +22.8328246     12539.32     72.07799      1.595     3.26     5.447432     20.36134     1139.005        51     1.333     1.302  51.27   0
       179    527.3195    559.8414 300.1591904 +22.7017425     11639.84     72.13319      1.429     2.65     6.058067     20.36134      1432.31        43     1.208     1.169  80.39   0
       180    696.7202    555.7528 300.2132909 +22.7513178     459.4949     72.18834      1.366     3.04     5.579903     20.36134     61.16327        12     0.976     0.890  30.39   0
       181    254.7789    555.2199 300.0758695 +22.6187310     1401.995     72.16996      1.571     3.30     5.389107     20.36134      132.041        22     1.288     1.043  23.62   0
       182    412.6172    554.3088 300.1252763 +22.6657813     277.7612     72.09639      1.143     2.89     5.597687     20.36134     38.97038         5     0.719     0.454 -71.96   0
       183    501.6745    552.9047 300.1534572 +22.6920663     397.3138     72.31687      1.443     3.69     5.918415     20.36134     56.21994         9     0.982     0.682 -46.56   0
       184    802.0002    548.2021 300.2485599 +22.7806794     834.2744     71.94903      1.403     3.05     5.316006     20.36134     99.34523        14     1.028     0.904 -82.15   0
       185    459.0095    548.0112 300.1417624 +22.6778763      4266.92     72.05958      1.424     2.86     5.745934     20.36134     483.4063        29     1.150     1.061  45.39   0
       186    437.3157    546.4197 300.1355258 +22.6709182     1206.193     72.09639      1.430     2.97     5.717516     20.36134     145.9477        19     1.160     0.959   7.85   0
       187    878.7717    543.6784 300.2739690 +22.8023676     1515.285     72.18834      1.519     3.10     5.325945     20.36134     147.8387        20     1.145     1.046 -39.37   0
       188    575.6263    535.5848 300.1821113 +22.7092497     205482.1     72.18834      1.446     2.59     6.197076     20.36134     26501.11       191     1.447     1.412   8.67   0
       189    979.4276    542.8288 300.3056454 +22.8322578     334.5849     72.13319      1.710     3.37     5.486246     20.36134     35.02327         5     1.147     0.287  34.91   0
       190    759.1919    540.5795 300.2376892 +22.7656693     792.1429     72.13319      1.383     2.89     5.384547     20.36134     102.1932        15     1.018     0.867   5.90   0
       191    399.3555    541.5637 300.1252868 +22.6581477     280.4423     72.22508      1.311     2.65     5.604053     20.36134     54.29749         5     0.725     0.443  22.81   0
       192    261.6785    535.4948 300.0844198 +22.6151382     3591.875     72.29852      1.549     2.96      5.42361     20.36134     395.5466        33     1.221     1.200 -46.78   0
       193    828.1223    531.9135 300.2619938 +22.7838210     515.9038     72.31687      1.429     3.33     5.335917     20.36134     62.46198         9     1.010     0.681 -40.62   0
       194    191.8754    545.5933 300.0594322 +22.5971092     739.0533     72.09639      1.481     3.05     5.406795     20.36134     92.20288        13     1.075     0.813   5.04   0
       195    607.2922    522.5817 300.1961970 +22.7150013     200.2758     72.09639      1.048     3.05      6.10938     20.36134     38.42865         5     0.730     0.441 -22.37   0
       196    310.2383    518.2924 300.1051107 +22.6247568     407.9948     72.16996      1.331     4.68     5.401256     20.36134     58.63522         9     1.092     0.709  41.68   0
       197    466.2838    515.7799 300.1544916 +22.6708011     2781.956     72.11479      1.504     2.67      5.79467     20.36134     306.4605        28     1.186     1.089  77.80   0
       198    877.9984    512.3952 300.2838850 +22.7931451     360.6762     71.98589      1.556     4.73     5.366294     20.36134     41.07654         7     1.157     0.549 -89.94   0
       199    622.7971    513.3323 300.2040302 +22.7169891     386.0721     72.15157      1.668     2.98     6.105824     20.36134     41.95895         6     0.765     0.563 -50.34   0
       200    783.7293    504.4415 300.2570717 +22.7626335     392.5177     72.13319      1.344     3.73     5.448443     20.36134     54.64778         7     0.930     0.670  -5.04   0
       201    863.2336    502.2061 300.2825882 +22.7857962     1811.936     72.16996      1.480     2.82     5.377042     20.36134     193.9971        22     1.145     1.033  62.53   0
       202    749.6191    502.3329 300.2471227 +22.7518131     436.6556     72.13319      1.880     3.73     5.607491     20.36134     46.75212         8     0.936     0.659 -77.97   0
       203    734.4298    499.8410 300.2431971 +22.7465483     2621.822     72.18834      1.368     2.50     5.690654     20.36134     326.9272        25     1.074     1.034 -55.06   0
       204     94.6484    500.2307 300.0439317 +22.5549399     327.8243     72.20671      1.616     5.57     5.462361     20.36134     32.44895         8     1.255     0.696 -62.01   0
       205    977.7167    493.1006 300.3212571 +22.8174501     954.5419     72.33521      2.189     4.24     5.291085     20.36134     65.24592        15     1.253     0.863  70.57   2
       206    639.1531    496.4639 300.2146022 +22.7170427      360.056     72.20671      1.364     3.53     6.112161     20.36134     52.56178         6     0.728     0.648 -48.86   0
       207    521.6517    495.6275 300.1782736 +22.6816032     712.5446     72.18834      1.365     2.95      6.17158     20.36134     91.20131        15     0.984     0.939 -16.49   0
       208    991.8258    493.8636 300.3254120 +22.8218925     1202.646     72.15157      1.529     3.22     5.266594     20.36134      126.299        19     1.135     1.028  12.40   0
       209    863.5483    492.2841 300.2859074 +22.7830387     2161.041     72.20671      1.640     4.02     5.390751     20.36134     236.9334        27     1.478     1.063  68.14   0
       210    616.5169    490.2215 300.2095763 +22.7084691     733.8358     72.13319      2.160     4.62     6.261024     20.36134     71.42278        14     1.375     0.838 -87.87   2
       211    402.9066    489.7917 300.1431994 +22.6443475     316.8995     72.07799      1.466     4.46     5.658931     20.36134     45.28009         6     0.896     0.631  49.39   0
       212    901.7208    487.3975 300.2993997 +22.7930620     4420.311     72.07799      1.494     2.72     5.399236     20.36134      522.818        29     1.182     1.114  58.54   0
       213    455.3826    488.9042 300.1598223 +22.6598171     454.7044     72.07799      1.365     3.21     5.785375     20.36134     61.61106        10     1.007     0.645  30.63   0
       214    562.2861    483.2965 300.1949314 +22.6902349     381.5599     72.35355      1.376     3.00     6.364552     20.36134     56.84422         6     0.848     0.538 -46.27   0
       215    993.6154    478.0649 300.3310992 +22.8178860     726.6887     72.15157      1.427     3.04     5.192351     20.36134     78.07668        12     0.979     0.796 -23.93   0
       216    133.5313    477.4853 300.0634014 +22.5600716     969.2047     72.26181      1.666     3.63     5.545257     20.36134     104.7423        19     1.287     0.955  37.59   0
       217    763.6160    474.9846 300.2603639 +22.7481459     201.7617     72.13319      1.262     3.41     5.619098     20.36134     30.88166         5     1.394     0.242  72.09   0
       218    794.6041    471.2729 300.2712295 +22.7563579     284.7514     72.11479      1.358     3.25     5.436831     20.36134     37.30294         5     0.754     0.424 -67.02   0
       219    181.8661    469.4246 300.0810456 +22.5722492      199.224     72.15157      0.989     3.68     5.621993     20.36134     47.13309         6     1.103     0.426 -33.83   0
       220    126.3829    467.3905 300.0644556 +22.5550315     305.4183     72.11479      1.236     4.06     5.528881     20.36134     45.10495         6     0.845     0.556 -47.09   0
       221    733.8793    461.8206 300.2553674 +22.7354585     308.3672     72.16996      1.307     2.50     5.731274     20.36134     57.74957         6     0.741     0.541  37.29   0
       222    623.2094    459.8418 300.2215225 +22.7017463     361.8968     72.16996      1.308     3.04      6.13128     20.36134     51.29216        10     0.931     0.717 -29.65   0
       223    675.1074    457.8968 300.2383243 +22.7167309     706.4994     72.35355      1.287     2.59     5.912149     20.36134     107.6063        12     0.975     0.738  50.65   0
       224    463.4567    455.8287 300.1730719 +22.6527377     178.4113     72.16996      1.107     3.75     5.793413     20.36134     35.30024         5     0.872     0.540  39.48   0
       225    989.7420    450.5974 300.3388065 +22.8088293     619.8575     72.13319      1.460     2.73     5.205489     20.36134     76.06888        12     0.986     0.753 -28.30   0
       226    735.7916    449.8521 300.2598482 +22.7325919     914.6107     72.16996      1.333     3.14      5.67534     20.36134     104.2227        13     0.997     0.817  56.18   0
       227    893.2552    446.3931 300.3100693 +22.7787409     1064.295     72.16996      1.417     3.38      5.40583     20.36134     119.0636        18     1.290     0.820  51.84   0
       228    877.3190    442.8867 300.3062368 +22.7729625      614.377     72.29852      1.471     3.14      5.40583     20.36134     79.69699        10     0.876     0.814 -60.04   0
       229    621.7343    440.5551 300.2273228 +22.6957635     3178.888     72.16996      1.354     2.45     6.003666     20.36134     424.5833        26     1.094     1.008  50.90   0
       230    982.0024    439.5976 300.3399618 +22.8033503     610.8343     71.94903      1.705     5.36     5.231763     20.36134     47.55026        10     1.082     0.808  36.95   0
       231     97.9049    431.9819 300.0670945 +22.5363321     421.7054     72.09639      1.641     5.53     5.438366     20.36134     38.17315         8     1.000     0.863 -66.02   0
       232    461.6418    427.5329 300.1816901 +22.6440674     412.3816     72.15157      1.493     4.60     5.787358     20.36134     40.28261         7     0.865     0.695  60.81   0
       233    904.9647    419.9026 300.3223194 +22.7746304     528.8632     72.16996      1.421     2.59      5.40583     20.36134     82.37951         8     0.810     0.687  81.35   0
       234    991.4776    418.4227 300.3497908 +22.8000974     981.0757     72.13319      1.541     3.43     5.202204     20.36134     115.6311        16     1.181     1.002  52.13   0
       235    641.5291    416.3715 300.2413385 +22.6947436     268.6132     72.16996      1.243     3.47     5.832936     20.36134     47.56495         5     0.753     0.461 -71.27   0
       236    528.1381    415.2055 300.2063959 +22.6604468      454.234     72.15157      1.392     3.93      5.80667     20.36134      58.4593        10     1.004     0.790  46.77   0
       237    732.3799    414.4164 300.2702853 +22.7213869     1023.132     72.15157      1.346     2.46     5.554774     20.36134     139.5435        16     0.971     0.922 -77.43   0
       238    236.3799    412.8703 300.1163521 +22.5723564     607.4096     72.16996      1.415     2.99     5.728028     20.36134      79.2086        11     1.037     0.674  11.85   0
       239    298.6607    408.2542 300.1372234 +22.5896965     3716.267     72.22508      1.426     2.63     5.758335     20.36134     433.9176        28     1.124     1.115  68.01   0
       240     76.4363    410.2575 300.0674711 +22.5236612     384.5151     72.16996      1.514     3.48     5.408305     20.36134     34.15686         5     0.796     0.439  69.71   0
       241    245.8253    403.0294 300.1224831 +22.5723621     7546.125     72.16996      1.471     2.89     5.743126     20.36134     877.9164        39     1.242     1.179  51.05   0
       242    386.6608    397.3251 300.1681526 +22.6129272      4793.83     72.22508      1.407     2.58      5.63305     20.36134     565.5798        30     1.165     1.061  38.22   0
       243    630.8868    394.0568 300.2452639 +22.6851447     18756.06     72.26181      1.384     2.65     5.745975     20.36134     2300.152        52     1.254     1.148  62.00   0
       244    478.1037    395.9930 300.1970502 +22.6399400     388.4753     72.05958      1.545     2.21     5.703119     20.36134     50.89224         5     0.758     0.472  30.57   0
       245    648.8088    394.3441 300.2507547 +22.6905943      897.685     72.16996      1.941     7.09     5.734657     20.36134     65.63905        17     1.619     0.870 -33.18   0
       246    473.7545    394.0983 300.1963109 +22.6380929     430.0087     72.18834      1.980     3.95     5.689327     20.36134     31.28431         6     1.096     0.778 -19.06   0
       247    827.9237    384.6562 300.3097298 +22.7414371     452.4167     72.18834      1.352     5.12     5.416415     20.36134      49.2379        10     1.172     0.636 -31.17   0
       248   1011.8038    398.1299 300.3627195 +22.8003446     1944.582     72.11479      1.572     3.14     5.057799     20.36134     189.1776        24     1.182     1.146 -32.62   0
       249    964.6838    376.8594 300.3549181 +22.7801275     804.7662     72.28017      1.664     3.29     5.218714     20.36134      76.2279        13     1.001     0.855  53.89   0
       250    185.5152    374.1977 300.1130816 +22.5460093     2127.764     72.09639      1.577     3.09     5.692329     20.36134     237.9545        28     1.292     1.141  73.23   0
       251    501.4703    376.2519 300.2107313 +22.6412688     444.1273     72.15157      1.416     2.08     5.646465     20.36134     54.05258         5     0.666     0.479  72.19   0
       252    674.1703    375.2138 300.2648648 +22.6926914     210.7226     72.18834      1.302     3.58     5.620512     20.36134     29.37914         6     0.761     0.560  48.61   0
       253    985.1362    364.0975 300.3654407 +22.7825778     1250.404     72.28017      1.496     3.28     5.079937     20.36134      128.635        18     1.100     0.939  63.20   0
       254    571.5190    363.5396 300.2366714 +22.6585970     6637.994     72.24345      1.401     2.49      5.65724     20.36134     893.5969        37     1.197     1.104  54.53   0
       255    286.4457    362.5214 300.1482618 +22.5729048     795.9396     72.16996      1.792     4.09     5.768207     20.36134     83.20827        12     1.071     0.916 -45.08   0
       256    143.9217    356.0583 300.1060338 +22.5283354     587.3983     72.20671      1.602     4.16     5.586939     20.36134     56.01121        10     1.034     0.752   6.47   0
       257    685.3531    353.6660 300.2753409 +22.6898472     472.6147     72.18834      1.413     4.17     5.509646     20.36134     62.13005        10     1.192     0.582  59.78   0
       258    775.6489    352.5171 300.3038587 +22.7165500     1189.607     72.16996      1.521     3.20     5.437066     20.36134     146.9099        16     1.141     0.858  61.82   0
       259    478.1692    349.7185 300.2120845 +22.6266671     6221.009     72.16996      1.384     2.62     5.509593     20.36134      773.913        33     1.226     1.057  62.38   0
       260     64.2186    350.1722 300.0831678 +22.5027544     261.3685     72.16996      1.321     3.35     5.398784     20.36134     32.57965         5     0.943     0.345 -45.20   0
       261    967.3875    344.7521 300.3661793 +22.7717035     631.8113     72.18834      1.442     3.34      5.17742     20.36134     65.33308        12     0.916     0.883  63.74   0
       262    870.2935    344.3139 300.3360326 +22.7425210      1299.18     72.35355      1.364     2.63     5.453846     20.36134     169.0823        19     1.044     1.013  83.55   0
       263    462.9284    338.5130 300.2109746 +22.6188830      545.687     72.31687      1.461     5.51     5.431077     20.36134     52.59184        11     1.190     0.719  75.65   0
       264    545.1899    336.2685 300.2373183 +22.6428763     534.9771     72.16996      1.685     4.05     5.538526     20.36134     63.51525         8     1.045     0.754  41.78   0
       265    824.1454    335.6069 300.3244658 +22.7262054     281.2571     72.16996      1.379     3.49     5.391381     20.36134     38.11999         5     0.826     0.425 -19.85   0
       266    842.8758    331.8116 300.3315379 +22.7307204     464.8591     72.18834      1.210     3.25     5.407486     20.36134       72.297         8     1.011     0.520  51.82   0
       267    426.0964    330.9805 300.2019519 +22.6056864     2499.735     72.07799      0.762     1.84     5.341479     20.36134     986.0891        10     0.794     0.394 -89.15   3
       268    425.7298    325.7804 300.2035247 +22.6040828     3194.294     72.18834      0.918     3.86     5.336376     20.36134      1333.36        12     1.003     0.425 -74.95   2
       269    365.6969    328.8533 300.1838429 +22.5869815     2652.937     72.24345      1.459     2.76     5.313107     20.36134     330.8103        27     1.205     1.050  60.92   0
       270     84.2543    326.1450 300.0971890 +22.5018640     1145.428     72.20671      1.788     3.75     5.413302     20.36134     98.63004        19     1.171     1.057  26.23   0
       271    335.0181    318.3224 300.1777122 +22.5747658      30118.7     72.16996      1.444     2.74     5.430076     20.36134     3408.285        65     1.343     1.196  63.66   0
       272    869.7388    316.1371 300.3450005 +22.7342533     1466.004     72.20671      1.458     2.55     5.400502     20.36134     167.1158        25     1.293     1.028  80.37   0
       273     31.3465    305.9338 300.0873015 +22.4802032      5029.36     72.20671      1.757     3.37     5.377754     20.36134     490.4123        41     1.475     1.307  68.56   0
       274    785.1970    304.8096 300.3223122 +22.7056934     601.3517     71.98589      1.570     3.61     5.294251     20.36134     67.08302        13     1.111     0.819  69.44   0
       275    209.2967    304.7359 300.1430098 +22.5331941     332.4895     72.28017      1.438     4.25     5.705252     20.36134     58.15034         9     1.118     0.669 -29.08   0
       276    433.6993    303.4537 300.2132477 +22.6000564     516.1074     72.26181      1.333     3.76     5.313249     20.36134     75.85593        11     1.009     0.905 -87.85   0
       277    745.5387    298.3327 300.3120497 +22.6919606     1942.477     72.20671      1.395     2.48     5.305345     20.36134     228.2752        20     1.090     0.934  60.54   0
       278    553.8441    293.1369 300.2540046 +22.6330746     330.2036     72.16996      1.386     3.88     5.327772     20.36134     47.87142         8     0.897     0.814 -58.05   0
       279    960.7101    291.2828 300.3814413 +22.7543280     716.4056     72.28017      1.547     3.47     5.264509     20.36134     66.81195        12     0.953     0.874  88.42   0
       280    407.3748    282.6986 300.2117851 +22.5862091      2309.18     72.13319      1.560     3.21     5.299273     20.36134     242.0026        26     1.366     0.951  61.00   0
       281    619.9080    281.3643 300.2784023 +22.6494729      307.533     72.11479      1.500     4.47     5.304183     20.36134     40.14176         6     0.876     0.648 -36.36   0
       282    846.6128    275.9399 300.3508268 +22.7157740     590.0918     72.13319      1.254     3.23     5.329871     20.36134     81.50578        10     1.011     0.649 -15.85   0
       283    839.4497    275.8467 300.3486232 +22.7136036     358.3543     72.20671      1.740     5.69     5.318232     20.36134      42.1968         7     1.103     0.827 -61.43   0
       284    745.9214    273.6517 300.3201743 +22.6849799     321.3052     72.16996      1.590     4.44     5.296032     20.36134     34.59893         6     0.886     0.632  38.12   0
       285    728.5422    273.4376 300.3148264 +22.6797162     402.0553     72.16996      1.415     2.69     5.299982     20.36134     49.07496         6     0.797     0.524  44.79   0
       286    697.1403    272.4181 300.3053698 +22.6700232     251.7004     72.15157      1.089     3.22     5.292509     20.36134     44.32504         6     0.745     0.621 -52.76   0
       287    437.0533    270.2004 300.2250769 +22.5915079      3914.23     72.13319      0.509     0.90     5.294584     20.36134     2561.663         9     0.496     0.376 -73.53   0
       288    483.1522    261.9812 300.2420947 +22.6029527     1185.189     72.20671      1.475     2.99     5.277335     20.36134       126.13        18     1.066     0.999  74.12   0
       289    568.5664    259.8202 300.2693957 +22.6279089      206.603     72.16996      1.066     3.35     5.308167     20.36134     33.89005         5     0.746     0.437  67.17   0
       290    727.9763    254.0327 300.3209433 +22.6739683     2305.922     72.16996      1.390     3.03     5.318477     20.36134     279.8977        25     1.235     0.959  58.71   0
       291    989.3292    248.5900 300.4042183 +22.7506104     3276.432     72.15157      1.544     2.81       5.2665     20.36134     378.7603        29     1.207     1.134  52.88   0
       292    436.2486    238.0804 300.2352425 +22.5820387     826.5544     72.20671      1.566     3.63     5.302699     20.36134      80.7425        14     1.113     0.882  62.99   0
       293    111.2265    232.0280 300.1360956 +22.4829294     1304.365     72.13319      1.662     3.46     5.796912     20.36134     121.5494        21     1.309     1.001  -5.96   0
       294    141.7900    231.9798 300.1456130 +22.4920744     686.2507     72.15157      1.519     3.08     5.880367     20.36134     89.01451        11     0.995     0.726  18.76   0
       295   1004.9467    229.2219 300.4153728 +22.7497108     454.7827     72.16996      1.266     3.86       5.2665     20.36134     54.34009         9     0.981     0.700  70.71   0
       296    849.1021    225.5741 300.3679369 +22.7020355     354.1674     72.11479      1.340     4.96     5.355603     20.36134     49.53194         9     1.227     0.787  -1.99   0
       297    195.3538    223.9530 300.1648709 +22.5058193      383.621     72.18834      1.396     3.04     5.711703     20.36134     62.21545         8     0.946     0.655 -82.62   0
       298    990.0657    221.8216 300.4131288 +22.7431304     384.7237     72.15157      1.340     2.55     5.307429     20.36134     52.15237         6     0.840     0.468  32.01   0
       299     51.2741    221.0033 300.1210356 +22.4617970     393.1263     72.07799      1.438     2.46     5.808829     20.36134     39.60239         5     0.766     0.473 -28.81   0
       300    799.8757    215.4914 300.3558560 +22.6844054     748.7805     72.31687      1.463     3.14     5.340307     20.36134      111.327        10     1.004     0.739 -56.68   0
       301    390.2858    214.5909 300.2285520 +22.5615243     400.3418     72.09639      1.406     5.31     5.347199     20.36134     50.22688         9     1.230     0.647  86.67   0
       302    897.8549    204.5297 300.3899666 +22.7105703     2183.609     72.20671      1.542     2.95     5.294164     20.36134     264.7457        24     1.214     1.051 -86.66   0
       303    316.4543    201.7396 300.2097427 +22.5357185     2310.284     72.22508      1.517     2.54     5.454332     20.36134     268.2369        26     1.203     1.096  23.79   0
       304    204.2441    202.6086 300.1745559 +22.5023533     270.5188     72.18834      1.594     4.89     5.757826     20.36134     30.43856         5     1.059     0.640  63.79   0
       305    796.3079    196.2790 300.3609730 +22.6778129     648.9042     72.29852      1.596     3.98     5.313266     20.36134     61.27082        12     1.188     0.730  50.33   0
       306    394.2004    196.6437 300.2355892 +22.5575404      1038.12     72.16996      1.625     2.91     5.481339     20.36134     120.5415        16     1.015     0.992  68.07   0
       307    146.2930    197.0372 300.1583421 +22.4833901     455.9206     72.15157      2.068     3.66     5.959019     20.36134     35.74395         7     0.715     0.701  63.49   0
       308    903.1377    193.2749 300.3952637 +22.7089135     386.3547     72.20671      1.446     4.30     5.281793     20.36134     39.95512         7     0.760     0.692  28.64   0
       309    211.1183    188.9080 300.1811355 +22.5004780     735.0677     72.31687      1.465     2.71     5.805885     20.36134     91.39958        12     0.988     0.746  76.27   0
       310    329.4247    188.2069 300.2181658 +22.5357159     324.4279     72.16996      1.723     3.89     5.477074     20.36134     38.99837         7     0.972     0.629  62.61   0
       311    748.9285    186.0479 300.3495190 +22.6606924     1740.753     72.15157      1.349     2.55     5.344172     20.36134     239.5136        20     1.098     0.904  34.39   0
       312    813.6644    185.9237 300.3697423 +22.6800287     516.4091     72.24345      1.315     3.07     5.293477     20.36134     92.64971        11     1.076     0.634  -4.80   0
       313    232.4440    182.0362 300.1899958 +22.5048931     551.8525     72.22508      1.486     3.63     5.799102     20.36134     54.11172        12     1.010     0.834  33.43   0
       314   1020.4362    178.5572 300.4366348 +22.7397678      860.069     70.49612      1.439     2.86     6.202704     20.36134      117.728        16     1.059     0.968  53.75  16
       315    522.5723    178.6767 300.2813811 +22.5908174     215.8595     72.16996      1.165     3.97     5.769778     20.36134      41.0978         7     0.859     0.687  78.03   0
       316    752.9941    177.5884 300.3535290 +22.6594765     782.2932     72.04116      1.327     2.40      5.33705     20.36134     109.6575        12     0.912     0.737 -86.40   0
       317    673.3828    176.6729 300.3290123 +22.6353870     1243.791     72.16996      1.381     2.50     5.304186     20.36134     173.5201        16     0.977     0.915 -19.30   0
       318    494.4073    172.8362 300.2745038 +22.5807061     469.9911     72.16996      1.407     2.70     5.829892     20.36134     54.41945         7     0.816     0.596  59.77   0
       319    599.5656    168.3546 300.3087091 +22.6109002     1030.176     72.20671      1.585     2.67     5.542538     20.36134     129.4616        16     1.199     0.833  76.71   0
       320    868.9552    168.1426 300.3927498 +22.6914579     1569.435     72.20671      1.486     2.99     5.263768     20.36134     184.1222        23     1.237     1.014  81.06   0
       321    881.0272    167.5560 300.3967052 +22.6949009      789.082     72.18834      1.353     2.49     5.264314     20.36134     111.4232        12     0.878     0.823  -3.93   0
       322    997.6485    157.7108 300.4362815 +22.7269541     1065.289     72.15157      1.370     3.06     6.252061     20.36134      133.332        15     1.075     0.928  40.70   0
       323    231.8565    150.3209 300.2000939 +22.4956075     736.4175     72.20671      1.499     3.04     5.960443     20.36134     113.9588        16     1.220     0.830  46.17   0
       324     93.6964    145.1848 300.1587993 +22.4527406     2160.581     72.07799      1.637     3.33     5.974258     20.36134     213.1865        29     1.318     1.156  73.33   0
       325    916.5438    142.5831 300.4158797 +22.6983422     793.3781     72.13319      1.545     2.67     5.401557     20.36134     88.36117        11     0.919     0.758  24.00   0
       326     43.1256    142.1904 300.1440518 +22.4367275     518.3448     72.16996      1.551     4.92     5.971235     20.36134     49.33025         9     1.013     0.676 -28.01   0
       327    250.9657    138.5735 300.2098454 +22.4979570     5541.345     72.18834      1.508     2.89     5.955386     20.36134     620.5473        37     1.343     1.128  47.01   0
       328     35.2552    132.9413 300.1446036 +22.4317134      1281.37     72.22508      1.540     3.16     5.987169     20.36134     156.2162        20     1.170     1.032   0.85   0
       329    234.2980    129.5281 300.2075927 +22.4903661     558.0011     72.29852      1.347     3.35     5.958379     20.36134     73.30384         8     0.864     0.800   9.80   0
       330    895.1921    120.3020 300.4164414 +22.6855453     3655.367     72.04116      1.530     2.86     5.479729     20.36134     454.4522        33     1.290     1.173 -65.80   0
       331    998.8812    119.1439 300.4491678 +22.7162258     2621.232     72.20671      1.537     2.93     6.233462     20.36134     321.9013        28     1.260     1.138  86.27   0
       332    444.4567    115.5014 300.2775360 +22.5492727     607.3078     72.26181      1.369     2.49      5.96063     20.36134     79.69901        10     0.829     0.799 -32.97   0
       333    558.6968    113.3165 300.3138184 +22.5828449     328.0234     72.33521      1.538     4.23     5.919351     20.36134     42.65886         5     0.811     0.715  18.18   0
       334    368.8727    107.3099 300.2566636 +22.5242868     808.9308     72.33521      1.886     2.98     5.844893     20.36134      89.6212        12     1.081     0.731   2.24   2
       335    495.9611    102.6919 300.2977237 +22.5610107     1755.326     72.16996      1.389     2.51     5.971955     20.36134     250.7567        23     1.116     1.005  70.78   0
       336    134.7190    104.2073 300.1848328 +22.4532631     732.3514     72.09639      1.871     2.90     6.072676     20.36134     67.06355         9     0.971     0.603  24.94   0
       337    423.9311    103.5249 300.2750277 +22.5396851     424.7057     72.24345      1.230     2.08     5.967862     20.36134     72.48595         6     0.727     0.492  -8.92   0
       338     32.4407    103.0726 300.1534089 +22.4222936     362.3057     72.15157      1.475     3.98     6.044026     20.36134     38.78229         5     0.888     0.522 -43.45   0
       339    557.3710    101.6764 300.3171780 +22.5791017     587.2021     72.15157      1.841     5.32     5.939725     20.36134      45.3597         9     1.285     0.622  61.65   0
       340    319.7784     98.3048 300.2443044 +22.5069976       341.92     72.07799      1.525     3.84     5.895785     20.36134     35.47721         5     0.917     0.461 -46.80   0
       341    239.4393     98.0981 300.2193779 +22.4828772     331.8412     72.16996      1.394     2.45     5.952219     20.36134     51.45254         5     0.718     0.439  65.99   0
       342    783.9875     92.0411 300.3909210 +22.6441479     489.4014     72.16996      1.568     3.95     5.575353     20.36134     40.81129         9     0.823     0.761  28.96   0
       343    632.1930     88.4615 300.3447697 +22.5976968     287.9444     72.15157      1.236     3.47     5.944899     20.36134     33.46305         5     0.761     0.457  19.11   0
       344    269.9544     82.4532 300.2339400 +22.4875219     6077.914     72.20671      1.534     2.85     5.921941     20.36134     659.7373        35     1.322     1.127  58.82   0
       345    776.5821     83.1703 300.3914869 +22.6393808     473.6971     72.15157      1.550     3.78     5.655759     20.36134     45.68375         6     0.809     0.636 -64.83   0
       346    121.0428     81.8884 300.1878134 +22.4427558      753.904     72.16996      1.633     4.34     6.093012     20.36134     76.99349        13     1.257     0.793  43.79   0
       347    899.0907     80.2482 300.4306389 +22.6751883      423.257     72.18834      1.545     3.41     5.707527     20.36134     41.61592         7     0.797     0.703  53.59   0
       348    241.8605     76.3293 300.2271852 +22.4773485     348.0741     72.20671      1.562     3.26     5.936353     20.36134      41.7939         7     0.850     0.578  35.49   0
       349    746.5626     74.5144 300.3849334 +22.6279096     92.81471     72.15157      1.407     5.96     5.824314     20.36134     27.88871         5     1.109     0.901  48.57   0
       350    285.4533     74.3137 300.2413992 +22.4898249     274.4098     72.20671      1.097     3.26     5.906842     20.36134     47.68135         5     0.955     0.426  12.40   0
       351     31.8686     72.8000 300.1630407 +22.4134292     440.3865     72.11479      1.693     5.13     6.055586     20.36134     42.11428         9     1.136     0.655 -72.57   0
       352    516.0675     67.8170 300.3152866 +22.5570045     6345.327     72.16996      1.459     2.92     5.854532     20.36134     769.3628        36     1.305     1.089  66.35   0
       353    401.1723     67.6425 300.2795712 +22.5225585     749.9318     72.18834      1.428     3.69     5.763309     20.36134      104.082        13     1.169     0.888  -6.90   0
       354    573.0494     62.4399 300.3347766 +22.5725141      428.672     72.18834      1.405     3.14     5.880388     20.36134     57.17163         6     0.806     0.639  35.58   0
       355    269.9862     61.8033 300.2406411 +22.4815983      199.374     72.00433      1.225     3.75     5.908787     20.36134      27.6984         5     0.814     0.497  55.70   0
       356    768.7646     57.8812 300.3972447 +22.6297680     970.6241     72.11479      1.744     2.93     5.912264     20.36134     103.7167        12     0.994     0.768 -49.42   2
       357    861.1057     56.5699 300.4264639 +22.6570141     382.2992     72.07799      1.282     3.00     5.675033     20.36134     56.71228         6     0.795     0.494   2.25   0
       358    209.1133     51.6992 300.2249805 +22.4604645     527.0849     72.33521      1.523     2.53     5.972029     20.36134     54.85548         7     0.688     0.676  32.06   0
       359    644.5529     47.9917 300.3617349 +22.5897585     6387.737     72.18834      1.466     2.81     6.205146     20.36134     658.1144        39     1.332     1.137  74.62   0
       360    567.8322     50.2411 300.3371042 +22.5674453     382.0772     72.22508      1.297     2.88     5.854731     20.36134     55.56261         8     0.795     0.673  37.79   0
       361    419.2688     47.0415 300.2918794 +22.5220554     1486.867     72.15157      1.458     2.62     5.552144     20.36134     183.7809        19     1.050     0.992  63.39   0
       362    685.5572     45.7303 300.3752456 +22.6013779      647.171     72.13319      1.116     2.24     6.361225     20.36134     114.6203        11     0.844     0.755 -26.44   0
       363    755.1365     43.1213 300.3977787 +22.6214453     370.3807     72.26181      1.339     3.97       6.1725     20.36134     30.64189         6     0.782     0.575  44.40   0
       364    701.6139     41.7807 300.3815296 +22.6050463     624.8635     72.13319      1.503     2.73     6.376113     20.36134      71.9173        12     0.919     0.843  21.48   0
       365    168.2516     39.3138 300.2162861 +22.4446678     763.6723     72.18834      1.666     4.72     6.080056     20.36134     65.99776        17     1.308     0.975  86.74   0
       366    971.5031     39.3639 300.4664790 +22.6850806     539.9623     72.16996      1.302     3.76     6.013082     20.36134     74.25434        11     1.074     0.839  44.87   0
       367     14.9191     39.5832 300.1685357 +22.3988120     364.9743     72.18834      2.121     4.43     6.043354     20.36134     32.69733         5     1.142     0.488   3.78   0
       368    739.9799     36.8339 300.3950910 +22.6151023     422.7148     72.18834      1.471     3.56     6.381814     20.36134     57.26405         9     0.975     0.763  37.68   0
       369    688.7646     32.8431 300.3804208 +22.5986312     2744.862     72.22508      1.469     2.68     6.467636     20.36134      353.073        29     1.321     1.039  80.40   0
       370    703.8217     31.9689 300.3853967 +22.6028849     779.3361     72.16996      1.786     5.07     6.478053     20.36134     73.56036        12     1.380     0.749  53.94   0
       371    329.7324     33.8119 300.2682992 +22.4914459     331.2895     72.16996      1.500     3.60     5.877422     20.36134     46.63551         5     0.967     0.387  -3.68   0
       372    775.2029     24.5881 300.4100394 +22.6221172      1629.52     71.98589      1.478     2.70     6.161341     20.36134     200.0634        21     1.214     0.934  60.17   0
       373    853.7953     19.3759 300.4362353 +22.6441266     231.7513     72.13319      1.217     3.55     5.925481     20.36134     34.33109         5     0.799     0.454 -14.87   0
       374    713.1817     18.0326 300.3928293 +22.6016769     571.0422     72.15157      1.280     3.12      6.64063     20.36134     76.08611        11     0.981     0.697  22.04   0
       375    178.0105   1017.8484 299.9016438 +22.7283935     575.1407     72.18834      2.112     7.41     96.01096     20.36134     31.81248        12     2.080     0.739  22.17  16
       376    318.8578   1013.5134 299.9468574 +22.7694173     1446.454     72.28017      4.371     7.47     6.508322     20.36134     88.01281        23     2.062     0.866  50.74  19
       377    804.8632     14.3574 300.4226019 +22.6280466     486.6301     72.16996      1.643     3.70     5.925869     20.36134     47.43312         6     0.732     0.656  58.80   0
       378    316.3454   1014.6777 299.9456970 +22.7689973     1046.731     72.20671      3.386     4.39     6.666237     20.36134      56.9881        12     1.139     0.765  27.81   3
       379    235.0301   1011.3828 299.9214768 +22.7436524     355.0107     72.15157      1.610     4.21     73.51659     20.36134     48.94599         5     1.497     0.337  44.26   1
       380     91.8800     16.7175 300.1998625 +22.4153009        550.2     72.29852      1.541     3.81     6.098759     20.36134     55.25087         9     1.041     0.763  25.19   0
