#   1 NUMBER                 Running object number                                     
#   2 X_IMAGE                Object position along x                                    [pixel]
#   3 Y_IMAGE                Object position along y                                    [pixel]
#   4 ALPHA_J2000            Right ascension of barycenter (J2000)                      [deg]
#   5 DELTA_J2000            Declination of barycenter (J2000)                          [deg]
#   6 FLUX_APER              Flux vector within fixed circular aperture(s)              [count]
#   7 FLUXERR_APER           RMS error vector for aperture flux(es)                     [count]
#   8 FLUX_RADIUS            Fraction-of-light radii                                    [pixel]
#   9 FWHM_IMAGE             FWHM assuming a gaussian core                              [pixel]
#  10 BACKGROUND             Background at centroid position                            [count]
#  11 THRESHOLD              Detection threshold above background                       [count]
#  12 FLUX_MAX               Peak flux above background                                 [count]
#  13 ISOAREA_IMAGE          Isophotal area above Analysis threshold                    [pixel**2]
#  14 A_IMAGE                Profile RMS along major axis                               [pixel]
#  15 B_IMAGE                Profile RMS along minor axis                               [pixel]
#  16 THETA_IMAGE            Position angle (CCW/x)                                     [deg]
#  17 FLAGS                  Extraction flags                                          
         1    516.4172     16.7946 300.3722517 +22.5466192     1916.148     72.30363      1.254     2.39     4.269431     20.40945     240.5136        19     1.064     0.871  82.21   0
         2    239.2531     14.2763 300.2868309 +22.4628855     683.1197     72.37733      1.337     2.97     4.350328     20.40945     86.05041         9     0.873     0.726  49.61   0
         3    473.5790     10.6292 300.3609150 +22.5320199     1368.819     72.34049      1.286     2.33     4.244647     20.40945     201.0826        15     1.000     0.780 -67.42   0
         4    579.0436      7.3530 300.3948128 +22.5626547     1249.519     72.37733      1.243     2.23     4.360063     20.40945     208.1374        15     0.998     0.810  77.14   0
         5    674.3380      6.8081 300.4246715 +22.5910237     304.9124     72.28519      1.391     2.28     4.450837     20.40945     43.31903         5     0.735     0.421 -69.00   0
         6    174.1206      6.4942 300.2691035 +22.4411364     449.3693     72.46936      1.407     3.82     5.069622     20.40945      64.4651        10     1.124     0.701 -14.78  16
         7    223.0172      4.4569 300.2849659 +22.4552004      442.476     70.24648      1.280     5.22     4.367043     20.40945     50.39944        10     1.130     0.680 -49.16  16
         8    399.4526      1.6569 300.3407541 +22.5072433     1646.717     58.20953      1.025     2.23     4.159854     20.40945     288.4664        12     0.871     0.710 -21.89  24
         9    605.6163   1012.7170 300.0764522 +22.8593650     6859.757     72.30363      1.718     3.43     2.955253     20.40945     546.0949        42     1.378     1.299  46.95   0
        10    184.1297   1017.9099 299.9436357 +22.7343593     3952.179     72.50613      9.684    33.31      14.8236     20.40945     115.9462       393     7.355     4.629  14.07  26
        11    180.2490   1002.1176 299.9475706 +22.7286678     1115.568     72.34049      6.311    10.13     13.77998     20.40945     48.73083        20     2.064     1.385  75.29   3
        12    143.7165   1022.4113 299.9296103 +22.7235150     1055.211     62.98292      4.606     6.82     25.73472     20.40945     57.69099        12     1.282     1.017  63.87  26
        13    155.7845   1023.3782 299.9330459 +22.7274158     900.7576     57.95709      6.951     7.65     22.27906     20.40945     44.63102        15     2.254     0.726  -4.33  27
        14    157.5777   1019.7534 299.9347832 +22.7269153     1129.592     72.11904      8.626     9.63      21.1484     20.40945     40.73112        16     1.908     1.356  15.17  27
        15    108.6806   1020.9457 299.9192007 +22.7125745     1163.115     69.09858     16.887    19.54     36.02122     20.40945     42.57278        44     5.218     2.033   0.81  27
        16    119.6555   1018.3999 299.9234396 +22.7151405     1306.926     72.24831      8.917    11.74     31.87415     20.40945      41.0575        25     2.271     1.690  59.08  27
        17     98.4882   1015.0567 299.9179510 +22.7078262     2286.918     72.39575      7.611    11.54     37.24717     20.40945     60.47532        59     2.559     2.211  68.27  19
        18     49.8748   1015.6385 299.9026592 +22.6933940     1235.863     72.30363     12.570    19.07     62.43428     20.40945     41.78752        31     5.025     2.011  60.12  19
        19     32.5892    992.5964 299.9047908 +22.6816005     1351.436       72.156      5.815    17.00     54.13327     20.40945     51.28391        63     5.539     1.450 -29.27  19
        20     32.4655   1001.4330 299.9018760 +22.6840953     2298.714     72.34049      7.674    28.48     60.53899     20.40945     62.30922       141     5.780     3.895  82.46  19
        21     46.0331   1022.1062 299.8993604 +22.6940934     1885.885     64.36456      7.449    16.08     68.52091     20.40945     61.50738        59     3.614     1.988   1.45  27
        22     34.9622   1011.2310 299.8994619 +22.6876525     1925.564     72.34049      4.111    13.61      66.5981     20.40945     62.94794        51     3.585     1.438  20.39  19
        23    118.6308   1008.5355 299.9263324 +22.7120059     1342.686     72.35892      8.091    11.42     29.59824     20.40945     50.66538        26     3.065     1.185  64.62  27
        24    196.7673   1007.3190 299.9510116 +22.7351179      663.837     72.34049      2.467     7.71     11.04078     20.40945     47.68164        16     1.758     0.992 -71.77   1
        25    484.9170   1006.8417 300.0407901 +22.8214673     453.3912     72.30363      1.798     4.93     2.971829     20.40945     35.55553         7     1.191     0.578  52.49   0
        26    757.0992   1006.1981 300.1257611 +22.9029302     362.3088     72.22985      1.531     4.72     3.027457     20.40945     34.16608         5     0.903     0.700 -24.40   0
        27    514.0254   1003.3435 300.0509889 +22.8291978     1488.775     72.34049      1.591     3.23     2.946505     20.40945      135.137        22     1.127     1.116  41.84   0
        28    121.9431   1002.9045 299.9291947 +22.7113867     619.3355     72.41416      4.137     4.75      27.1421     20.40945     36.17378         5     1.489     0.430  71.87   1
        29     59.4910   1002.5323 299.9099129 +22.6925264     730.1451     72.46936      5.775     5.79     50.12481     20.40945     33.88972         8     1.350     0.698 -49.86   1
        30    407.7752    999.8153 300.0190730 +22.7963036     1030.686     72.35892      1.528     3.35     3.158848     20.40945     97.67941        17     1.088     0.975  72.51   0
        31     66.0310    997.5684 299.9135604 +22.6930680     1626.972     72.34049      7.971    12.99      44.3263     20.40945     45.05857        39     2.532     1.854  62.82   2
        32     53.0378    999.2408 299.9089797 +22.6896453     972.4218     72.43256      6.686     8.30     50.28372     20.40945     48.86859        13     1.804     1.068  20.06   1
        33    338.4807    997.9859 299.9981127 +22.7749825     6515.688     72.32207      1.648     3.21     3.625272     20.40945     641.1887        38     1.318     1.258  86.46   0
        34     45.3162    985.7849 299.9109612 +22.6834707     1019.639     72.30363      5.934     7.54      44.8759     20.40945      57.2047        19     1.654     1.063 -47.73   0
        35    371.0445    985.1730 300.0124127 +22.7810817      430.668     72.35892      1.450     4.28     3.453804     20.40945     48.57316         8     0.935     0.741 -73.17   0
        36     29.2477    975.1457 299.9094331 +22.6755966     1131.496     72.37733      4.752     4.27     41.75438     20.40945     41.85447         5     1.832     0.284 -61.35   3
        37     40.1102    963.3742 299.9166384 +22.6754855     1148.094     72.26675      4.701    15.25     30.37381     20.40945     51.69996        30     3.633     1.781  20.91   3
        38     34.0792    980.5965 299.9091596 +22.6786095      1846.88     72.24831      9.325    18.39     44.86376     20.40945     51.61575        56     3.719     2.526 -37.76   3
        39     36.9048    966.4957 299.9146268 +22.6754174     1581.771     72.50613      5.556    12.46     33.11761     20.40945      48.4136        38     2.732     1.582  44.29   3
        40     27.1617    969.6709 299.9105671 +22.6734014      1841.29     72.32207      3.946    22.38     38.36644     20.40945     46.88811        76     5.378     2.587 -28.15  19
        41    884.7503    976.5103 300.1752138 +22.9326840      2086.12     72.34049      1.675     3.37     3.304213     20.40945     156.4356        28     1.239     1.213 -19.72   0
        42    534.8666    973.7641 300.0671057 +22.8269659      478.646     72.34049      1.748     6.40     3.165897     20.40945      36.9844        12     1.351     0.852  76.13   0
        43    383.0650    972.9984 300.0201151 +22.7811979     288.4751     72.34049      1.589     5.73     3.404226     20.40945     33.38564         7     1.302     0.710  -5.67   0
        44    673.6609    965.6079 300.1129804 +22.8662587     804.4304     72.32207      1.788     6.51     3.159774     20.40945     63.14352        17     1.454     0.915  65.31   0
        45   1000.2713    964.3179 300.2152090 +22.9638111     427.0309     72.46936      1.699     5.36     3.222815     20.40945     37.45852         9     0.986     0.823  46.85   0
        46    486.0038    960.8516 300.0560995 +22.8086022      447.429     72.34049      1.485     4.65      3.08655     20.40945     49.32891         9     1.097     0.654  13.00   0
        47    708.5601    959.7349 300.1257637 +22.8750397     886.7291     72.30363      1.401     2.89     3.225381     20.40945     107.7176        13     1.002     0.860  40.78   0
        48    923.9730    959.5306 300.1929712 +22.9395672     3231.153     72.34049      1.172     1.87     3.275309     20.40945     1612.027         5     1.120     0.099 -26.02   0
        49    730.7155    953.3332 300.1347501 +22.8798465     11442.56     72.45097      1.560     3.03      3.28851     20.40945      1039.13        54     1.411     1.270  52.08   0
        50    776.2090    953.4335 300.1488932 +22.8935169     426.3351     72.34049      1.371     3.56     3.463358     20.40945     53.94832        11     1.021     0.846  62.28   0
        51    921.5538    952.8831 300.1943807 +22.9369334     485.6633     72.32207      1.615     4.95     3.341409     20.40945     41.06354         9     1.294     0.535 -46.32   0
        52     96.5664    950.5649 299.9383460 +22.6887668     540.5364     72.39575      3.545     4.10     15.22314     20.40945     35.95152         5     0.975     0.492   4.17   0
        53    863.6707    946.6371 300.1783664 +22.9177885     232.4104     72.32207      1.015     3.87     3.529335     20.40945      43.3515         5     1.060     0.404  75.82   0
        54     42.2391    945.1182 299.9232413 +22.6708932     464.7152     72.30363      1.504     4.75     17.55028     20.40945     61.49728        12     1.310     0.826  59.02   0
        55    435.9337    941.5129 300.0468122 +22.7880324     499.3576     72.43256      1.537     5.46     3.323808     20.40945     51.41872        10     1.089     0.772 -89.24   0
        56    782.5016    940.8915 300.1549366 +22.8918037      340.812     72.52452      1.390     4.11     3.570947     20.40945     42.46869        11     0.933     0.929  18.59   0
        57    739.2386    935.4148 300.1432380 +22.8772595     1297.776     72.35892      1.528     3.28     3.424188     20.40945     122.9388        19     1.131     1.000  69.52   0
        58    922.2509    934.5006 300.2005816 +22.9318642     441.5623     72.43256      1.530     4.10     3.494399     20.40945     48.67417         9     1.133     0.600  54.03   0
        59    591.0509    932.8851 300.0979039 +22.8320918     489.5557     72.32207      1.602     4.96     3.166829     20.40945     49.59778         8     1.016     0.686  18.49   0
        60    454.8265    933.6503 300.0552502 +22.7914457     269.9075     72.35892      1.327     4.28     3.258445     20.40945     32.31127         5     1.109     0.471   4.28   0
        61    777.2422    928.9700 300.1571778 +22.8868048     729.1346     72.37733      1.497     3.39     3.622967     20.40945     66.68108        12     0.977     0.830 -52.21   0
        62    116.9839    928.9472 299.9517253 +22.6887009     414.8248     72.34049      1.641     4.37     6.848737     20.40945     36.03857         6     0.780     0.698  -9.78   0
        63    886.1426    925.5972 300.1922207 +22.9184844     440.4122     72.30363      1.759     5.91     3.591547     20.40945     42.17711        10     1.223     0.805  37.34   0
        64    826.0285    920.1038 300.1752686 +22.8988863     571.1614     72.28519      1.441     4.40     3.684253     20.40945     55.26119        12     1.100     0.807  61.59   0
        65    677.1484    919.1227 300.1291971 +22.8539646     575.3251     72.32207      1.328     4.10     3.447776     20.40945       76.049        11     1.025     0.814 -18.77   0
        66    688.3193    916.1198 300.1336541 +22.8564527     554.1806     72.46936      1.458     4.11     3.456904     20.40945     62.29949        14     1.077     0.919 -85.11   0
        67    389.7443    915.5477 300.0408915 +22.7667259     4251.733     72.37733      1.519     2.88      3.47668     20.40945      440.714        32     1.256     1.126 -87.32   0
        68    978.0925    915.3713 300.2242231 +22.9431080     292.2411     72.30363      1.385     2.42      3.54716     20.40945     40.56656         5     0.835     0.481   3.75   0
        69    167.8963    904.2435 299.9755860 +22.6969036     404.2339     72.35892      1.677     5.39     4.622519     20.40945     38.35925         8     1.284     0.838  24.18   0
        70     52.1005    904.0384 299.9396727 +22.6620811     519.8492     72.35892      1.829     2.41     5.539649     20.40945     56.46832         6     0.758     0.631  79.70   0
        71    433.1821    903.4041 300.0583583 +22.7762758     363.7271     72.28519      1.551     4.29     3.422288     20.40945     34.47172         6     0.779     0.673 -46.36   0
        72    114.6135    901.3731 299.9599617 +22.6800855     826.1972     72.34049      1.777     5.33     5.550647     20.40945     79.52824        15     1.259     0.923  38.46   0
        73     91.8744    898.4615 299.9538438 +22.6724242     1712.614     72.37733      1.754     3.70     5.679895     20.40945     154.2295        28     1.339     1.260  59.11   0
        74     23.7332    899.2335 299.9324246 +22.6521865     767.2951     72.34049      3.056     4.90     5.011323     20.40945     53.30332         8     1.089     0.758  58.98   0
        75    719.5349    894.8117 300.1503133 +22.8596973     289.0003     72.28519      1.590     4.35      3.47499     20.40945     36.10337         5     0.997     0.697  -5.29   0
        76    963.6993    887.2408 300.2288890 +22.9307159     2032.378     72.32207      1.600     3.41     3.592682     20.40945     166.3161        24     1.285     1.052 -56.66   0
        77    862.8987    888.5374 300.1970352 +22.9008762     147.5389     72.43256      1.474     5.25     3.681097     20.40945     29.37649         5     1.450     0.538 -40.18   0
        78    918.0476    885.7156 300.2151484 +22.9165960     2094.298     72.34049      1.522     3.10     3.665939     20.40945      198.504        25     1.161     1.114 -69.17   0
        79    623.6318    885.9667 300.1233187 +22.8284002     462.9525     72.35892      1.771     5.06     3.451718     20.40945     46.63941         7     1.154     0.628 -45.53   0
        80    124.1770    880.0023 299.9698870 +22.6768303     516.3173     72.28519      1.497     4.30     4.449586     20.40945      48.8472        10     1.101     0.685  43.31   0
        81    701.3152    879.2828 300.1496904 +22.8497769     608.9428     72.46936      1.559     5.20     3.524564     20.40945     72.40895        14     1.427     0.805  54.76   0
        82     59.2077    874.8071 299.9513915 +22.6558367     524.7186     72.19293      1.681     5.52     4.235536     20.40945     35.68746         9     1.347     0.638  70.36   0
        83    569.6541    873.6317 300.1105244 +22.8086720     4876.255     72.35892      1.425     2.58     3.619456     20.40945     566.9777        33     1.193     1.107 -57.74   0
        84    372.1166    870.8596 300.0499492 +22.7486193      613.439     72.43256      1.426     4.59     3.390949     20.40945     71.41806        14     1.279     0.808  38.49   0
        85    119.8916    867.6566 299.9725721 +22.6720047     1380.937     72.39575      1.615     3.23     3.929215     20.40945     130.1098        19     1.168     1.005  87.14   0
        86    590.2240    866.0191 300.1194061 +22.8126567     763.0394     72.34049      1.410     2.97     3.633065     20.40945     88.09551        10     0.877     0.751  -6.73   0
        87    388.1673    865.2742 300.0567597 +22.7518329     351.8501     72.34049      1.494     5.48     3.419564     20.40945     41.54231         8     0.983     0.861  76.81   0
        88    139.3030    864.8585 299.9795145 +22.6770295     409.4484     72.41416      1.429     3.92     3.790843     20.40945      46.4908         9     0.994     0.691   2.82   0
        89    506.6946    857.0708 300.0963129 +22.7850363     327.8557     72.45097      1.466     3.22     3.527582     20.40945     44.11536         6     0.856     0.566   3.01   0
        90    745.6597    853.3670 300.1719392 +22.8556332     4271.115     72.37733      1.427     2.59     3.533315     20.40945     448.4614        33     1.200     1.128 -88.25   0
        91   1000.1322    854.1717 300.2510139 +22.9321357      273.225     72.32207      1.356     2.99      3.51378     20.40945     39.17052         6     0.755     0.547  34.96   0
        92    962.7252    853.5682 300.2395424 +22.9207532     1196.596     72.34049      1.652     3.19     3.606801     20.40945     94.80628        17     1.046     0.962 -53.48   0
        93    154.0340    847.9434 299.9895956 +22.6766016     445.4321     72.35892      1.415     4.23     3.779966     20.40945     52.10629         9     1.096     0.602  12.14   0
        94    462.6689    845.9521 300.0862279 +22.7686402     779.7058     72.32207      1.473     2.88      3.46283     20.40945      94.0094        13     0.956     0.872  51.23   0
        95    109.0922    844.0681 299.9768904 +22.6620006     911.7554     72.46936      1.595     3.50     3.691025     20.40945     86.53862        18     1.105     1.068  60.28   0
        96    258.7434    836.1175 300.0259925 +22.7046360     53515.22     72.41416      1.519     2.75     3.486744     20.40945     6012.534        96     1.426     1.347  65.56   0
        97    524.1738    839.2804 300.1075419 +22.7851742     582.0612     72.32207      1.423     2.66      3.71372     20.40945     72.40744        10     0.856     0.761  82.50   0
        98    516.5443    835.1356 300.1065153 +22.7816966     1606.318     72.39575      1.327     2.45     3.697907     20.40945     211.6628        17     0.998     0.876 -60.06   0
        99    929.5715    834.1436 300.2355230 +22.9052390     904.3672     72.34049      1.403     3.14     3.635224     20.40945     89.87798        16     1.104     0.879 -65.10   0
       100    187.0956    833.9664 300.0044183 +22.6825172     461.0923     72.34049      1.502     3.17     3.666273     20.40945      54.2698        10     0.906     0.732  73.47   0
       101    545.5557    831.0116 300.1168884 +22.7892143     868.7111     72.34049      1.313     2.92     3.867789     20.40945     114.2434        14     1.126     0.794  86.75   0
       102    556.5737    829.4691 300.1208204 +22.7920760     490.7102     72.34049      1.332     3.44     3.852669     20.40945     70.47433        12     0.969     0.899  -2.86   0
       103    876.1700    826.6362 300.2213143 +22.8870790     378.8274     72.35892      1.342     2.74     3.733391     20.40945     44.60627         6     0.719     0.576 -35.82   2
       104    661.8440    825.5950 300.1548630 +22.8225314      462.567     72.34049      1.352     3.43     3.737902     20.40945     58.90131        11     1.065     0.674 -51.20   0
       105    457.1406    823.1842 300.0919144 +22.7604495     171.9809     72.30363      1.244     3.90     3.545611     20.40945     32.46172         6     0.787     0.555  36.39   0
       106    699.3760    815.8555 300.1697230 +22.8309885     628.8503     72.35892      1.187     2.81     3.717747     20.40945      97.9884        11     1.008     0.700  67.29   0
       107    308.4326    813.3336 300.0488557 +22.7130113     31253.11     72.34049      1.461     2.59     3.439614     20.40945     3431.189        84     1.344     1.324  80.81   0
       108    322.6225    813.9034 300.0530835 +22.7174322      2053.01     72.26675      1.444     2.46     3.404648     20.40945     271.2726        22     1.077     1.043 -54.34   0
       109    831.5081    809.0402 300.2131157 +22.8686402     2726.454     72.34049      1.403     2.74     3.738495     20.40945     324.1212        21     1.103     0.982  78.31   0
       110    319.6691    807.9382 300.0541053 +22.7148350     679.7553     72.37733      1.534     3.40     3.411299     20.40945     63.61493         9     0.943     0.645 -36.75   0
       111    860.1622    807.1616 300.2226593 +22.8766888     331.7983     72.41416      1.429     4.64     3.770133     20.40945     46.00132         6     0.946     0.645  44.06   0
       112    589.3063    805.0044 300.1389707 +22.7948708     904.7075     72.22985      1.337     2.72      3.86697     20.40945     118.4311        12     0.979     0.779 -47.35   0
       113    425.8659    805.1476 300.0880496 +22.7458934     356.7694     72.37733      1.091     2.85     3.538792     20.40945     65.30058         8     0.831     0.659  83.15   0
       114    190.8268    804.9838 300.0150058 +22.6753262     785.8188     72.35892      1.433     3.67     3.629064     20.40945      95.2401        12     1.058     0.798  25.37   0
       115    436.5143    800.0088 300.0930346 +22.7476131     949.3017     72.26675      1.368     2.70     3.573412     20.40945     106.9772        12     0.899     0.807  82.65   0
       116    837.8265    796.5984 300.2191326 +22.8669611       529.96     72.28519      1.275     2.28     3.741791     20.40945     90.83482         9     0.850     0.627 -80.29   0
       117    338.5493    796.4236 300.0637230 +22.7171965     345.6731     72.34049      1.292     3.82     3.380285     20.40945     46.63546         7     0.877     0.662  80.12   0
       118    294.6577    795.6782 300.0503147 +22.7038141     283.7717     72.37733      1.196     4.03     3.478227     20.40945     48.79202         7     1.094     0.557 -51.91   0
       119    382.3541    794.9044 300.0778436 +22.7299021     426.7904     72.35892      1.398     2.65     3.431868     20.40945     65.33445         7     0.827     0.621  63.47   0
       120     23.9741    794.2062 299.9666660 +22.6221551     586.5592     72.32207      1.786     4.46     3.323612     20.40945     48.64652        13     1.162     0.954  68.03   0
       121    590.6537    794.2542 300.1428871 +22.7921894     323.4875     72.37733      1.275     1.81     3.906144     20.40945     57.08574         5     0.667     0.453 -72.61   0
       122    815.4360    791.4615 300.2138243 +22.8587752     455.0557     72.35892      1.259     2.77     3.701139     20.40945     50.90886         6     0.856     0.434  19.46   0
       123    188.7818    789.5090 300.0194034 +22.6702749     511.1684     72.26675      1.506     3.98     3.690098     20.40945     57.39899        10     0.971     0.758  89.18   0
       124    148.9376    782.4252 300.0093234 +22.6562860     146.0835     72.34049      1.064     4.18     3.814619     20.40945     35.09148         5     0.929     0.536  44.27   0
       125    511.9793    779.5362 300.1231804 +22.7643725     460.2276     72.30363      1.419     3.64      3.94345     20.40945     80.00199        10     1.234     0.651  62.00   0
       126    481.5148    778.0287 300.1141884 +22.7548034     652.6729     72.34049      1.398     2.87      3.82745     20.40945     69.61086        11     0.905     0.788 -37.85   0
       127    391.4357    777.0668 300.0864707 +22.7275089     420.7922     72.34049      1.339     1.96     3.490772     20.40945     60.79023         6     0.728     0.496 -88.05   0
       128    897.8834    774.2945 300.2451114 +22.8785536      3300.39     72.52452      1.384     2.58     3.700771     20.40945     484.0845        30     1.157     1.060 -88.50   0
       129    503.4485    775.4116 300.1218666 +22.7606305     1337.801     72.35892      1.294     2.54     3.929334     20.40945     161.7677        16     0.951     0.898  73.41   0
       130    423.4272    774.9839 300.0971019 +22.7365074     376.0024     72.35892      1.359     3.72     3.579383     20.40945     33.69282         6     0.805     0.494  87.42   0
       131    585.0655    770.3849 300.1489109 +22.7836626     335.7308     72.32207      1.190     2.64     4.025251     20.40945     60.92656         6     0.741     0.637  31.55   0
       132    886.4175    765.7396 300.2443190 +22.8726606      1701.64     72.28519      1.370     2.61     3.722133     20.40945     200.9184        19     1.057     0.953  22.72   0
       133    249.2645    759.9202 300.0478294 +22.6799378     873.7067     72.45097      1.291     2.67     3.607739     20.40945     102.5043        13     0.910     0.872 -18.21   0
       134    115.2286    761.1599 300.0057638 +22.6400715     278.8589     72.35892      1.322     2.94     3.743225     20.40945     51.36937         5     0.826     0.459  42.45   0
       135    265.6282    760.2938 300.0527959 +22.6849547     203.8466     72.24831      0.995     3.14     3.585918     20.40945     43.64729         5     0.714     0.478 -82.30   0
       136    712.6141    757.0953 300.1929605 +22.8180873     2488.385     72.26675      1.341     2.43     3.759781     20.40945     320.4989        23     1.121     0.940 -40.67   2
       137    917.5330    755.8117 300.2572503 +22.8791326     1717.544     72.34049      1.404     2.41     3.729232     20.40945     202.3452        18     1.061     0.909  49.64   0
       138    930.9574    746.9808 300.2643088 +22.8806182     339.5445     72.35892      1.643     4.74     3.758379     20.40945      30.8191         6     0.891     0.714 -44.82   0
       139     98.2264    743.5577 300.0062048 +22.6299215     615.2563     72.37733      1.374     2.64     3.754751     20.40945     78.17904        11     0.896     0.782  42.00   0
       140    795.1618    742.7581 300.2233463 +22.8387126     560.4034     72.43256      1.522     3.43     3.587674     20.40945     72.07106         9     1.069     0.711  36.40   0
       141    831.1469    733.9762 300.2374187 +22.8469748     146758.3     72.35892      1.360     2.41     3.636725     20.40945     19894.62       155     1.386     1.325  80.18   0
       142    593.3358    737.7429 300.1621021 +22.7767727     393.7554     72.39575      1.224     3.70     4.154207     20.40945     58.98965         7     0.932     0.672 -84.05   0
       143    978.1615    735.5928 300.2827348 +22.8914891      1276.23     72.35892      1.505     3.10     3.574394     20.40945      145.784        18     1.076     1.033  81.67   0
       144    683.5786    734.0383 300.1914135 +22.8027634     824.2561     72.35892      1.264     2.75     3.945664     20.40945     98.40315        12     0.891     0.855  70.74   0
       145    863.9542    726.5200 300.2500709 +22.8546643     447.5931     72.32207      1.299     3.61     3.717023     20.40945     52.63023         8     0.979     0.573  43.23   0
       146    517.4380    722.9109 300.1432952 +22.7497580      1576.63     72.32207      1.287     2.33     4.194219     20.40945     213.5642        18     1.042     0.846  69.83   0
       147    698.6264    720.1523 300.2006170 +22.8032870      9424.12     72.35892      1.266     2.17     3.881752     20.40945     1328.665        39     1.139     1.048 -85.42   0
       148    200.1379    715.5000 300.0470009 +22.6524568     4809.783     72.39575      1.401     2.61     3.905684     20.40945     505.5213        33     1.191     1.103 -78.67   0
       149    282.2527    713.5607 300.0731621 +22.6765365     1035.722     72.32207      1.366     2.70     3.686612     20.40945     144.8745        17     1.021     0.904 -70.17   0
       150    158.0110    711.2648 300.0352837 +22.6386017     429.1704     72.26675      1.395     2.51     4.086263     20.40945     73.82825         9     0.908     0.652  48.83   0
       151    490.5116    708.9141 300.1394650 +22.7376664     617.5642     72.48775      1.105     2.19     4.244567     20.40945     116.8256        11     0.880     0.705  56.39   0
       152    382.3998    705.2427 300.1070164 +22.7041903     153.9564     72.34049      1.100     3.40     3.715432     20.40945     30.10649         5     0.747     0.448  70.61   0
       153    482.1129    701.0850 300.1393966 +22.7329009     3203.329     72.46936      1.276     2.14      4.28848     20.40945     486.8149        23     1.006     0.941  68.40   0
       154    472.3453    694.8081 300.1383974 +22.7281704     1313.288     72.34049      1.261     2.35     4.261993     20.40945     197.2336        18     1.018     0.861  77.79   0
       155    400.6302    693.9402 300.1163631 +22.7064147     353.6848     72.37733      1.482     2.99     3.836765     20.40945      42.8946         5     0.859     0.483  88.82   0
       156    866.0386    692.3525 300.2618313 +22.8454743     468.9602     72.37733      1.370     2.26     3.776945     20.40945     62.49477         7     0.712     0.616 -34.78   0
       157    383.2339    692.3669 300.1114623 +22.7007458     298.8053     72.41416      1.160     3.43     3.783882     20.40945     36.96646         5     0.725     0.469  11.61   0
       158    135.6300    691.1328 300.0348734 +22.6261120     638.1175     72.32207      1.495     3.25     4.061476     20.40945     81.32871        13     1.073     0.859   6.56   0
       159    149.8563    689.6343 300.0397818 +22.6299510     566.5535     72.35892      1.295     2.99     4.081232     20.40945     79.95879        10     0.996     0.647  42.23   0
       160    175.9332    686.3661 300.0489493 +22.6368380     538.3563     72.34049      1.406     3.45     4.034228     20.40945      70.8851         9     1.005     0.643  81.23   0
       161    919.3456    685.5729 300.2806571 +22.8594980     735.2734     72.34049      1.991     3.37     3.804235     20.40945     62.69622         8     0.815     0.765  88.39   0
       162    397.1395    684.7790 300.1182556 +22.7027388     1911.984     72.28519      1.373     2.50     3.874881     20.40945     235.9965        20     1.024     1.015 -46.63   0
       163    206.9516    686.2507 300.0586288 +22.6461113     372.4829     72.37733      1.170     3.06     3.907819     20.40945     55.40927         5     0.802     0.543 -83.97   0
       164    496.3385    684.9354 300.1490752 +22.7325312     412.6613     72.37733      1.169     2.49      4.36792     20.40945     72.48778         7     0.814     0.566  64.17   0
       165     51.0606    679.6448 300.0123313 +22.5974393     19836.58     72.35892      1.535     2.80     3.928063     20.40945     2047.796        62     1.350     1.322  47.82   0
       166    972.8417    681.5936 300.2986353 +22.8743806     794.8699     72.37733      1.309     2.44     3.671708     20.40945      110.961        11     0.925     0.713  49.66   0
       167    482.1257    679.8240 300.1463132 +22.7268024     956.7036     72.37733      1.256     2.18     4.409674     20.40945     166.3779        12     0.881     0.755 -70.84   0
       168    517.5928    678.9843 300.1576260 +22.7371959     455.1202     72.26675      1.398     1.75      4.37173     20.40945     74.60125         7     0.649     0.636  29.08   0
       169    235.3551    671.4174 300.0722815 +22.6503775     183.3395     72.35892      0.860     3.13     3.848952     20.40945     53.71781         5     0.730     0.442  22.08   0
       170    565.3218    667.4170 300.1762460 +22.7481852     289.9348     72.34049      1.127     4.44     4.378897     20.40945     39.73011         7     1.075     0.523  44.61   0
       171    900.0994    665.9949 300.2810211 +22.8481073      959.976     72.22985      1.332     2.43     3.807959     20.40945     146.1422        13     0.959     0.803  80.40   0
       172    766.8762    663.9069 300.2401709 +22.8075898     422.6514     72.48775      1.233     2.86     3.715309     20.40945     68.12758        10     0.873     0.747  78.00   0
       173     63.6686    663.9335 300.0213556 +22.5967175     416.0364     72.39575      1.377     3.01     4.011831     20.40945     50.68659         5     0.902     0.346 -45.24   0
       174    840.3490    658.4796 300.2648358 +22.8280467     971.3863     72.34049      1.825     3.12     3.760808     20.40945     84.95039        15     1.102     0.877  38.92   2
       175    402.1676    652.7737 300.1302248 +22.6950617     782.9494     72.34049      1.255     3.32     4.120796     20.40945     115.6881        13     1.031     0.822 -46.86   0
       176    549.9523    651.3698 300.1766776 +22.7389705     432.2324     72.35892      1.252     2.68     4.455049     20.40945     72.61585         9     0.796     0.763 -85.95   0
       177    597.2981    649.8930 300.1918998 +22.7527398     426.9403     72.52452      1.197     2.65     4.417914     20.40945     69.84241         9     0.801     0.796  -0.68   0
       178    567.8813    649.3264 300.1829241 +22.7437587     554.9412     72.45097      1.200     2.51     4.447479     20.40945     90.95383         9     0.880     0.628  76.29   0
       179    446.4373    648.6774 300.1453318 +22.7071612     875.3322     72.30363      1.221     2.23     4.388165     20.40945     122.0178        14     0.873     0.835 -71.35   0
       180    880.0988    644.0562 300.2819174 +22.8358123     3194.572     72.43256      1.288     2.27     3.810349     20.40945     494.2475        25     1.028     1.021 -34.22   0
       181    411.8311    643.9674 300.1360943 +22.6954322     1714.291     72.35892      1.283     2.14     4.257319     20.40945     289.8532        19     0.974     0.890  88.45   0
       182    978.2774    641.9453 300.3132213 +22.8646160     722.3539     72.37733      1.392     2.77     3.690948     20.40945     107.9995        13     1.114     0.774  88.36   0
       183    776.4643    640.8837 300.2506437 +22.8038501     255.2576     72.45097      1.347     4.22     3.796314     20.40945      36.6025         5     0.963     0.527  42.21   0
       184    919.4141    634.1401 300.2974001 +22.8447411     388.5743     72.30363      1.180     3.22     3.808326     20.40945     54.44522         8     0.877     0.663  71.68   0
       185    440.9534    634.9506 300.1480873 +22.7015769     304.0987     72.37733      1.315     3.45     4.463934     20.40945     45.50241         7     0.873     0.538  49.24   0
       186    275.3355    630.8782 300.0978907 +22.6507396     9131.766     72.43256      1.310     2.27     3.840672     20.40945     1222.125        38     1.152     1.070  67.30   0
       187    397.7470    627.8489 300.1369515 +22.6865826     9209.345     72.37733      1.273     2.11     4.280752     20.40945     1455.531        43     1.166     1.063  71.35   0
       188    644.2459    623.6747 300.2150439 +22.7592837     377.9736     72.34049      1.301     3.52     4.267521     20.40945     55.04822         6     0.938     0.428 -86.94   0
       189     41.9099    624.1729 300.0275198 +22.5787854     380.3716     72.30363      1.614     4.09     3.957345     20.40945     40.44298         7     0.912     0.663 -10.92   0
       190   1002.3752    622.8235 300.3269545 +22.8663384     1008.483     72.30363      1.479     3.05     3.653035     20.40945     106.9952        13     0.999     0.862 -15.89   0
       191    809.4432    621.7167 300.2671530 +22.8082259     1847.712     72.30363      1.236     2.18     3.789632     20.40945     251.1856        17     0.948     0.850 -65.15   0
       192    894.0771    619.0398 300.2944080 +22.8328124     12359.66     72.32207      1.321     2.20     3.811269     20.40945     1856.073        42     1.155     1.097  78.46   0
       193    458.3561    617.4485 300.1591920 +22.7017710     11405.62     72.37733      1.205     2.12      4.63845     20.40945     1458.024        48     1.157     1.064 -86.10   0
       194    185.6051    612.9255 300.0758280 +22.6186727     1384.533     72.26675      1.438     2.62     3.967787     20.40945     184.2447        16     1.010     0.899  50.09   0
       195    627.8565    613.1075 300.2133741 +22.7513369     562.3827     72.39575      1.227     2.18     4.372712     20.40945     91.18825        10     0.850     0.665   6.26   0
       196    432.7870    610.3932 300.1535281 +22.6920793      372.426     72.22985      1.202     2.87      4.62483     20.40945       49.771         6     0.700     0.637  63.60   0
       197    390.0192    605.6047 300.1417770 +22.6778809     4374.941     72.28519      1.247     2.18     4.357302     20.40945     666.8028        30     1.066     1.006  63.05   0
       198    732.8759    605.4044 300.2485935 +22.7805978     814.4885     72.24831      1.238     2.42     4.102629     20.40945     129.7041        11     0.855     0.779 -86.65   0
       199    368.2579    604.1245 300.1354880 +22.6709305      1315.64     72.39575      1.309     2.25     4.174561     20.40945     178.4655        17     1.033     0.863  50.35   0
       200    122.6497    603.4595 300.0593378 +22.5970703     809.0977     72.39575      1.455     3.11     4.019526     20.40945     89.21677        14     1.051     0.858  59.34   0
       201    809.9051    600.9889 300.2740344 +22.8024096       1686.3     72.28519      1.359     2.58     3.882695     20.40945     212.1596        22     1.110     0.976 -33.77   0
       202    506.6103    593.1624 300.1821046 +22.7092660     198099.9     72.34049      1.251     2.09     4.700553     20.40945     30184.41       201     1.383     1.376 -68.52   0
       203     56.8908    600.8246 300.0397619 +22.5765844     330.8944     72.28519      1.652     4.43      3.96808     20.40945     38.03894         6     0.823     0.678   5.71   0
       204    330.1249    598.9892 300.1252950 +22.6580213     377.7458     72.35892      1.651     4.52     4.003634     20.40945      55.5351         8     1.159     0.741  65.89   0
       205    690.2910    597.7987 300.2377976 +22.7656520     914.0313     72.24831      1.253     2.41     4.119901     20.40945     134.9668        12     0.944     0.744 -79.74   0
       206    783.5670    596.2067 300.2673797 +22.7931446     337.9258     72.34049      1.392     3.98     3.978548     20.40945     43.54626         6     0.927     0.567  25.96   0
       207    192.7783    593.1650 300.0844799 +22.6151553     3047.714     72.35892      1.215     2.23     3.918024     20.40945     466.3812        28     1.103     1.033  22.01   0
       208    758.8329    588.9742 300.2620221 +22.7836561      452.072     72.34049      1.278     2.80     4.097466     20.40945     66.71928         9     0.885     0.677  83.53   0
       209    537.9801    580.3118 300.1960465 +22.7149802     307.3401     72.28519      1.440     3.46     4.651352     20.40945     56.37276         5     1.010     0.404 -67.44   0
       210    397.2710    573.4984 300.1544675 +22.6708398     2784.353     72.48775      1.280     2.14     4.509886     20.40945     358.0733        24     1.020     0.977  62.52   2
       211    241.3542    575.7733 300.1052335 +22.6247356     492.5573     72.35892      1.223     2.57     3.840903     20.40945     76.65575         8     0.856     0.627   4.94   0
       212    847.0565    573.4537 300.2945646 +22.8056286     226.0136     72.39575      1.213     1.92     4.094352     20.40945     58.83854         5     0.675     0.454  24.17   0
       213    983.9316    570.0607 300.3383507 +22.8456506     210.7817     72.39575      1.288     3.67     3.703096     20.40945      33.9479         6     0.860     0.682  42.29   0
       214    808.9193    569.5867 300.2839331 +22.7930926     341.8661     72.32207      1.298     3.01     4.119064     20.40945      48.4203         6     0.786     0.485  -8.09   0
       215    714.3378    561.8401 300.2569758 +22.7625294     502.3422     72.34049      1.408     3.11     4.242662     20.40945     57.51556        10     0.932     0.714  48.58   0
       216    794.2172    559.5154 300.2826236 +22.7857945     1728.644     72.30363      1.198     1.98     4.203446     20.40945     277.5414        15     0.934     0.800  87.62   0
       217    680.9780    560.0508 300.2471641 +22.7520192     325.3283     72.34049      1.432     2.86      4.22197     20.40945     40.64161         5     0.628     0.590  88.63   0
       218    665.3837    557.2663 300.2432112 +22.7465464      2593.91     72.32207      1.182     2.13     4.243043     20.40945     384.5176        18     0.973     0.822  73.58   0
       219     25.2488    557.6048 300.0439767 +22.5546940     352.4217     72.32207      1.253     2.71     3.951321     20.40945      39.1212         5     0.713     0.456 -18.65   0
       220    909.7061    554.5942 300.3202272 +22.8189753     564.5355     72.22985      1.114     2.20     3.942676     20.40945      75.5211         9     0.795     0.688 -27.82   0
       221    874.6550    553.8179 300.3095502 +22.8082536     324.9649     72.32207      1.298     3.38      4.17458     20.40945     37.48022         5     0.769     0.430  71.44   0
       222    570.1954    553.9703 300.2146369 +22.7170725     367.9069     72.32207      1.112     2.58     4.527857     20.40945     71.61126         8     0.857     0.618  28.41   0
       223    452.7674    553.1439 300.1783509 +22.6816354     759.4858     72.35892      1.221     2.35     4.675657     20.40945     117.1367        11     0.856     0.775  45.94   0
       224    922.5725    551.1652 300.3253539 +22.8218435     1328.908     72.35892      1.323     2.43     3.862726     20.40945     183.1914        16     1.048     0.892  73.31   0
       225    794.4114    549.4662 300.2859497 +22.7829655     2281.587     72.30363      1.477     3.72     4.282399     20.40945     299.3631        25     1.556     0.845  81.06   0
       226    908.5953    550.2072 300.3213065 +22.8173819     850.9285     72.19293      1.481     3.13     3.961989     20.40945     92.24352        11     1.016     0.698 -16.29   0
       227    547.9059    547.8882 300.2096733 +22.7086452     760.0513     72.52452      1.342     2.14     4.609754     20.40945     103.8821         9     0.758     0.703  69.27   0
       228    832.6434    544.7319 300.2994053 +22.7930584     4206.835     72.32207      1.201     2.17     4.309606     20.40945     606.3422        27     1.042     0.968 -67.83   0
       229    386.2599    546.5133 300.1598104 +22.6597923      365.179     72.43256      1.222     2.88     4.571546     20.40945     64.94254         6     0.806     0.525 -38.59   0
       230    333.7270    547.7392 300.1430698 +22.6443925     356.2507     72.37733      1.158     2.66     4.333103     20.40945     47.65672         6     0.695     0.642 -56.86   0
       231    570.3932    541.2046 300.2188467 +22.7134658     251.2159     72.19293      1.014     2.30     4.515612     20.40945     39.72762         5     0.686     0.468  73.93   0
       232    493.3774    540.7163 300.1950287 +22.6902412     335.2703     72.30363      1.259     3.11     4.710812     20.40945     55.05791         7     0.945     0.463  80.04   0
       233     64.6550    535.2744 300.0634738 +22.5601118     1100.918     72.35892      1.495     2.79     3.954891     20.40945     120.7281        18     1.089     1.012 -61.65   0
       234    924.5313    535.0172 300.3312121 +22.8177893      718.479     72.34049      1.123     2.52     3.876323     20.40945     112.2033        13     0.950     0.793 -22.45   0
       235    725.6452    528.5743 300.2713086 +22.7563613     345.2707     72.35892      1.047     2.23     4.305633     20.40945     54.88486         5     0.664     0.469  19.30   0
       236    112.1851    528.0107 300.0806022 +22.5722867     279.1632     72.24831      1.397     3.80      3.88505     20.40945     33.17419         5     0.815     0.507 -31.18   0
       237     57.0982    525.6702 300.0642463 +22.5550896      540.996     72.46936      1.454     2.33     4.053501     20.40945     62.78018         7     0.802     0.558  32.09   0
       238    920.6684    524.3510 300.3334733 +22.8135670     476.6256     72.34049      1.098     2.57     3.929011     20.40945     86.27713         6     0.852     0.465  -8.69   0
       239    665.0667    519.3249 300.2554410 +22.7355533     444.9486     72.41416      1.115     1.81     4.236942     20.40945     90.73183         7     0.663     0.619  26.71   0
       240    273.5122    517.7668 300.1340805 +22.6177336     300.9021     72.32207      1.028     3.02     4.102779     20.40945     42.62691         5     0.736     0.442 -66.66   0
       241    553.6889    516.9098 300.2215394 +22.7014825     390.2687     72.50613      1.280     2.39     4.590978     20.40945     63.54235         7     0.745     0.609  70.36   0
       242    606.0646    515.1291 300.2384271 +22.7166676     885.7884     72.37733      1.322     2.05     4.323325     20.40945     159.0697        11     0.891     0.668  87.92   0
       243   1013.6674    512.6866 300.3662711 +22.8380633     1031.835     72.45097      1.297     3.11     4.147631     20.40945     142.6358        14     1.051     0.847 -85.10   0
       244    585.1304    513.1689 300.2325448 +22.7098311     130.1256     72.34049      1.131     3.72     4.430125     20.40945     36.99402         5     0.965     0.412  46.02   0
       245    920.6223    507.6745 300.3388775 +22.8087601     585.5692     72.34049      1.200     3.06     3.963633     20.40945      85.9441        12     1.070     0.694 -51.16   0
       246    666.7545    507.4883 300.2598124 +22.7326590     822.7186     72.34049      1.137     1.93     4.220544     20.40945     123.9178        12     0.832     0.772 -30.47   0
       247    824.1168    503.5958 300.3101135 +22.7786839      972.887     72.26675      1.192     2.16     4.309606     20.40945     158.1106        12     0.926     0.720 -57.28   0
       248    808.1357    499.8860 300.3063373 +22.7728310     742.4739     72.43256      1.320     2.17     4.309606     20.40945     99.83795         9     0.756     0.702 -37.36   0
       249    788.7780    500.3734 300.3001454 +22.7671724     301.6932     72.32207      1.003     2.15      4.31037     20.40945     48.78364         5     0.693     0.454 -18.74   0
       250    552.6486    498.0587 300.2273400 +22.6957569     3241.001     72.39575      1.189     1.97     4.602202     20.40945     541.7329        20     0.967     0.851  78.72   0
       251    699.2485    497.5215 300.2731734 +22.7395317     195.5319     72.34049      1.016     3.08     4.247788     20.40945     54.62829         7     0.929     0.525 -63.35   0
       252    913.2228    496.6609 300.3401483 +22.8033787     510.3141     72.32207      1.180     2.56      4.03346     20.40945     92.86436         9     0.908     0.697 -39.07   0
       253     28.7298    489.2935 300.0672507 +22.5361438     353.3564     72.46936      1.270     3.61     4.600068     20.40945     54.55733         6     0.773     0.527 -50.27   0
       254   1023.5145    485.6123 300.3781398 +22.8332282     384.5644     57.14646      1.120     2.55     4.648207     20.40945     71.68557         8     0.879     0.627 -88.93  24
       255    324.4248    485.8871 300.1602713 +22.6238494      214.855     72.28519      0.942     2.39     4.477605     20.40945     45.62372         5     0.702     0.465 -71.41   0
       256    392.4056    485.0914 300.1816779 +22.6440020     286.5695     72.24831      1.025     2.07     4.539117     20.40945      90.6304         7     0.797     0.595  26.53   0
       257    963.9295    477.0132 300.3623457 +22.8129154      1334.74     72.34049      1.281     2.02     4.271729     20.40945     213.2556        14     0.923     0.809  85.73   0
       258    922.3438    475.6762 300.3498101 +22.8000785      994.986     72.37733      1.263     2.12     4.049209     20.40945     149.0655        16     0.966     0.918  61.54   0
       259    835.7846    476.7030 300.3224876 +22.7744505     363.1607     72.24831      1.098     2.50     4.313451     20.40945      88.4167        10     0.889     0.731 -53.37   0
       260    663.0797    471.9827 300.2702024 +22.7213583     1092.746     72.34049      1.215     2.15     4.194022     20.40945     163.0695         9     0.733     0.715 -24.27   0
       261    458.9687    472.5689 300.2064588 +22.6603595     359.4214     72.35892      1.031     1.82      4.57133     20.40945     82.22556         6     0.720     0.495   0.40   0
       262    167.4041    470.4471 300.1164633 +22.5723325     688.6872     72.32207      1.417     3.40     4.139587     20.40945     88.44127        14     1.152     0.795 -19.49   0
       263    229.5888    466.0114 300.1372355 +22.5897080     3701.202     72.22985      1.310     2.21     4.361298     20.40945     527.2894        24     1.080     0.952  71.53   0
       264    962.6143    464.2225 300.3660906 +22.8088447     4307.596     72.34049      1.255     2.20     4.307092     20.40945     551.1346        27     1.088     0.975 -85.75   0
       265    176.7853    460.8112 300.1225091 +22.5723807     7670.982     72.26675      1.334     2.39     4.230216     20.40945     1067.609        37     1.189     1.054  62.46   0
       266    681.6898    460.5836 300.2797026 +22.7236592     206.2916     72.26675      1.072     4.53     4.196543     20.40945     48.62468         5     1.022     0.618 -67.15   0
       267    554.9929    460.4364 300.2402914 +22.6856542        213.2     72.34049      1.112     3.12     4.581431     20.40945     47.42907         6     0.783     0.487  -8.58   0
       268    317.5923    455.0509 300.1681624 +22.6129489     4802.428     72.34049      1.231     2.08      4.47016     20.40945     722.7196        26     1.031     0.941  74.82   0
       269    942.6396    455.3283 300.3627497 +22.8003070     1694.288     72.32207      1.166     2.15     4.235066     20.40945     242.6622        18     0.956     0.857  66.44   0
       270    561.7346    451.6448 300.2452462 +22.6851493     18230.49     72.34049      1.185     1.99     4.530935     20.40945     3059.633        52     1.166     1.095  25.13   0
       271    578.2993    452.1931 300.2502260 +22.6902705     657.6716     72.22985      1.426     2.46     4.427391     20.40945     86.78338         8     0.826     0.667  52.00   2
       272    580.6042    450.3523 300.2515417 +22.6904325     453.9581     72.32207      1.296     2.35      4.40639     20.40945     53.00393         5     0.667     0.497 -83.10   3
       273    409.1403    453.1400 300.1972635 +22.6398448     379.1451     72.41416      1.381     2.90     4.405096     20.40945     53.40921         5     0.885     0.405  44.99   0
       274    961.3530    452.1650 300.3696140 +22.8050009      241.601     72.35892      1.228     3.51      4.33715     20.40945     28.56511         5     0.805     0.442  74.26   0
       275    805.1300    448.0174 300.3222502 +22.7570254     348.3334     72.35892      1.228     3.04     4.313231     20.40945     48.37312         6     0.744     0.553  61.90   0
       276    758.7976    442.2581 300.3096806 +22.7414926     370.4953     72.30363      1.243     2.35     4.259552     20.40945     78.05234         9     0.810     0.731  78.21   0
       277    181.6370    439.0336 300.1310903 +22.5675858     355.2596     72.37733      1.314     3.87     4.375736     20.40945      40.0355         9     0.918     0.691  16.89   0
       278    895.3235    434.0488 300.3549061 +22.7800217     763.4897     72.34049      1.210     2.40     4.354431     20.40945     123.3168        13     0.886     0.809  61.36   0
       279    432.4027    433.6579 300.2108298 +22.6412234     479.9718     72.30363      1.634     4.50     4.300122     20.40945     39.12709         7     0.885     0.652  20.01   0
       280    116.5176    431.9455 300.1131527 +22.5460225     1962.113     72.39575      1.363     2.39     4.482191     20.40945     268.6879        23     1.059     1.029  31.77   0
       281    129.2856    427.4036 300.1185957 +22.5485484     159.0967     72.26675      1.223     3.48     4.501948     20.40945     35.30754         5     0.797     0.439  19.16   0
       282    502.3880    421.0394 300.2367103 +22.6585744      6551.08     72.34049      1.223     2.11     4.356349     20.40945     975.7627        32     1.088     0.954  88.25   0
       283    915.8693    421.2760 300.3654616 +22.7825022     1089.145     72.41416      1.210     2.23     4.405489     20.40945     173.6483        14     0.937     0.786  67.60   0
       284    216.9572    420.4041 300.1481206 +22.5728302     678.6506     72.35892      1.331     2.93     4.495962     20.40945     89.02245        12     0.936     0.855  89.84   0
       285     74.7118    413.8244 300.1060469 +22.5282842     306.0348     72.30363      1.193     2.50     4.669645     20.40945     71.38521        11     0.921     0.730  11.18   0
       286    706.5460    409.9762 300.3038837 +22.7165648     1037.728     72.35892      1.263     2.29       4.1888     20.40945      167.788        16     1.027     0.846  87.39   0
       287    616.1480    411.1604 300.2753396 +22.6898239     537.2535     72.34049      1.234     1.96     4.197493     20.40945     93.52225         9     0.726     0.698 -62.28   0
       288    409.0226    407.4012 300.2120816 +22.6266759     6094.934     72.26675      1.233     2.08     4.230887     20.40945     926.7078        31     1.076     0.952  79.37   0
       289    993.1222    408.1861 300.3938083 +22.8018684     301.0833     72.35892      1.180     3.87     4.432545     20.40945     46.17608         6     0.962     0.446  37.24   0
       290    986.9467    405.3935 300.3927888 +22.7992166     231.1696     72.34049      1.500     4.60     4.413667     20.40945     27.96935         5     0.993     0.606 -74.55   0
       291    898.5454    402.0498 300.3663035 +22.7717881     615.9772     72.37733      1.366     3.42     4.415599     20.40945     101.5097        11     1.109     0.706  34.38   0
       292    800.9401    401.6103 300.3360167 +22.7424333     1309.716     72.30363      1.182     2.10     4.335973     20.40945     220.5986        13     0.864     0.758 -84.90   0
       293    393.6715    396.1236 300.2109673 +22.6188363     544.1737     72.43256      1.366     3.33     4.257902     20.40945     68.48402        10     1.014     0.668  38.68   0
       294    476.2729    393.9767 300.2373699 +22.6429756     354.1328     72.37733      1.224     1.95     4.447717     20.40945     77.06007         7     0.719     0.601  82.39   0
       295    456.5261    391.7786 300.2319377 +22.6364265     186.3445     72.34049      1.033     2.19     4.399441     20.40945     55.26286         5     0.699     0.456 -67.48   0
       296    773.6736    389.3217 300.3315091 +22.7307354     625.2526     72.45097      1.265     2.08     4.297612     20.40945     103.7908         9     0.857     0.598 -85.86   0
       297    296.5894    386.6690 300.1838374 +22.5870208     2493.001     72.32207      1.200     2.24     4.406601     20.40945     358.8351        22     1.096     0.913  67.26   0
       298     15.1990    384.0811 300.0972162 +22.5018998     917.6968     72.22985      1.357     2.72     4.651962     20.40945     117.8023        15     1.038     0.806  62.35   0
       299    243.7433    379.9557 300.1695835 +22.5692506      255.155     72.35892      1.230     4.26     4.578564     20.40945      31.6891         7     0.743     0.696  49.83   0
       300    265.9069    376.0750 300.1777353 +22.5747811     29651.67     72.48775      1.331     2.20     4.494293     20.40945     4362.869        71     1.261     1.180  64.82   0
       301    800.5523    373.3168 300.3450837 +22.7341850     1386.047     72.34049      1.147     2.11     4.386951     20.40945     189.3553        15     0.900     0.817  81.14   0
       302    755.8615    371.1619 300.3318549 +22.7201816     225.6928     72.35892      1.061     2.18     4.279433     20.40945     57.96754         6     0.719     0.545 -42.22   0
       303    715.8494    362.3671 300.3222425 +22.7056703     516.2753     72.37733      1.182     2.21     4.225665     20.40945     98.20561         9     0.853     0.595  75.21   0
       304    140.3077    362.4022 300.1431278 +22.5331986     493.4805     72.24831      1.358     2.92     4.717072     20.40945     56.68377        10     0.862     0.787 -63.59   0
       305    364.4395    361.2475 300.2131969 +22.6000597     510.5494     72.37733      1.251     3.14      4.21686     20.40945     61.54082         9     0.988     0.640  68.46   0
       306    676.3079    355.6491 300.3121044 +22.6918962     1891.713     72.37733      1.167     2.02     4.195726     20.40945     309.0652        16     0.953     0.778  71.43   0
       307    891.3138    348.5223 300.3814302 +22.7542344     674.9985     72.46936      1.307     3.47      4.38813     20.40945     80.00796        12     0.989     0.858 -52.36   0
       308    338.0757    340.3970 300.2117648 +22.5861704     2154.995     72.24831      1.368     2.49      4.20406     20.40945      293.778        24     1.319     0.900  61.83   0
       309    550.6979    339.2950 300.2782937 +22.6495687      436.045     72.52452      1.336     2.50     4.872254     20.40945     48.52418         6     0.714     0.586 -41.35   0
       310    777.2344    333.0711 300.3508833 +22.7156342     499.0067     72.34049      1.057     2.04     4.359334     20.40945     123.1954         8     0.777     0.590  47.13   0
       311    769.7511    333.6291 300.3483700 +22.7135536     91.58356     72.35892      1.121     3.40     4.340944     20.40945     33.50696         5     0.736     0.454  16.54   0
       312    676.6051    330.9664 300.3202107 +22.6848921     253.3077     72.32207      1.039     2.95     4.271733     20.40945     66.91055         6     0.909     0.479 -82.70   0
       313    659.7290    330.8505 300.3149911 +22.6798041     432.4623     72.34049      1.157     2.76     4.268485     20.40945     69.75048         8     0.762     0.687 -67.32   0
       314    627.6913    330.0504 300.3052716 +22.6699777     242.7695     72.35892      1.251     4.16     4.258821     20.40945     37.83018         6     0.791     0.626  36.92   0
       315    414.0351    319.6595 300.2421296 +22.6029796     1259.259     72.35892      1.288     2.09     4.285779     20.40945      205.175        13     0.915     0.753 -75.73   0
       316    221.2564    319.9885 300.1820603 +22.5452934     394.0553     72.32207      1.447     3.50     4.464262     20.40945     48.04303         5     1.127     0.313 -23.41   0
       317    925.0667    315.1493 300.4027909 +22.7547437     419.4396     72.32207      1.399     3.95     4.344608     20.40945     55.91108         7     0.907     0.492  40.04   0
       318    797.4792    312.5778 300.3638464 +22.7158055     236.2232     72.30363      1.154     2.89     4.411854     20.40945     50.36306         6     0.868     0.455  73.81   0
       319    658.8393    311.5283 300.3209867 +22.6739849     2251.217     72.32207      1.224     2.13     4.321637     20.40945     358.3359        17     0.933     0.851  62.06   0
       320    920.1000    305.8658 300.4042558 +22.7505875      3198.77     72.43256      1.294     2.02     4.349765     20.40945     546.3657        24     1.047     0.932  64.27   0
       321    981.1161    300.5326 300.4250181 +22.7673178     404.8766     72.45097      1.303     2.83     4.133315     20.40945     55.43267         8     0.830     0.668 -55.71   0
       322    367.0922    295.5765 300.2353411 +22.5819950     616.4867     72.26675      1.187     3.10     4.188438     20.40945     108.6531        11     1.092     0.609  66.17   0
       323    989.4904    293.6249 300.4298729 +22.7678377     1733.526     72.28519      1.344     2.37     4.101489     20.40945      227.857        18     1.022     0.895  65.58   0
       324     41.9515    289.8804 300.1361066 +22.4828906      1337.53     72.35892      1.554     2.90     4.365677     20.40945      171.484        22     1.235     1.046 -26.17   0
       325     72.7215    289.5050 300.1457884 +22.4920095     603.6599     72.46936      1.397     3.54     4.479537     20.40945     68.44371        11     1.014     0.790 -63.97   0
       326    935.6436    286.3008 300.4154545 +22.7496142     501.9189     72.34049      1.352     2.92     4.315405     20.40945     93.12138        12     1.026     0.900 -86.24   0
       327    789.8590    286.6307 300.3698941 +22.7060648     314.5047     72.35892      1.201     2.31     4.397538     20.40945     56.06596         5     0.798     0.510 -53.27   0
       328    779.2318    283.4988 300.3675984 +22.7019824     336.6402     72.32207      1.187     3.70     4.378488     20.40945     43.94721         7     0.853     0.616 -78.50   0
       329    126.0394    281.6434 300.1649084 +22.5057393     425.0745     72.43256      1.210     2.75     4.667979     20.40945     72.17507        10     0.958     0.655  61.79   0
       330    920.9648    278.6035 300.4133751 +22.7430069     290.8165     72.34049      1.419     3.00      4.35555     20.40945     63.96822         7     0.970     0.563  72.44   0
       331    801.9316    274.8959 300.3774660 +22.7063059     310.7462     72.46936      1.268     2.03     4.436134     20.40945     61.60973         6     0.699     0.550  39.35   0
       332    730.4687    272.8823 300.3558479 +22.6843291      647.509     72.45097      1.034     2.04     4.332019     20.40945     106.5444         8     0.771     0.610  50.32   0
       333    320.8672    272.9042 300.2283202 +22.5616305     386.6626     72.46936      1.147     2.57     4.172265     20.40945     71.30616         9     0.892     0.630  80.33   0
       334    821.1458    265.8273 300.3863988 +22.7094513      315.057     72.34049      1.226     3.51     4.431863     20.40945     55.46775         9     1.087     0.629  76.04   0
       335      4.7543    265.4599 300.1324770 +22.4647276     269.6574     71.11398      1.086     3.46     4.223481     20.40945     35.69249         5     0.780     0.442 -20.91  16
       336    828.5344    261.9147 300.3899720 +22.7105384     2069.083     72.43256      1.210     2.20     4.428329     20.40945     311.3597        19     1.033     0.825 -88.87   0
       337    247.0838    259.4710 300.2097332 +22.5356592     2230.568     72.46936      1.298     2.43     4.173977     20.40945     285.9507        18     0.997     0.868  78.96   0
       338     76.9385    255.5806 300.1581086 +22.4835364     498.1789     72.30363      1.695     4.94     4.490987     20.40945     39.62855         9     1.004     0.687  54.43   0
       339    324.9318    254.5025 300.2355567 +22.5575637     1128.822     72.45097      1.419     2.70     4.176314     20.40945     135.8081        15     0.938     0.917 -72.33   0
       340    726.9080    253.6715 300.3609735 +22.6777407     566.2529     72.48775      1.246     2.51     4.397509     20.40945     84.93946        10     0.881     0.695 -87.79   0
       341    833.9869    250.9179 300.3952409 +22.7090089     532.5125     72.32207      1.353     2.11     4.429309     20.40945     65.69143         7     0.809     0.505  55.04   0
       342    141.8886    246.7546 300.1811569 +22.5004751     668.8305     72.35892      1.286     3.06     4.626793     20.40945     90.98573        11     1.013     0.708  89.74   0
       343    259.8754    246.2288 300.2180083 +22.5356904     262.5295     72.35892      1.122     2.72     4.183037     20.40945     48.88818         5     0.904     0.337  46.35   0
       344    679.7270    243.3617 300.3496192 +22.6606488     1706.543     72.30363      1.178     2.17     4.465734     20.40945     230.4261        17     0.967     0.838  84.94   0
       345    744.6261    242.9451 300.3699759 +22.6799625     637.6823     72.34049      1.315     2.35     4.430598     20.40945     83.00516         8     0.751     0.652 -64.72   0
       346    163.1214    240.0043 300.1899470 +22.5049021     489.2985     72.24831      1.341     2.69     4.611148     20.40945     60.01335         9     0.794     0.718  60.06   0
       347    951.2589    235.6325 300.4367702 +22.7397163     926.1348     72.35892      1.318     2.46     4.324132     20.40945     139.5924        13     0.896     0.833  47.92   0
       348    683.7842    234.9818 300.3536027 +22.6594551     736.2147     72.32207      1.221     2.08     4.474448     20.40945     132.6938        11     0.904     0.693  79.04   0
       349    453.2901    235.7461 300.2815815 +22.5906366     383.1087     72.37733      1.285     3.42     4.634618     20.40945     57.40422         7     0.963     0.545  66.34   0
       350    604.2736    234.1794 300.3290963 +22.6354129     1153.382     72.34049      1.194     2.07     4.454138     20.40945     209.4413        15     0.923     0.793  67.95   0
       351    425.5043    230.7181 300.2745658 +22.5808675     376.6745     72.48775      1.143     2.24     4.359931     20.40945     58.61313         5     0.681     0.466 -68.65   0
       352    530.4688    226.1258 300.3087279 +22.6109925     966.6896     72.41416      1.242     2.33     4.920979     20.40945     138.4665        13     0.863     0.851   8.21   0
       353    799.6923    225.6423 300.3927532 +22.6914746     1449.154     72.34049      1.221     2.11     4.487647     20.40945     218.1476        14     0.930     0.781 -61.68   0
       354    811.7094    224.8250 300.3967643 +22.6948372     714.8494     72.28519      1.187     1.87     4.472772     20.40945     132.7693         8     0.785     0.595 -83.24   0
       355    857.8508    223.7054 300.4115122 +22.7083279     401.8157     72.41416      1.345     2.30     4.404951     20.40945     56.76763         7     0.795     0.567 -34.58   0
       356    972.6237    215.5866 300.4499397 +22.7403445     1672.333     72.34049      1.287     2.27       4.3684     20.40945     220.7127        17     0.963     0.887  35.84   0
       357    928.4039    214.7770 300.4364100 +22.7268777     1140.529     72.30363      1.322     2.44     4.395734     20.40945     165.8217        13     0.895     0.805 -53.92   0
       358    162.4783    208.4602 300.1999826 +22.4956523     661.9119     72.39575      1.269     2.43     4.540138     20.40945     96.66594        12     0.861     0.817  20.97   0
       359     24.1630    203.1032 300.1587398 +22.4526495     2329.349     72.34049      1.557     2.89     4.366556     20.40945     236.2624        25     1.246     1.102  45.03   0
       360    847.2684    199.8239 300.4159624 +22.6982927     580.2971     72.34049      1.056     2.05     4.393307     20.40945     125.3275         9     0.827     0.600  67.42   0
       361    181.7432    196.4477 300.2098685 +22.4979774     5717.287     72.37733      1.329     2.33     4.463092     20.40945     733.5858        30     1.128     1.021 -87.35   0
       362    163.1697    197.1554 300.2038653 +22.4926135     265.7723     72.37733      1.117     2.60      4.52435     20.40945      49.1804         5     0.751     0.492 -43.77   0
       363    980.5997    183.6159 300.4628018 +22.7335349     18237.93     72.19293      1.276     2.24     4.726332     20.40945     2527.541        54     1.253     1.097 -82.83   0
       364    165.1070    187.1235 300.2077222 +22.4903136     658.5678     72.48775      1.326     2.41     4.509158     20.40945      72.3168         9     0.756     0.724  20.25   0
       365    825.8015    177.7091 300.4164455 +22.6855074     3487.152     72.24831      1.235     2.21     4.394509     20.40945      571.431        27     1.110     0.927  88.20   0
       366    108.0947    178.4555 300.1928146 +22.4707355     361.0652     72.39575      1.727     5.74     4.537408     20.40945     27.01487         6     1.224     0.757  37.85   0
       367    929.4798    176.4512 300.4491815 +22.7161763     2708.762     72.34049      1.184     2.11     4.395902     20.40945     381.3813        23     1.058     0.921  74.55   0
       368    128.1370    173.5659 300.2006296 +22.4753393     527.5671     72.34049      1.813     3.27     4.522792     20.40945     49.60771         9     0.965     0.671  31.36   0
       369    375.2231    172.9108 300.2776765 +22.5491959     661.5778     72.26675      1.345     2.28     4.261468     20.40945     106.2522        10     0.835     0.714  19.55   0
       370    489.4173    171.1121 300.3137981 +22.5828875     367.7674     72.26675      1.358     3.37       4.5983     20.40945     41.94326         5     0.751     0.438  68.20   0
       371    299.5993    165.0682 300.2566958 +22.5242847     959.5942     72.30363      2.518     3.20     4.265204     20.40945     91.38062        12     1.102     0.785  -7.53   2
       372     65.3894    162.2650 300.1847966 +22.4532854     638.1851     72.28519      1.536     3.38     4.521069     20.40945     66.00645        12     1.021     0.809  77.42   0
       373    354.4249    160.9313 300.2750922 +22.5395232     563.4837     72.34049      1.581     3.02     4.270312     20.40945     61.21852        11     0.885     0.861 -17.51   0
       374    426.6680    160.2948 300.2977772 +22.5609830     1667.375     72.48775      1.185     2.28     4.314369     20.40945     219.4721        17     0.973     0.834  77.82   0
       375    488.3757    159.3673 300.3172841 +22.5792005     387.7564     72.34049      1.107     2.29     4.531548     20.40945      60.7524         5     0.677     0.470  76.24   0
       376    169.9665    155.7272 300.2194180 +22.4827543     425.8644     72.34049      1.464     3.28     4.490026     20.40945     50.93565         9     0.904     0.679 -70.75   0
       377    714.9813    149.8881 300.3909326 +22.6443331     384.0613     72.28519      1.229     2.87     4.593737     20.40945      85.2214         9     1.074     0.634  71.48   0
       378     71.7396    146.3569 300.1919300 +22.4506217     306.6128     72.34049      1.256     3.64     4.644701     20.40945     42.26994         7     0.954     0.518 -60.02   0
       379    991.2108    140.8931 300.4799728 +22.7244195     3575.388     72.28519      1.324     2.29     5.101723     20.40945     532.8439        25     1.143     0.957  88.04   0
       380    200.7107    140.2789 300.2339866 +22.4875316     5919.161     72.46936      1.313     2.37     4.494847     20.40945     718.7631        33     1.185     1.049  71.97   0
       381     51.7661    139.7449 300.1878688 +22.4427360     747.7411     72.35892      1.610     3.10     4.685045     20.40945     82.91473        15     1.086     0.863 -86.71   0
       382    830.5000    137.1209 300.4310779 +22.6752412     291.7314     72.46936      1.120     4.08     4.411593     20.40945     47.12738         6     0.838     0.631 -61.90   0
       383    216.1316    131.7059 300.2415618 +22.4896906     538.6201     72.48775      1.732     4.48     4.493899     20.40945     44.74057         8     0.910     0.810 -13.79   0
       384    843.1816    129.5755 300.4374792 +22.6768667     315.4501     72.34049      1.142     2.35     4.416278     20.40945     37.97742         5     0.692     0.470 -17.67   0
       385    446.7459    125.5362 300.3153008 +22.5570094     6101.291     72.37733      1.251     2.18     4.386065     20.40945     891.7668        33     1.136     0.985  70.92   0
       386    331.9978    125.4496 300.2796249 +22.5226105     723.0105     72.32207      1.298     2.48     4.285934     20.40945      90.4883        10     0.913     0.656  60.61   0
       387    503.5802    119.6644 300.3348961 +22.5723442     254.2795     72.32207      1.036     3.51     4.538724     20.40945      56.9547         6     0.951     0.393  69.83   0
       388    699.2678    115.4733 300.3972002 +22.6297338     749.3577     72.41416      1.391     4.15     4.550423     20.40945     105.4492        14     1.419     0.693 -80.73   0
       389    791.7294    113.7021 300.4265888 +22.6569018     434.9291     72.46936      1.219     2.83     4.469408     20.40945     71.25715         7     0.874     0.525  62.95   0
       390    859.7792    110.9001 300.4487117 +22.6764624     257.5434     72.28519      1.569     3.64     4.448668     20.40945     43.93415         5     1.077     0.698  79.57   0
       391    139.7501    109.6446 300.2249729 +22.4604645     455.6907     72.37733      1.252     3.60     4.661374     20.40945     67.26837         8     1.061     0.550 -74.98   0
       392    498.1049    108.0096 300.3369718 +22.5673547     524.6215     72.26675      1.425     5.05     4.507943     20.40945     69.25896        10     1.210     0.718 -43.80   0
       393    575.1241    105.5135 300.3617615 +22.5897015     6234.776     72.46936      1.289     2.18     4.508634     20.40945     1014.085        31     1.131     0.950  77.45   0
       394    350.0296    104.6191 300.2919905 +22.5220278     1452.033     72.34049      1.280     2.32     4.281759     20.40945     224.0223        17     0.990     0.870  80.56   0
       395    616.3253    102.8258 300.3754645 +22.6012654     879.7858     72.34049      1.321     2.54     4.470924     20.40945     124.9202        12     0.895     0.785 -41.54   0
       396    686.0034    100.3474 300.3979736 +22.6214137     410.1344     72.34049      1.667     3.36     4.502705     20.40945     40.90827         6     0.891     0.525 -89.87   0
       397    632.0779     98.8932 300.3816465 +22.6048512     773.3816     72.48775      1.416     2.17     4.472416     20.40945     110.9903        10     0.842     0.674 -88.47   0
       398    902.0178     96.1481 300.4666672 +22.6848588     557.2994     72.32207      1.197     2.95     4.486484     20.40945     89.63385        11     1.015     0.652  88.47   0
       399     98.8268     97.0610 300.2163355 +22.4445859     602.0137     72.34049      1.315     3.08      5.02598     20.40945     80.17638        10     0.897     0.743  66.17   0
       400    941.4976     95.8258 300.4790844 +22.6965792     276.0248     72.30363      1.198     1.73     4.600153     20.40945     57.06025         5     0.649     0.487  74.51   0
       401    670.7515     94.4322 300.3951404 +22.6151469     330.6512     72.37733      1.016     2.76     4.486184     20.40945     62.19629         6     0.697     0.614  36.33   0
       402    619.2680     90.3993 300.3804113 +22.5985740     2775.336     72.30363      1.219     2.22     4.457824     20.40945      383.073        21     1.034     0.871  65.50   0
       403    259.9263     91.1511 300.2683328 +22.4911642     474.4246     72.34049      1.442     3.72     4.403094     20.40945     58.41085        11     1.027     0.881  20.50   0
       404    634.3160     89.1442 300.3855055 +22.6027184     858.4259     72.43256      1.673     4.28     4.465152     20.40945     88.74547        16     1.361     0.820  60.62   0
       405    705.8002     81.9864 300.4100966 +22.6220603     1472.543     72.17447      1.205     1.98     4.550535     20.40945      269.593        17     0.995     0.779  77.72   0
       406    866.0392     80.6498 300.4604749 +22.6696344      184.987     72.34049      1.134     3.48     4.668809     20.40945     41.47488         6     0.892     0.542  88.43   0
       407    643.7659     74.9561 300.3930504 +22.6014683     716.8034     72.39575      1.254     2.59      4.46577     20.40945     91.31986        11     0.873     0.757 -79.69   0
       408    449.3788     74.5479 300.3326571 +22.5431448     1016.592     72.34049      1.228     2.28     4.364262     20.40945     158.3657        16     1.021     0.849  74.47   0
       409     22.4300     74.3257 300.1999711 +22.4151593     560.0179     72.35892      1.364     3.71     5.021514     20.40945     68.89927        11     1.114     0.775 -79.89   0
       410    353.2864     72.7966 300.3033240 +22.5138599     836.0266     72.26675      1.394     2.76      4.15834     20.40945      99.0076        14     0.988     0.852  89.56   0
       411    996.1774     69.3790 300.5047184 +22.7053291     2267.523     72.34049      1.340     2.24     4.784537     20.40945     310.9098        23     1.110     0.971 -75.52   0
       412    124.4678     62.8703 300.2353915 +22.4424514      3805.98     72.37733      1.455     2.66     4.941725     20.40945     474.4124        33     1.262     1.101  36.42   0
       413    692.5230     62.9178 300.4121437 +22.6126026      577.397     72.45097      1.173     2.91     4.565981     20.40945     89.43121        10     0.908     0.739  72.24   0
       414    450.4213     59.9722 300.3377082 +22.5392679     163.2323     72.34049      1.245     4.19     4.343406     20.40945     39.74491         6     0.954     0.664 -34.69   0
       415    546.9720     59.3613 300.3679628 +22.5680047     309.2683     72.35892      1.269     2.42     4.393246     20.40945     56.98531         5     0.800     0.499  57.66   0
       416    240.4823     54.8171 300.2740688 +22.4749008     1177.265     72.30363      1.369     2.36     4.403798     20.40945     163.4694        16     1.068     0.836  44.67   0
       417    685.9245     54.9771 300.4126629 +22.6083439     850.3093     72.37733      1.245     2.32     4.542496     20.40945     131.7597        10     0.829     0.689  87.64   0
       418    651.4933     54.2967 300.4021571 +22.5978414     316.3162     72.52452      1.144     3.51     4.460578     20.40945     44.92754         7     0.941     0.495 -84.90   0
       419    467.4885     52.0428 300.3455916 +22.5421000     249.1868     72.34049      1.180     3.74     4.346122     20.40945     28.63685         6     0.803     0.500 -89.59   0
       420    723.6497     49.8186 300.4260901 +22.6181526     698.6385     72.34049      1.566     3.67     4.801634     20.40945     66.37708        14     1.164     0.818  72.86   0
       421    647.3674     49.9558 300.4022795 +22.5953581     530.1635     72.39575      1.341     2.81     4.458495     20.40945     75.08649         8     0.842     0.667 -47.42   0
       422    743.8019     46.2610 300.4335236 +22.6231611     2259.118     72.32207      1.300     2.37     4.940529     20.40945      307.999        21     1.054     0.937  72.64   0
       423    449.3407     44.6457 300.3423417 +22.5345392       492.01     72.37733      1.222     2.88     4.320063     20.40945     72.19709         9     0.954     0.600 -87.68   0
       424    127.1300     41.6134 300.2431113 +22.4371440     1054.247     72.34049      1.533     2.96     5.008437     20.40945     111.0129        17     1.103     0.911 -14.88   0
       425    918.4172     39.4419 300.4901714 +22.6734516     687.1755     72.35892      1.218     2.91     4.688945     20.40945     96.04845        11     1.024     0.725  79.35   0
       426    691.9760     38.7977 300.4197947 +22.6055027     834.7418     72.28519      1.241     2.10     4.612143     20.40945     154.9942        13     0.874     0.823  57.04   0
       427    399.1441     37.1808 300.3291408 +22.5173606     364.1292     72.32207      1.448     3.99     4.210144     20.40945     39.82915         9     0.953     0.699  16.48   0
       428    311.4858     33.3729 300.3031041 +22.4900106     205.0381     72.34049      1.115     3.71     4.203088     20.40945     39.96078         5     0.952     0.511 -44.02   0
       429    449.9433     31.2183 300.3468830 +22.5308603     285.7808     72.32207      1.071     2.59     4.299344     20.40945     51.38495         6     0.731     0.559 -49.75   0
       430    277.0586     28.3781 300.2940157 +22.4782626     506.2103     72.34049      1.541     3.49     4.342091     20.40945     53.19213         8     0.896     0.654  15.33   0
       431    544.6299     23.5615 300.3788417 +22.5570117     904.9623     72.35892      1.363     2.50     4.299548     20.40945     111.8543        13     0.903     0.806 -83.93   0
       432    278.8366     22.1008 300.2966039 +22.4769916      234.905     72.34049      1.145     4.17     4.339064     20.40945     46.21889         6     0.794     0.623  13.66   0
       433    679.9514     21.4944 300.4216588 +22.5969274     432.2031     72.37733      1.515     2.30     4.521302     20.40945      45.9455         6     0.742     0.497   5.67   0
       434    154.0901     21.0019 300.2581737 +22.4393023     519.2973     72.26675      1.637     3.80     5.126294     20.40945      52.7075        10     1.028     0.733  44.23   0
       435    707.7440     18.5841 300.4312617 +22.6044091     595.2983     72.32207      1.163     2.25     4.831245     20.40945     107.0367        10     0.874     0.658  84.72   0
       436     90.4660   1017.9484 299.9145172 +22.7062458     1033.542     72.37733     10.202    16.14     42.31997     20.40945     38.43944        26     4.076     1.777  50.73  19
       437     77.2832   1010.3215 299.9129045 +22.7001015     1030.694     72.45097     11.943    13.39     45.48922     20.40945     51.31499        22     3.088     1.616  20.18  19
       438     86.6887   1018.6550 299.9131136 +22.7053140     1055.994     72.37733      3.062     2.92     44.33554     20.40945     38.12126         5     0.715     0.472  78.92  19
       439     81.7481   1016.6512 299.9122311 +22.7032561     1462.384     72.37733      4.862     8.99     46.15736     20.40945     54.03187        20     2.160     1.044 -59.04  19
       440     35.2719   1016.1998 299.8979406 +22.6891692     2270.494      72.2114      5.064    17.25     70.27125     20.40945     55.01868        69     3.660     2.259  20.50  19
       441     54.1254   1015.6123 299.9039881 +22.6946630     999.9487     72.35892      6.490     8.12     60.34442     20.40945     42.83883        14     1.866     0.989  83.49  19
       442     57.6797   1017.0340 299.9046294 +22.6961378     868.6776     72.28519      5.998     6.95     58.84596     20.40945     34.96167         8     1.553     0.902 -57.83  19
