#   1 NUMBER                 Running object number                                     
#   2 X_IMAGE                Object position along x                                    [pixel]
#   3 Y_IMAGE                Object position along y                                    [pixel]
#   4 ALPHA_J2000            Right ascension of barycenter (J2000)                      [deg]
#   5 DELTA_J2000            Declination of barycenter (J2000)                          [deg]
#   6 FLUX_APER              Flux vector within fixed circular aperture(s)              [count]
#   7 FLUXERR_APER           RMS error vector for aperture flux(es)                     [count]
#   8 FLUX_RADIUS            Fraction-of-light radii                                    [pixel]
#   9 FWHM_IMAGE             FWHM assuming a gaussian core                              [pixel]
#  10 BACKGROUND             Background at centroid position                            [count]
#  11 THRESHOLD              Detection threshold above background                       [count]
#  12 FLUX_MAX               Peak flux above background                                 [count]
#  13 ISOAREA_IMAGE          Isophotal area above Analysis threshold                    [pixel**2]
#  14 A_IMAGE                Profile RMS along major axis                               [pixel]
#  15 B_IMAGE                Profile RMS along minor axis                               [pixel]
#  16 THETA_IMAGE            Position angle (CCW/x)                                     [deg]
#  17 FLAGS                  Extraction flags                                          
         1    217.0315     15.7335 300.2354565 +22.4424763     3926.522      72.2734      1.555     2.95     5.001634     20.39052     446.0865        31     1.328     1.101  47.55   0
         2    640.1085     12.8067 300.3680568 +22.5683032      426.692      72.1813      1.595     5.05     5.235171     20.39052     49.56513         8     0.976     0.831  36.50   0
         3    778.3589      8.4248 300.4125496 +22.6084113     1008.816     72.32861      1.398     2.81     4.967897     20.39052     122.2402        16     1.047     0.942 -62.97   0
         4    332.9213      7.6982 300.2740983 +22.4748751     1217.089     72.40215      1.445     2.75     4.483322     20.39052     181.4507        18     1.136     0.900  53.50  16
         5    816.4116      3.3336 300.4260593 +22.6183310     718.5548     66.18099      1.583     4.00     5.010129     20.39052     76.90384        13     1.154     0.769  70.53  24
         6    739.6862      3.5327 300.4020834 +22.5954336      575.369     67.11921      1.352     3.29     4.976362     20.39052      65.4996         8     0.899     0.717  -9.65  16
         7    533.3665   1012.8617 300.0100835 +22.8235206     341.8904     72.29181      1.637     3.50     3.188251     20.39052     30.15448         5     0.806     0.438 -72.68   0
         8    341.4729   1023.4601 299.9469310 +22.7689874      378.256     57.44195      1.288     3.99     14.03012     20.39052     89.04852        12     1.331     0.695   2.08  24
         9    249.2521   1016.3825 299.9205594 +22.7392822     2550.615     72.25499      8.076    40.71      72.4998     20.39052     67.49757       264     9.365     4.912  -8.85  27
        10    265.2357    997.2842 299.9317424 +22.7386047     5562.023     72.25499     10.760    41.54     52.77707     20.39052      104.701       605     8.263     6.834  55.25  19
        11    278.6801    981.6872 299.9409967 +22.7381682     4282.306     72.43889      0.901     5.74     38.56298     20.39052      2269.27        21     1.173     0.791  34.50   3
        12    177.7436   1018.6614 299.8975914 +22.7184717     1360.513       72.347      2.912    10.51     86.68841     20.39052     44.99509        28     2.070     1.488 -89.50  18
        13    130.4099   1013.2986 299.8846278 +22.7027257     4753.465     72.16286     13.977    67.09     70.86115     20.39052     99.99043      1187    17.497     7.138  41.47  27
        14    972.2409    982.5833 300.1566728 +22.9464142     766.3645     72.29181      1.965     6.01     2.895235     20.39052     49.12493        21     1.453     1.330 -86.80   0
        15      1.9975    971.4598 299.8583517 +22.6521844      829.782     59.91345      5.063     5.94    -9.253923     20.39052     51.10091        11     1.494     0.838 -45.58  24
        16    191.6015    968.1697 299.9183254 +22.7081596     1448.166     72.23657      4.970    11.13     46.17577     20.39052     41.55973        28     2.121     1.628  51.85   2
        17    679.2437    998.7602 300.0600926 +22.8632258     8642.849     72.36539      1.940     4.43     3.378714     20.39052     527.7157        49     1.524     1.459  41.91   3
        18    684.7662    996.4757 300.0625560 +22.8642263     9279.854      72.2734      1.909     4.51     3.371034     20.39052     543.7487        48     1.486     1.437  23.32   3
        19    289.5152    960.2287 299.9513465 +22.7352677    -181.5655      72.2734      1.022     3.41     23.31835     20.39052     53.97264         5     0.789     0.427  67.00   0
        20    605.9768    956.6041 300.0509920 +22.8291600     1594.367     72.23657      1.742     3.97     3.029088     20.39052     127.8373        26     1.303     1.245  -2.60   0
        21    697.5551    965.9531 300.0764704 +22.8593029     6794.478     72.31021      1.847     4.04     3.322675     20.39052     403.2595        43     1.467     1.349  37.56   0
        22    499.9243    952.9814 300.0191572 +22.7963141     1034.759      72.2734      1.726     4.01     3.376172     20.39052     86.69175        21     1.238     1.132  17.99   0
        23    430.4254    951.1154 299.9981382 +22.7749318     6559.522     72.23657      1.806     3.85     3.832415     20.39052     538.1392        42     1.403     1.376 -60.75   0
        24    167.0601    947.6188 299.9173836 +22.6949031     834.1263     72.21815      5.277     5.05     30.28845     20.39052     39.09253         5     0.999     0.723 -64.48   1
        25      3.4999   1000.4840 299.8493761 +22.6609511     1504.816     67.03987     14.306    18.97    -16.29699     20.39052     46.72244        52     3.626     2.758  57.98  27
        26    122.7040    928.7576 299.9097356 +22.6761837      4001.05     72.29181     18.283    53.54     9.810594     20.39052     93.89539       914    11.674     6.813 -33.85   3
        27    976.8777    930.0076 300.1752242 +22.9327075     2143.573     72.21815      1.928     4.59     3.825441     20.39052     123.9023        31     1.476     1.302  24.97   0
        28    463.4680    937.7210 300.0127764 +22.7810019     485.7426     72.38377      1.528     4.09     3.602857     20.39052     45.45679         7     0.840     0.677 -89.70   0
        29    626.9617    927.0674 300.0671348 +22.8269780     373.6793     72.23657      1.578     5.88     3.024122     20.39052     42.50522         9     1.202     0.809  23.10   0
        30    765.6452    919.1190 300.1129189 +22.8662752     749.8704     72.25499      2.145     6.91     3.382218     20.39052     45.38059        13     1.322     1.012  85.34   0
        31      2.6445   1012.9781 299.8450455 +22.6642736     1645.988     63.21983     15.666    20.86    -19.65175     20.39052      51.3771        72     4.597     2.629 -64.73  27
        32    592.8088   1003.5901 300.0316049 +22.8386904     2312.578     72.16286      1.834     4.45     3.144233     20.39052      150.951        31     1.377     1.314 -83.46   0
        33    577.9565    913.8106 300.0561885 +22.8084796       387.22      72.2734      1.746     5.10     3.113663     20.39052      40.1698         8     1.027     0.799  46.66   0
        34     10.9340    909.9174 299.8811442 +22.6372331     591.7489     72.38377      1.720     5.12     2.555752     20.39052     47.40947         8     1.055     0.702  77.60   0
        35    822.7133    906.6735 300.1347509 +22.8798083     11352.41     72.42052      1.791     3.94     3.440211     20.39052     689.5201        51     1.417     1.392 -33.23   0
        36    868.4239    906.5714 300.1490319 +22.8934787     490.1168      72.2734      1.835     5.52     3.524191     20.39052     42.99382         9     1.494     1.026  31.09   0
        37    401.4824   1010.7421 299.9697346 +22.7833475     471.5441       72.347      1.914     4.87     4.063674     20.39052     39.14144         8     1.145     0.587  55.12   0
        38    778.9882    999.4699 300.0909351 +22.8933362     552.8629     72.29181      1.860     5.63      3.06543     20.39052     39.82099         9     1.137     0.786  10.96   0
        39    800.4085    912.7781 300.1258140 +22.8748754      1013.84      72.2734      1.689     5.05     3.397581     20.39052     68.69088        16     1.150     1.044   0.94   0
        40    211.7201    986.2765 299.9186879 +22.7193880      1398.59     72.38377      5.918    13.92     60.47435     20.39052     60.48007        29     4.220     1.278  62.42   3
        41    134.2095    898.3209 299.9232095 +22.6709128     1226.407     72.23657      6.065     5.49     8.466163     20.39052     74.91943        22     1.545     1.271  57.55   0
        42    874.1276    894.3873 300.1547731 +22.8916899     447.6891     72.29181      1.634     4.82     3.589641     20.39052     46.32035         8     1.033     0.757 -53.21   0
        43    528.1843    894.4866 300.0469797 +22.7880096     539.4352     72.21815      1.902     4.95     3.479875     20.39052     42.78657         8     1.050     0.661  58.01   0
        44    104.5281    892.2128 299.9159738 +22.6602536     450.0728     72.29181      2.223     3.21     5.704488     20.39052     40.32928         5     0.738     0.471 -73.07   0
        45    831.4744    888.4213 300.1434182 +22.8771943     1449.026     72.25499      1.854     4.77     3.491905     20.39052     97.72862        23     1.337     1.210 -46.82   0
        46    124.7336    889.7536 299.9230513 +22.6656131     575.7786      72.2734      2.320     4.40     7.066297     20.39052     40.72642         7     0.852     0.645 -56.24   0
        47   1013.3425    887.7433 300.2003455 +22.9314955     294.8718       72.347      1.494     4.69     4.198266     20.39052     45.32978         6     0.995     0.649 -34.97   0
        48    683.5090    886.0964 300.0980718 +22.8321748     576.7355     72.45725      2.097     6.75       3.2328     20.39052     33.64498        12     1.383     0.925  84.71   0
        49    869.1499    882.6661 300.1570336 +22.8868328     770.8122     72.25499      1.889     5.52     3.624604     20.39052     51.75798        15     1.282     1.117  78.49   0
        50    209.3490    881.2042 299.9521274 +22.6885553     663.3366      72.2734      1.872     3.47     8.393512     20.39052     36.81401         5     0.756     0.460  77.85   0
        51    917.5799    873.2052 300.1752093 +22.8986287      519.261     72.25499      1.577     6.27     3.804987     20.39052     46.16427        14     1.164     0.950  60.36   0
        52    768.7451    872.5428 300.1290338 +22.8538350     787.8055     72.32861      1.678     4.90       3.3978     20.39052     66.43753        15     1.222     1.045 -25.58   0
        53    780.7884    869.4059 300.1338067 +22.8565442     615.6199     72.14442      1.797     7.18     3.400678     20.39052     47.45929        14     1.446     0.999 -74.45   0
        54    286.3488    987.9489 299.9413439 +22.7422646     8350.836     72.31021      7.485    33.64     39.34012     20.39052     173.0579       718    12.165     4.652  65.34  19
        55    481.7210    868.7001 300.0409051 +22.7666776      4309.75     72.40215      1.666     3.58     3.860614     20.39052     371.3899        39     1.334     1.282 -26.44   0
        56    260.6650    857.6632 299.9757347 +22.6972028     394.8932     72.31021      1.532     3.76     5.117596     20.39052     38.96973         5     0.950     0.427  76.27   0
        57      5.0117   1022.5790 299.8426569 +22.6677350     1378.927     61.44825      8.637    18.45    -20.36801     20.39052      48.8755        62     5.603     1.689 -17.38  27
        58    206.8308    854.1525 299.9601412 +22.6800436     840.3681     72.31021      1.829     4.83     5.797064     20.39052     71.59399        15     1.167     1.063  61.72   0
        59    184.0169    851.3889 299.9539491 +22.6724056     1583.154     72.21815      1.813     5.03     5.714356     20.39052     138.9797        26     1.340     1.335  85.13   0
        60    115.9454    852.1994 299.9325325 +22.6522105     496.9426     72.19973      1.875     5.44     4.740695     20.39052      37.1753         7     1.150     0.725  43.67   0
        61    811.9319    848.0537 300.1504557 +22.8597481     305.8799     72.29181      2.651     6.08     3.477595     20.39052      28.1737         8     1.745     0.596 -39.66   0
        62   1010.0104    839.1042 300.2151246 +22.9165273     1938.613     72.19973      1.876     4.52     4.334741     20.39052       130.09        28     1.375     1.251 -11.52   0
        63    715.5422    839.0197 300.1233596 +22.8282651     394.7391      72.2734      1.863     4.74     3.360517     20.39052     32.23395         6     0.932     0.858 -45.13   0
        64    793.8400    832.9659 300.1497238 +22.8499944     604.3879     72.31021      1.616     4.87     3.416054     20.39052     46.50176        13     1.090     0.971  79.64   0
        65    540.8660    831.1412 300.0715267 +22.7736374     262.2704     72.31021      1.360     3.82     3.900991     20.39052     30.02476         5     1.327     0.315 -31.69   0
        66    661.6409    826.9283 300.1105018 +22.8086373     5008.438     72.25499      1.594     3.24     3.336713     20.39052     458.2484        35     1.297     1.198   9.30   0
        67    464.0289    824.0037 300.0499332 +22.7485487     482.1346     72.23657      1.309     2.65     4.076373     20.39052     73.47769         9     0.794     0.733 -83.68   0
        68    211.7757    820.6979 299.9725556 +22.6719347     1352.498      72.1813      1.705     3.90     4.804901     20.39052     121.5541        22     1.278     1.138  -1.14   0
        69    682.2006    819.3754 300.1193612 +22.8126323     782.1218     72.21815      1.662     3.92     3.350102     20.39052     72.53971        14     1.124     0.912 -59.56   0
        70     28.5386    985.3889 299.8620629 +22.6641442     697.2991     72.21815      3.266     5.52     2.471098     20.39052     40.49195         9     1.243     0.691  62.83   0
        71    598.6932    810.2462 300.0963235 +22.7849788     287.6111     72.29181      1.361     5.00     3.636481     20.39052     34.76178         8     1.144     0.668  58.12   0
        72    837.7430    806.7082 300.1719444 +22.8556115      4424.39     72.32861      1.679     3.39     3.795696     20.39052     356.8545        37     1.362     1.261  52.45   0
        73    246.2155    800.9588 299.9896787 +22.6766068      412.446     72.29181      1.548     4.95     4.215531     20.39052      40.5743         8     0.964     0.735  21.62   0
        74    554.6356    798.8895 300.0862991 +22.7685109     545.6718     72.25499      1.571     3.91      4.05196     20.39052     59.99065        13     1.147     0.836  42.42   0
        75    201.0486    797.1058 299.9768910 +22.6619512      1093.26     72.31021      1.695     3.41     4.204538     20.39052     118.3646        20     1.247     1.033  50.04   0
        76    616.5247    792.4122 300.1076739 +22.7852059     554.0595     72.29181      1.556     4.01     3.651734     20.39052     62.73577        12     1.049     0.823 -57.86   0
        77    350.7573    789.1414 300.0260281 +22.7045764     53680.07     72.25499      1.594     3.23     4.144503     20.39052     5061.014        87     1.425     1.353  40.13   0
        78    608.7366    788.1713 300.1066275 +22.7816540     1713.483      72.2734      1.548     3.02     3.706062     20.39052     178.2426        27     1.231     1.178 -61.19   0
        79   1021.5945    787.9075 300.2353850 +22.9052907     820.0781     66.52187      1.702     5.02     4.425488     20.39052      60.9821        14     1.176     0.878  20.20  24
        80    278.8770    787.1218 300.0043315 +22.6824364     478.9184     72.38377      1.538     4.59     4.185038     20.39052     51.30908        11     1.094     0.922 -73.99   0
        81    637.6502    784.2485 300.1169064 +22.7891954     926.1905     72.31021      1.486     3.59     3.619587     20.39052     100.4533        18     1.119     1.048 -76.78   0
        82      3.7713    784.2786 299.9197692 +22.5990749     867.4921     67.94666      2.025     4.41     4.059047     20.39052     71.89742        15     1.312     1.049 -10.12  24
        83     37.4697    783.6235 299.9304481 +22.6090008      742.792     72.29181      1.574     4.23     4.104131     20.39052     88.95155        11     1.184     0.778  47.93   0
        84    648.3934    782.7209 300.1207488 +22.7919772      626.941     72.19973      1.573     3.45      3.58687     20.39052     83.74325        11     1.055     0.820  84.50   0
        85    968.5914    780.2380 300.2213464 +22.8872113     308.2943     72.29181      1.190     3.66     4.307593     20.39052      43.2008         6     0.928     0.636  55.78   0
        86    753.7844    779.1019 300.1547552 +22.8225255     368.3075      72.1813      1.396     4.92     3.561977     20.39052     41.84783        12     1.121     0.791  35.01   0
        87    791.6186    769.5079 300.1696633 +22.8311085     772.1639     72.19973      1.563     4.12     3.709813     20.39052     65.43284        13     1.110     0.849  50.89   0
        88    400.4790    766.4022 300.0488864 +22.7129650     31591.35      72.1813      1.567     2.92     4.143037     20.39052     3479.446        72     1.357     1.300  48.20   0
        89    414.7241    767.0233 300.0531163 +22.7174151     2013.161     72.31021      1.576     3.40     4.144752     20.39052     195.8923        24     1.185     1.117  47.95   0
        90    290.9165    765.4529 300.0151187 +22.6798327       380.97     72.31021      1.905     4.60     4.072668     20.39052     35.95396         5     0.875     0.686  41.83   0
        91    923.6443    762.4193 300.2131228 +22.8686288     2742.425     72.29181      1.632     3.40     4.357099     20.39052     252.2714        24     1.162     1.148 -23.22   0
        92    411.5341    761.0076 300.0540792 +22.7147325     739.2114     72.29181      2.022     3.99     4.144322     20.39052     54.02156        12     1.065     0.747   1.28   0
        93    681.7028    758.5343 300.1389857 +22.7950180     972.7012     72.38377      1.576     2.97     3.620824     20.39052     120.4332        17     1.087     0.923  12.53   0
        94    282.7982    758.0634 300.0149963 +22.6752780      869.513     72.25499      1.624     3.28     4.027915     20.39052     90.26809        16     1.096     0.957  58.75   0
        95    517.8808    758.3350 300.0880414 +22.7458531     421.2306     72.38377      1.370     3.74     4.139878     20.39052     53.54536         7     0.836     0.630  24.79   0
        96     87.5599    753.5406 299.9557857 +22.6154079     537.1031      72.2734      1.814     5.73     4.193028     20.39052     46.76717        13     1.272     1.065 -74.98   0
        97    528.7114    753.3501 300.0930329 +22.7476696     865.8575      72.2734      1.413     3.30      4.13991     20.39052     97.18246        15     1.056     0.922 -84.98   0
        98    930.0065    749.7668 300.2192196 +22.8669004     455.4403      72.2734      1.588     5.27     4.416636     20.39052     44.64667         9     1.028     0.762  46.03   0
        99    431.3884    749.6792 300.0639386 +22.7174358     346.4121     72.25499      1.603     3.44     4.144462     20.39052     37.48413         5     0.743     0.459 -73.83   0
       100    386.2935    749.4860 300.0499720 +22.7038577     345.0351     72.45726      1.471     4.15     4.139729     20.39052     50.60384         7     1.158     0.575 -24.08   0
       101    474.6097    747.8940 300.0779680 +22.7298832     414.0895     72.21815      1.409     3.95     4.142856     20.39052     51.27179         9     0.932     0.873 -73.05   0
       102    116.3780    747.3223 299.9667602 +22.6222720     547.7057     72.25499      1.517     4.32     4.165166     20.39052     60.76973         9     0.977     0.805 -55.15   0
       103    907.6867    744.9772 300.2138171 +22.8588385     344.9714     72.21815      1.403     5.48     4.442879     20.39052     35.72045         8     1.107     0.766 -73.31   0
       104    280.7015    742.6616 300.0193503 +22.6702313     556.4733       72.347      1.658     3.75     3.944117     20.39052     48.76905        10     1.016     0.740 -34.46   0
       105    603.8279    733.3038 300.1229342 +22.7644338     420.7987     72.19973      1.271     4.06     4.039357     20.39052     44.93148         6     0.752     0.628  74.52   0
       106    573.4880    731.2207 300.1141648 +22.7547414     569.1102     72.19973      1.342     3.10     4.100045     20.39052     78.93546        11     0.930     0.890  77.16   0
       107    481.8101    730.4296 300.0858851 +22.7270304     341.2181      72.2734      1.563     6.76     4.147345     20.39052     43.77142         9     1.559     0.821 -18.16   0
       108    595.4159    728.7532 300.1217940 +22.7606061     1310.938     72.29181      1.341     2.56     4.065094     20.39052     174.9953        18     1.017     0.979 -84.34   0
       109    990.0782    727.7540 300.2451089 +22.8785700     4494.524     72.25499      1.658     3.45     4.161191     20.39052     356.3272        33     1.270     1.263  -0.43   0
       110    515.3608    728.6353 300.0969103 +22.7365741      270.545       72.347      1.311     3.31     4.150606     20.39052      41.9558         6     0.844     0.501  45.28   0
       111    677.0506    723.6290 300.1488821 +22.7836026     263.1675     72.29181      1.415     4.20     3.786679     20.39052     33.18339         5     1.083     0.464  62.00   0
       112    978.5082    719.1483 300.2442973 +22.8726324     1801.669     72.32861      1.713     3.57     4.188193     20.39052     141.9899        26     1.289     1.156  44.97   0
       113    341.4991    713.0186 300.0478908 +22.6799619     813.2614      72.1813      1.425     3.20      4.02303     20.39052     115.9184        14     1.022     0.885 -33.26   0
       114   1009.8372    709.3405 300.2572569 +22.8791974     1708.219     72.29181      1.666     3.67     4.068469     20.39052     131.4816        25     1.261     1.140 -47.02   0
       115    804.9183    710.3301 300.1930434 +22.8180995     2588.638     72.38377      1.568     3.00     4.089763     20.39052     250.0899        27     1.296     1.108  -4.50   0
       116     27.3159    700.5136 299.9543047 +22.5821273     817.6329     72.38377      1.783     3.57     4.329972     20.39052     86.81847        15     1.172     1.002  17.31   0
       117    887.2959    696.1282 300.2233366 +22.8386989     562.6486     72.38377      1.587     4.44      4.29397     20.39052     59.54985        13     1.104     0.855  50.15   0
       118    190.3310    696.6936 300.0061951 +22.6299392     587.4097     72.40215      1.567     3.33      3.99666     20.39052     70.49935         9     0.995     0.701  78.32   0
       119    923.3087    687.3486 300.2374182 +22.8469638     149200.5     72.32861      1.599     3.12     4.195353     20.39052     13551.53       154     1.482     1.445  81.81   0
       120    685.6494    690.5875 300.1622987 +22.7766928     431.8903     72.32861      1.429     2.84     3.922105     20.39052     49.83474         9     0.849     0.751  19.76   0
       121    775.7609    687.6785 300.1913184 +22.8028584     754.3192     72.25499      1.477     3.11     4.031961     20.39052     81.53932        13     0.969     0.879   6.71   0
       122    956.2518    680.1135 300.2500423 +22.8547519     499.0099     72.29181      1.738     6.19     4.116773     20.39052     44.51144        11     1.420     0.758 -19.42   0
       123    609.4535    676.0835 300.1432815 +22.7496937     1582.547     72.31021      1.352     2.72     4.177305     20.39052     198.2424        22     1.090     1.003 -76.76   0
       124    790.8127    673.4808 300.2006226 +22.8032904     9438.236     72.25499      1.436     2.63     4.084936     20.39052      1107.34        42     1.223     1.144  25.66   0
       125    272.2939    674.8549 300.0387710 +22.6482586     328.0744     72.32861      1.616     4.80     3.910965     20.39052     27.76627         7     1.051     0.620   5.18   0
       126    292.2339    668.4578 300.0470498 +22.6524033     4962.262     72.29181      1.510     2.68     3.922202     20.39052     598.6445        35     1.270     1.161  40.86   0
       127      6.0435    666.6641 299.9586962 +22.5660391     1678.635      72.2734      1.789     3.51     4.355516     20.39052      190.064        25     1.374     1.152  44.24  16
       128    374.2721    666.4899 300.0732039 +22.6764391     1225.231     72.43889      1.460     2.68     3.991177     20.39052     143.4397        20     1.154     1.034  34.45   0
       129    249.8150    663.8482 300.0353583 +22.6383593     489.2356     72.31021      1.537     5.30     3.931406     20.39052     49.21623        12     1.334     0.756  53.10   0
       130    582.7231    662.2914 300.1394400 +22.7377228     660.3184     72.42052      1.386     2.79     4.203201     20.39052     97.28253        11     1.002     0.697   8.97   0
       131    574.2108    654.2627 300.1393984 +22.7328666     3355.001     72.21815      1.347     2.49     4.210248     20.39052     366.0961        25     1.074     1.034  77.15   0
       132    564.4756    647.9988 300.1384027 +22.7281506     1342.604     72.16286      1.337     2.38     4.217639     20.39052     209.0602        18     1.046     0.908  45.48   0
       133    759.6934    646.8804 300.1995687 +22.7863274      202.202     72.40215      1.227     3.65     4.068906     20.39052     38.81937         6     0.750     0.636 -28.95   0
       134    493.0951    647.4641 300.1163572 +22.7066018     316.4994     72.36539      1.063     1.82     4.193463     20.39052     89.54197         5     0.693     0.462 -21.42   0
       135    957.9935    646.1053 300.2616363 +22.8455024     515.1879     72.16286      1.529     4.88     3.962767     20.39052      48.8746         9     0.833     0.809  -3.62   0
       136    227.6986    643.9676 300.0349417 +22.6260231     559.5691     72.25499      1.396     4.66     3.976831     20.39052     63.00962        10     1.084     0.687  44.66   0
       137    241.8879    642.7316 300.0397544 +22.6299240     585.8428     72.42052      1.479     3.81     3.979102     20.39052     76.52912        11     1.099     0.762   3.77   0
       138    299.2843    639.6896 300.0585888 +22.6462637     417.3045     72.42052      1.297     3.19      3.98329     20.39052     56.63285         8     0.927     0.608 -19.49   0
       139   1011.0303    639.2522 300.2804052 +22.8594152     565.2029     72.31021      1.511     3.23     3.834902     20.39052     54.51414         8     0.824     0.655  41.11   0
       140    489.1635    637.6262 300.1183298 +22.7025994     1811.717     72.29181      1.407     2.72     4.190862     20.39052     229.0346        21     1.112     0.982 -47.76   0
       141    588.5198    638.3431 300.1490258 +22.7325847      442.338     72.31021      1.155     2.87     4.203361     20.39052     59.57169         7     0.834     0.588  17.58   0
       142    143.1861    632.5327 300.0123891 +22.5973948     19876.36      72.2734      1.623     2.86     3.956892     20.39052     2485.299        64     1.452     1.309  36.84   0
       143    574.0601    632.8185 300.1463186 +22.7266650     1057.739     72.23657      1.374     3.02     4.213823     20.39052     120.2049        16     1.149     0.851  58.52   0
       144     64.3945    633.8984 299.9874649 +22.5741506     701.7726     72.16286      1.777     5.32     3.993356     20.39052     64.98065        11     1.270     0.812  58.32   0
       145    609.2177    632.5493 300.1573530 +22.7371240     305.9497      72.2734      1.131     3.30     4.191332     20.39052     51.10833         5     0.775     0.406 -25.78   0
       146    267.8518    639.1252 300.0489984 +22.6366759     474.5679     72.29181      1.364     5.37     3.988187     20.39052     54.52095         9     1.105     0.737  42.28   0
       147    327.4782    624.4413 300.0723103 +22.6503425     308.8575     72.25499      1.625     2.45      4.00744     20.39052     51.79093         5     0.729     0.680 -50.97   0
       148    992.2135    619.5452 300.2809386 +22.8481177     1097.069      72.2734      1.562     3.20     3.756891     20.39052     95.23806        15     1.025     0.916   4.62   0
       149    657.2334    620.0948 300.1763523 +22.7479363     252.3338     72.25499      1.387     3.95     4.168633     20.39052     34.22881         5     0.918     0.624  61.21   0
       150     89.2459    616.8598 300.0007202 +22.5767193     1522.272     72.31021      1.901     4.48     3.896966     20.39052     111.6338        28     1.548     1.140  80.32   0
       151    858.8441    617.4248 300.2400402 +22.8075676     466.7653     72.29181      1.528     4.17     4.189589     20.39052     57.86097        10     0.952     0.927  87.93   0
       152    155.1607    616.9095 300.0211855 +22.5965053     451.5627      72.2734      1.559     3.44      3.91846     20.39052     53.73096         8     0.941     0.704  80.38   0
       153    537.8017    613.8438 300.1411951 +22.7103507      380.356     72.25499      1.253     3.78     4.230339     20.39052     59.39861         8     1.033     0.525  35.98   0
       154    932.5168    611.9208 300.2647980 +22.8280506     960.4984     72.40215      2.256     3.91     3.876831     20.39052     70.49416        13     1.007     0.955  20.86   0
       155    330.0144    612.8494 300.0768647 +22.6477766     241.1861     72.29181      1.204     3.51     4.027666     20.39052      51.3768         5     1.086     0.327  -8.03   0
       156    494.3564    605.8558 300.1302670 +22.6950361     741.1648      72.2734      1.229     2.45     4.202884     20.39052     99.99455        12     0.865     0.806 -29.13   0
       157    642.6071    604.3324 300.1769176 +22.7390273     602.7532     72.23657      1.625     2.75     4.229532     20.39052     76.79446        10     0.973     0.715  -7.11   0
       158    689.5567    603.0469 300.1919585 +22.7527254     475.8596     72.31021      1.363     3.37     4.215557     20.39052      61.3936        11     0.986     0.813  38.13   0
       159    660.0559    602.6876 300.1828863 +22.7437832     539.2939     72.32861      1.348     2.64     4.228592     20.39052     76.13203         9     0.936     0.588  49.93   0
       160    538.5505    601.8216 300.1453335 +22.7071236     1063.604      72.2734      1.623     3.05     4.288584     20.39052     119.6216        16     1.114     0.935  24.90   0
       161    972.3359    597.4050 300.2819315 +22.8358032     3333.269     72.25499      1.560     2.85     3.749508     20.39052     345.4413        30     1.230     1.158 -52.95   0
       162    503.9520    597.2043 300.1360639 +22.6954285     1654.248     72.25499      1.324     2.71     4.248003     20.39052     221.4202        20     1.043     0.958  26.21   0
       163    869.0431    594.3444 300.2507176 +22.8039913     371.2954     72.25499      1.679     4.95     4.112558     20.39052     47.61607         8     1.031     0.674  -2.99   0
       164     65.8237    590.6880 300.0019446 +22.5621870     5335.066     72.19973      1.753     3.53      3.83176     20.39052     558.7948        45     1.470     1.365  47.29   0
       165    533.2248    587.9644 300.1481769 +22.7015491     310.7614     72.29181      1.232     3.64     4.381173     20.39052     42.28006         5     0.798     0.501  36.49   0
       166   1012.0778    586.9734 300.2977162 +22.8447048     246.5874      72.2734      1.373     4.39     3.635159     20.39052     39.57471         6     1.011     0.543  15.79   0
       167    367.4519    583.9236 300.0979049 +22.6506997     8982.615      72.2734      1.379     2.46     4.002214     20.39052     1317.599        35     1.163     1.087  39.68   0
       168    489.8807    581.0029 300.1369469 +22.6865601     8851.909      72.1813      1.343     2.42     4.246607     20.39052     1277.975        34     1.135     1.045  64.42   0
       169    255.6120    578.1826 300.0649888 +22.6155200     341.6942     72.23657      1.455     3.45     4.019499     20.39052     38.04264         6     0.744     0.635  14.06   0
       170    736.0278    577.4009 300.2147664 +22.7592818     239.4005     72.23657      1.340     4.56     4.202448     20.39052      36.1695         6     0.893     0.662  33.69   0
       171    134.3996    577.0349 300.0276853 +22.5788402     320.0764     72.23657      1.398     3.91     3.873256     20.39052     31.08076         5     0.898     0.488  86.74   0
       172    901.6708    575.1267 300.2671324 +22.8082409       1885.6       72.347      1.401     2.76     3.935706     20.39052     199.9992        23     1.124     1.037  37.30   0
       173    986.2921    572.4490 300.2943911 +22.8328101     12536.25     72.31021      1.543     2.90     3.708189     20.39052       1361.8        46     1.307     1.222 -57.33   0
       174    550.4826    570.5793 300.1591961 +22.7017296      11570.9     72.23657      1.334     2.30     4.571524     20.39052     1680.736        42     1.161     1.126  66.78   0
       175    720.0435    566.4178 300.2133539 +22.7513386     608.1094     72.29181      1.407     2.86     4.252531     20.39052     67.32372         9     0.876     0.654  65.59   0
       176    277.7853    565.8885 300.0758760 +22.6186408     1429.426     72.21815      1.414     2.91     3.968996     20.39052     164.2257        17     1.001     0.981  35.82   0
       177    524.7446    563.6703 300.1534279 +22.6920327     316.2715     72.29181      1.196     2.70     4.505591     20.39052     74.23788         7     1.005     0.417  31.48   0
       178    482.1697    558.7618 300.1417707 +22.6778639     4384.507      72.2734      1.297     2.41      4.23257     20.39052     585.2593        25     1.047     0.974  85.85   0
       179    825.0211    558.8159 300.2485356 +22.7805993     783.9245     72.23657      1.275     2.40     3.920324     20.39052     118.7909        11     0.886     0.767  74.02   0
       180    460.3940    557.3198 300.1354623 +22.6709234     1300.759     72.19973      1.352     2.41     4.167956     20.39052     167.7457        16     1.079     0.820 -15.92   0
       181    214.7228    556.3071 300.0593816 +22.5969822     692.9529     72.42052      1.382     3.60     4.032123     20.39052     91.13614        15     1.230     0.816  34.86   0
       182    902.1069    554.4388 300.2739879 +22.8024269     1508.665      72.2734      1.534     2.84     3.886168     20.39052     172.2363        20     1.146     1.001 -45.10   0
       183    598.7965    546.3290 300.1821145 +22.7092435     200840.5     72.21815      1.330     2.42     4.793377     20.39052     27303.35       201     1.419     1.391  -2.96   0
       184    148.2307    554.6348 300.0392582 +22.5765624     317.7722     72.29181      1.672     3.41     3.883193     20.39052      34.0374         5     0.759     0.444 -17.63   0
       185   1002.9569    553.1819 300.3058473 +22.8322620      145.044     72.29181      1.379     3.94      3.66246     20.39052     25.93006         5     0.862     0.515 -57.01   0
       186    422.5429    552.3911 300.1252851 +22.6581634      444.911     72.25499      1.356     3.11     4.055398     20.39052     51.21413        11     0.942     0.783  21.43   0
       187    782.6575    551.2908 300.2377767 +22.7657490     768.9386     72.32861      1.267     2.76     3.977334     20.39052     103.0374        14     1.019     0.814 -57.15   0
       188    875.6846    549.8898 300.2672276 +22.7932074      170.892     72.42052      1.277     4.34     3.895371     20.39052     32.65537         6     0.788     0.681 -22.86   0
       189    986.7363    548.2614 300.3023859 +22.8259914     -213.901     72.31021      1.376     4.50     3.704666     20.39052     37.44711         5     0.840     0.685   9.46   0
       190    284.8528    546.2390 300.0844550 +22.6151211     3580.754      72.2734      1.445     2.78     3.911479     20.39052     415.6077        29     1.194     1.102  62.00   0
       191    850.8700    542.1616 300.2620019 +22.7835556     629.1304     72.23657      1.524     3.50     3.878587     20.39052     69.43116        11     1.017     0.743   0.97   0
       192    630.3773    533.1989 300.1962130 +22.7149349     213.1401     72.19973      1.131     2.79     4.699652     20.39052     40.89244         6     0.696     0.643  -5.80   0
       193    489.3978    526.6104 300.1544617 +22.6707994     2889.935     72.08908      1.424     2.33     4.386106     20.39052     363.4464        24     1.124     1.004 -70.31   2
       194    333.6557    528.8615 300.1052752 +22.6247649     542.0018       72.347      1.602     3.25     3.950791     20.39052     64.67419        14     1.031     0.938 -16.39   0
       195    901.0162    523.2490 300.2837775 +22.7931374     484.1816     72.31021      1.528     2.65     3.976596     20.39052     51.30024         8     0.796     0.706  -5.02   0
       196    720.0060    522.4778 300.2276126 +22.7387058     380.2585     72.19973      1.430     3.36     4.340153     20.39052     51.49448         6     0.923     0.499  -2.26   0
       197    806.4422    515.2642 300.2568891 +22.7625221      460.948     72.25499      1.191     2.88     3.869308     20.39052     64.69254         7     0.783     0.671 -12.45   0
       198    886.5867    512.9724 300.2826159 +22.7858635     1758.098      72.2734      1.480     2.56     3.975192     20.39052     211.3089        21     1.065     1.030 -19.25   0
       199    757.5511    510.5620 300.2431801 +22.7465284     2593.552     72.29181      1.291     2.27     4.174577     20.39052     376.3613        22     1.044     0.956  61.03   0
       200     16.5287    511.4066 300.0123783 +22.5246610     794.6026     72.23657      1.763     3.37     3.771626     20.39052     94.50445        11     1.084     0.786 -16.10   0
       201    117.4445    510.4723 300.0440320 +22.5546600     227.5217     72.25499      1.336     4.11     3.893454     20.39052     33.26183         6     1.239     0.389  45.05   0
       202   1000.7697    503.7896 300.3212059 +22.8174101      1041.91      72.2734      2.230     4.05     4.141289     20.39052     82.08624        15     1.184     0.927  44.80   2
       203    966.3339    507.4548 300.3092750 +22.8081547     327.7444     72.32861      1.352     3.46     4.143705     20.39052     47.68807         5     0.792     0.437  21.15   0
       204    662.4433    507.0272 300.2146987 +22.7170244     430.9507     72.29181      1.415     3.32     4.542518     20.39052     56.59405         7     0.799     0.774  39.78   0
       205    544.9509    506.3577 300.1783302 +22.6816311     757.3582     72.31021      1.245     2.49     4.807155     20.39052     100.6072        10     0.805     0.759 -50.29   0
       206   1015.0187    504.5383 300.3254076 +22.8218908     1353.151     72.25499      1.498     2.69     4.116072     20.39052     165.7046        19     1.077     1.003 -68.23   0
       207    886.7659    502.9440 300.2859283 +22.7830353      2256.05     72.29181      1.569     3.42     4.008035     20.39052     276.6198        26     1.468     1.002  75.36   0
       208    640.0173    501.2469 300.2095909 +22.7086460     521.1209     72.31021      1.221     2.76     4.650548     20.39052     81.37224         7     0.713     0.677   3.16   2
       209    639.4127    497.1126 300.2107451 +22.7072773     532.1245     72.21815      1.637     3.82     4.655458     20.39052     45.55379         8     1.000     0.589 -67.66   2
       210    425.9394    500.7725 300.1431040 +22.6443631     363.2021     72.29181      1.442     2.69     4.157295     20.39052     50.55086         7     0.829     0.599 -25.61   0
       211    924.8588    498.0662 300.2993895 +22.7930390     4345.522     72.31021      1.380     2.73      4.23789     20.39052     479.3412        30     1.130     1.108  86.06   0
       212    478.7688    499.9326 300.1598163 +22.6599544     278.2492      72.2734      1.461     2.48     4.449584     20.39052     64.02856         6     0.862     0.430  49.45   0
       213    662.7981    494.8302 300.2187696 +22.7136272      344.239     72.23657      1.667     3.17     4.537608     20.39052     41.31168         5     0.872     0.429  44.00   0
       214    585.5823    493.9563 300.1950070 +22.6902437     301.9199     72.29181      1.245     3.06     4.804831     20.39052     51.10719         6     0.737     0.617 -36.63   0
       215   1016.6968    488.8206 300.3310349 +22.8178749     688.6796      72.1813      1.378     2.68     4.309197     20.39052      91.5029        11     0.885     0.799  19.35   0
       216    156.9766    488.2330 300.0635373 +22.5601340     950.9496      72.2734      1.424     2.83     4.014398     20.39052      110.809        14     0.988     0.842 -22.53   0
       217    956.2701    485.8887 300.3131392 +22.7989431     314.1956     72.43889      1.456     4.36     4.358189     20.39052     34.52692         5     0.904     0.655 -69.63   0
       218    204.9119    480.2814 300.0810178 +22.5722253     250.5273     72.40215      1.028     2.73     4.059657     20.39052     56.62206         5     0.758     0.413 -16.21   0
       219    177.1711    479.9641 300.0724982 +22.5638166     355.0135     72.29181      1.583     3.91     4.047556     20.39052     28.62401         5     0.832     0.527  30.53   0
       220   1013.0083    477.5898 300.3335309 +22.8135423       285.58     72.16286      1.437     5.12     4.406737     20.39052     35.99197         7     1.024     0.830   0.33   0
       221    149.5378    478.1476 300.0644997 +22.5550096     447.1491     72.32861      1.563     3.66     4.024871     20.39052     50.67277         9     0.973     0.746 -79.71   0
       222    757.2581    472.4363 300.2554682 +22.7354869     329.4638      72.2734      1.131     2.81     4.276567     20.39052      66.6041         7     0.920     0.625 -21.39   0
       223    646.0386    469.9296 300.2216345 +22.7014542     413.9138     72.23657      1.450     3.97     4.576202     20.39052      45.2746         6     0.772     0.583 -51.35   0
       224    698.2122    468.2100 300.2384441 +22.7165881     804.0598     72.16286      1.272     3.59     4.450171     20.39052     102.4358        12     1.134     0.727  52.62   0
       225   1013.2256    460.9700 300.3389949 +22.8088294     588.2858      72.2734      1.474     4.17     4.406737     20.39052     60.74155        11     1.064     0.809 -24.00   0
       226    759.0973    460.6323 300.2598737 +22.7326461      741.101     72.25499      1.288     2.66     4.295112     20.39052     106.7151        15     0.957     0.906 -18.33   0
       227    916.2899    456.8331 300.3101055 +22.7786224     931.1574     72.23657      1.429     3.17     4.348634     20.39052     109.1523        15     1.022     0.893 -63.72   0
       228    900.6943    453.2194 300.3064160 +22.7729147     698.4229     72.19973      1.364     3.32     4.297007     20.39052     83.48328        14     1.064     0.852 -15.14   0
       229    880.9381    453.5260 300.3001568 +22.7670879     314.1329     72.31021      1.233     3.25     4.212021     20.39052     42.47851         6     0.775     0.493   7.77   0
       230    644.9015    451.2067 300.2273588 +22.6957353     3488.612     72.16286      1.337     2.36     4.501287     20.39052     448.9373        31     1.183     1.083 -39.31   0
       231   1005.3736    450.0819 300.3400805 +22.8033489     568.2225     72.25499      1.498     3.98     4.406737     20.39052     59.46207        13     1.093     0.904  42.16   0
       232    572.4422    444.2012 300.2070693 +22.6720170     32.30741      72.2734      0.886     3.44     4.696523     20.39052     29.54123         5     0.763     0.448  69.74   0
       233    121.1202    442.2268 300.0673295 +22.5361816     375.9815      72.2734      1.299     2.54     4.140906     20.39052      53.0334         6     0.732     0.554  48.51   0
       234    484.4974    438.4318 300.1815658 +22.6440112     325.4547     72.23657      1.158     4.25     4.699077     20.39052     50.06474         7     0.876     0.786  41.39   0
       235   1014.4305    429.1916 300.3496876 +22.8000539     1055.865      72.2734      1.515     3.12     4.406737     20.39052     106.3528        17     1.098     0.944  23.39   0
       236    928.1097    430.3320 300.3223947 +22.7745434     575.0782     72.42052      1.285     2.61     4.405983     20.39052     80.95453         8     0.832     0.633  -0.20   0
       237    664.6000    427.1881 300.2412912 +22.6947356     412.9311     72.08907      1.484     2.34     4.386174     20.39052     45.47043         6     0.694     0.607  17.36   0
       238    755.5057    425.1478 300.2702740 +22.7213745     998.2194       72.347      1.256     2.55     4.409752     20.39052      129.423        16     1.036     0.856  45.16   0
       239    551.2963    425.8433 300.2064450 +22.6604093     378.9677     72.29181      1.270     2.77     4.768011     20.39052     65.73354         8     0.926     0.592 -77.74   0
       240    259.2612    423.5159 300.1163413 +22.5722268     626.6553     72.40215      1.308     3.29     4.054781     20.39052     81.61957        12     1.033     0.833   1.24   0
       241     99.8560    421.2797 300.0675213 +22.5237950     384.3959     72.31021      1.876     4.58     4.252403     20.39052     29.75071         7     1.072     0.557 -72.15   0
       242    321.7825    419.0536 300.1372318 +22.5896858      3613.16     72.25499      1.333     2.53     4.105051     20.39052     511.7033        25     1.097     0.966  54.38   0
       243    269.0055    413.7675 300.1225352 +22.5723495     7789.475      72.2734      1.414     2.59     4.080247     20.39052     984.8594        41     1.229     1.147  51.80   0
       244    773.5123    414.2079 300.2794362 +22.7236229      137.907      72.1813      0.958     4.42     4.429699     20.39052     30.20206         6     0.944     0.590  24.07   0
       245    647.6657    413.5222 300.2404526 +22.6857375     492.9525     72.36539      1.418     3.17     4.359112     20.39052     48.20716         7     0.925     0.483  -9.35   0
       246    409.7967    408.1046 300.1681643 +22.6129189     4796.286      72.1813      1.293     2.35     4.377296     20.39052     693.8256        28     1.102     0.983  72.56   0
       247    654.0339    404.8018 300.2452666 +22.6851395     18804.26     72.23657      1.310     2.30     4.356597     20.39052     2977.549        52     1.232     1.077  71.40   0
       248    670.7490    405.7987 300.2501493 +22.6904321     560.8431     72.25499      1.505     4.40     4.356877     20.39052      58.3032        10     1.027     0.850 -32.58   2
       249    673.3091    403.6952 300.2516295 +22.6905945     337.0823     72.45726      1.319     2.58     4.356318     20.39052      50.6193         5     0.745     0.545  34.27   3
       250    281.3626    403.1707 300.1298170 +22.5730115     390.3631     72.29181      1.449     2.81     4.139279     20.39052     43.50396         6     0.718     0.618 -37.97   0
       251    851.3530    395.5320 300.3097594 +22.7415619     313.5364     72.25499      1.018     2.77      4.41258     20.39052     51.30748         7     0.864     0.543 -60.19   0
       252    274.0105    391.5663 300.1312970 +22.5674766     268.9053     72.25499      1.284     3.14     4.169836     20.39052     53.29695         8     0.865     0.692 -45.23   0
       253    987.4843    387.4154 300.3548427 +22.7799778     721.6234     72.23657      1.394     3.10     4.458454     20.39052     100.2231        14     1.023     0.937 -51.97   0
       254    524.6686    386.6245 300.2108850 +22.6411676     259.1996      72.2734      1.086     2.13     4.543824     20.39052     58.89925         5     0.697     0.436  22.75   0
       255    208.7282    384.8493 300.1131803 +22.5459805      2016.63     72.25499      1.459     2.59     4.205738     20.39052     266.7658        22     1.163     0.983   3.31   0
       256    594.6489    374.2757 300.2366801 +22.6585829     6789.864      72.2734      1.246     2.22     4.370301     20.39052     900.8939        34     1.168     0.979  64.59   0
       257   1008.4072    374.6151 300.3655236 +22.7825592     1219.803      72.1813      1.446     2.81      4.47914     20.39052     181.1362        17     1.028     0.960  86.37   0
       258    309.6778    373.6455 300.1482043 +22.5730217     650.6783     72.25499      1.315     3.07     4.227975     20.39052     86.21478        10     0.905     0.792  78.19   0
       259    854.7937    366.5949 300.3202236 +22.7342743     454.4619     72.12598      1.581     3.70      4.33463     20.39052     48.95652         8     0.920     0.754 -43.29   0
       260    167.0644    366.7090 300.1061166 +22.5282843     493.1382     72.38377      1.473     3.44     4.425766     20.39052     64.51715         8     0.853     0.687  48.95   0
       261     14.3165    364.3896 300.0594105 +22.4818221     1296.839     72.23657      1.644     3.34     4.221779     20.39052     143.5248        20     1.125     1.089  59.41   0
       262    708.5042    364.8315 300.2752065 +22.6899676     488.5742     72.21815      1.001     1.60       4.3611     20.39052     82.85255         6     0.654     0.500 -87.79   0
       263    798.8401    363.2311 300.3038746 +22.7165563     1131.857     72.31021      1.345     2.83      4.42923     20.39052     143.9395        13     0.977     0.790  77.60   0
       264    501.2575    360.4728 300.2120847 +22.6266427     6094.648     72.31021      1.273     2.35     4.306676     20.39052     835.4763        31     1.159     0.968  59.70   0
       265    990.5728    355.1427 300.3662801 +22.7716227     645.1495      72.2734      1.315     3.02     4.513618     20.39052     72.73066        11     1.016     0.707  66.53   0
       266    893.3392    355.0668 300.3359819 +22.7424989     1390.991     72.31021      1.318     2.39     4.381793     20.39052     197.9148        16     0.998     0.828  50.58   0
       267    485.9052    349.2332 300.2109536 +22.6188152     548.2056     72.25499      1.463     1.97     4.252074     20.39052     79.83234         8     0.731     0.649  40.32   0
       268    568.7274    347.1942 300.2373973 +22.6430388     539.9713     72.21815      1.303     2.26     4.305468     20.39052     62.19307         7     0.740     0.599 -82.63   0
       269    549.0803    345.2993 300.2318953 +22.6366096     326.9771     72.40215      1.290     2.89     4.288896     20.39052     44.97258         6     0.837     0.546 -86.57   0
       270     12.7888    345.7342 300.0649892 +22.4760113     1095.246     72.21815      1.630     3.57     4.199461     20.39052     141.4596        16     1.226     0.877  45.45   0
       271    866.2214    342.9023 300.3314748 +22.7308846      622.887     72.19973      1.480     1.91     4.291825     20.39052     91.07192         7     0.682     0.612  64.68   0
       272    388.8820    339.7095 300.1838530 +22.5870118     2714.576     72.38377      1.341     2.23     4.282856     20.39052     432.0547        28     1.176     0.993  78.85   0
       273    147.9713    341.8924 300.1082352 +22.5154379     174.9689     72.23657      1.339     3.76     4.531767     20.39052     33.76561         5     0.658     0.618 -86.57   0
       274    107.3528    336.8994 300.0972329 +22.5018283     1077.508     72.29181      1.530     3.33      4.55409     20.39052     117.8829        18     1.082     1.035  12.93   0
       275    736.2761    334.4910 300.2937047 +22.6895643     369.1002     72.42052      1.250     3.02     4.343959     20.39052       39.575         5     0.725     0.441  24.16   0
       276    358.1767    329.0898 300.1777467 +22.5747619     30117.89     72.19973      1.339     2.49     4.417831     20.39052     3696.365        75     1.340     1.179  59.02   0
       277    892.9034    326.7502 300.3450348 +22.7342277     1334.619       72.347      1.287     2.39     4.390398     20.39052     212.2707        15     0.991     0.837  52.01   0
       278     54.4924    316.8120 300.0873269 +22.4802159     4838.406     72.21815      1.591     2.93     4.390668     20.39052     610.4561        38     1.374     1.200  41.63   0
       279    808.1329    315.8243 300.3221541 +22.7057119     572.6648     72.25499      1.376     4.19     4.441629     20.39052     72.66837        10     1.201     0.714  42.10   0
       280    456.6612    314.4474 300.2131392 +22.6000630     505.2849     72.31021      1.147     3.46      4.31789     20.39052     80.18207        10     1.115     0.657  81.76   0
       281    232.5201    315.3183 300.1431380 +22.5331521     439.9682     72.42052      1.409     3.46     4.359702     20.39052     55.26888         8     0.998     0.699  17.93   0
       282    768.7546    308.8740 300.3121370 +22.6919255     2026.328     72.25499      1.393     2.42     4.391482     20.39052     265.1585        26     1.235     1.081  24.50   0
       283    577.0742    303.5988 300.2541413 +22.6330138     403.0751     72.16286      1.351     3.54     4.332625     20.39052     51.36544         7     0.833     0.704  75.55   0
       284    983.6268    302.0179 300.3813519 +22.7542678     675.0422     72.29181      1.420     3.05     4.463637     20.39052     79.85284        11     0.969     0.783 -20.13   0
       285    837.3505    294.9061 300.3380481 +22.7084447     241.5576     72.32861      1.501     4.45     4.409053     20.39052     38.49625         5     1.232     0.456  59.49   0
       286    430.2756    293.4647 300.2117358 +22.5861317     2123.098       72.347      1.550     2.97     4.277022     20.39052     268.9618        25     1.335     0.935  60.96   0
       287    642.6799    292.5972 300.2781407 +22.6494994     287.7058      72.1813      1.228     2.87     4.339554     20.39052     54.56689         5     0.890     0.482   6.76   0
       288    869.6179    286.6754 300.3507773 +22.7157365     567.3176      72.2734      1.173     2.22      4.37757     20.39052      84.8136         9     0.784     0.680  17.94   0
       289      3.1522    283.6178 300.0821478 +22.4552977     720.2333      65.4939      1.829     4.49     4.118825     20.39052     65.40946         9     1.032     0.769  23.66  26
       290    751.8900    284.2153 300.3148819 +22.6797889     381.9445     72.19973      1.326     2.96     4.343706     20.39052     65.98329         9     0.895     0.763 -48.57   0
       291    769.3352    284.3053 300.3202889 +22.6850373     251.1228     72.38377      1.335     3.85     4.385821     20.39052     40.39793         6     0.928     0.458   3.20   0
       292    720.2272    283.3571 300.3052948 +22.6700630     235.7446     72.29181      1.189     3.05     4.314806     20.39052     43.63083         5     0.709     0.470   9.85   0
       293    506.2024    272.9118 300.2420329 +22.6029711     1116.867     72.19973      1.282     2.59     4.406826     20.39052     185.8657        17     0.982     0.916  68.17   0
       294    591.5180    270.8046 300.2692776 +22.6279167     332.0264     72.19973      1.394     3.68     4.363556     20.39052     29.79273         5     1.019     0.382   6.55   0
       295   1017.8707    268.6380 300.4028633 +22.7549144     328.4059     72.23657      1.346     3.67     4.457826     20.39052     53.09768        10     1.000     0.762 -68.95  16
       296    751.0953    264.7951 300.3209342 +22.6739688     2240.519      72.1813      1.317     2.35     4.335469     20.39052     346.1234        22     1.116     0.898  70.20   0
       297   1012.4261    259.1516 300.4042422 +22.7505570      3249.16     72.29181      1.449     2.62     4.458919     20.39052      389.741        28     1.157     1.132 -81.64   0
       298    459.4073    248.8476 300.2352743 +22.5820418     532.2749     72.29181      1.189     2.56     4.540607     20.39052     96.40366        11     0.891     0.775  75.72   0
       299    165.1407    242.8235 300.1457089 +22.4921457     531.0697      72.2734      1.268     2.43     4.700608     20.39052      78.3722         9     0.850     0.652  66.04   0
       300    134.2483    242.6820 300.1361538 +22.4828465     1280.715     72.29181      1.571     3.30     4.771157     20.39052     154.4251        20     1.206     1.007   3.12   0
       301    871.8668    236.3878 300.3677914 +22.7019506     343.0342     72.25499      1.314     4.13     4.374384     20.39052     51.05088         8     0.996     0.609 -19.30   0
       302    218.2893    234.9808 300.1647734 +22.5058215     502.6583     72.21815      1.354     2.58     4.769764     20.39052     74.15586         9     0.870     0.729 -37.95   0
       303   1013.4375    232.4499 300.4132191 +22.7431795     361.4533      72.2734      1.393     3.42     4.467819     20.39052     48.69151         7     0.820     0.772  29.30   0
       304    894.3468    228.2975 300.3774243 +22.7063515     369.9899     72.36539      1.115     2.70      4.37951     20.39052     52.81336         7     0.788     0.611 -71.73   0
       305    822.6639    226.2590 300.3557384 +22.6843127     690.1586     72.31021      1.267     2.89      4.37264     20.39052     98.75358        12     1.020     0.788  67.95   0
       306    413.3340    225.6529 300.2284602 +22.5615781     333.3301     72.31021      1.198     3.46      4.98669     20.39052     66.52217         6     0.876     0.582  66.11   0
       307    913.3812    219.4395 300.3862324 +22.7095001     272.3318     72.29181      1.223     3.93     4.380521     20.39052     47.20837         8     0.901     0.719 -42.21   0
       308     97.5182    218.7462 300.1325028 +22.4649665     73.46189     72.31021      1.102     2.97     4.951535     20.39052     36.61942         5     0.724     0.475  73.66   0
       309    920.9650    215.2246 300.3899643 +22.7105573     2067.423     72.29181      1.406     2.71     4.380513     20.39052      257.006        24     1.131     1.030  -3.41   0
       310    339.4240    212.4188 300.2097590 +22.5356364     2108.966      72.2734      1.304     2.37      4.98519     20.39052     294.4439        20     1.096     0.909  70.84   0
       311    417.3583    207.7565 300.2355163 +22.5576425     1104.465     72.36539      1.379     2.80     4.997706     20.39052      124.143        16     1.029     0.900  25.93   0
       312    169.1910    208.1644 300.1582079 +22.4834087     283.3806      72.2734      1.399     3.15     4.781908     20.39052     40.19503         6     0.901     0.566 -24.98   0
       313    819.1275    207.0776 300.3608572 +22.6777392     619.2266     72.36539      1.356     2.97       4.3716     20.39052     85.28839         9     0.900     0.677  21.50   0
       314    464.2628    205.3281 300.2508998 +22.5709932     352.3499     72.31021      1.512     3.43     4.596046     20.39052     32.22833         5     1.137     0.299 -54.29   0
       315    926.3902    204.2392 300.3952189 +22.7090213     310.0562      72.2734      1.110     1.86     4.376829     20.39052     59.65401         5     0.647     0.474  75.02   0
       316    234.2287    200.0019 300.1810725 +22.5005535     731.7591     72.23657      1.442     2.52     4.846969     20.39052     97.47897        10     0.864     0.742 -34.62   0
       317    352.5400    198.5192 300.2183464 +22.5355731     328.7853     72.32861      1.408     4.19     5.044077     20.39052     36.44686         6     1.105     0.453  78.13   0
       318    772.0748    196.6272 300.3495817 +22.6606519     1705.288      72.2734      1.321     2.35      4.34361     20.39052     278.2719        18     1.070     0.876  69.81   0
       319    836.7451    196.4288 300.3698022 +22.6799497     602.7775      72.2734      1.368     2.44       4.3716     20.39052     84.50262        10     0.810     0.791 -84.52   0
       320    255.8097    193.1262 300.1900121 +22.5050451     538.4169      72.2734      1.321     3.08     4.846969     20.39052     65.86699         8     0.875     0.672  23.75   0
       321    776.2492    187.6513 300.3537934 +22.6593207     845.2605     72.31021      1.454     4.15     4.347471     20.39052     109.6502        15     1.313     0.839 -86.16   0
       322    696.5939    187.3572 300.3290694 +22.6353935     1251.031     72.29181      1.214     2.38     4.318016     20.39052     186.0831        15     0.976     0.807 -55.93   0
       323    517.7897    183.8452 300.2745267 +22.5808504      323.026     72.29181      1.190     2.78     4.386055     20.39052     62.14735         8     0.893     0.610 -81.75   0
       324    892.1422    178.7962 300.3927908 +22.6914564     1558.138     72.23657      1.424     2.70     4.369409     20.39052     220.8218        19     1.122     0.912  40.30   0
       325    904.1891    178.0948 300.3967745 +22.6948593     885.8052     72.21815      1.411     3.24     4.368174     20.39052      104.157        15     1.033     0.909  54.35   0
       326    622.9276    178.9395 300.3088533 +22.6109208     1013.346     72.31021      1.348     3.01     4.358047     20.39052     129.7805        13     1.044     0.823  75.95   0
       327    950.8768    176.8616 300.4117337 +22.7084735     322.4535     72.32861      1.284     4.41     4.358953     20.39052     45.21581         6     1.119     0.495 -49.83   0
       328   1020.7906    168.3652 300.4362965 +22.7269447     1024.737     69.51464      1.422     3.09       4.3117     20.39052     131.0325        16     1.001     0.978  49.22  16
       329     44.7394    164.9249 300.1335571 +22.4336972      535.392     72.32861      1.489     3.19     5.169759     20.39052     58.97947         9     0.974     0.668 -47.62   0
       330    254.5902    161.4487 300.1999042 +22.4955822     738.6698     72.29181      1.427     3.08     4.846969     20.39052     98.63696        14     1.028     0.892 -59.26   0
       331    116.7873    156.0076 300.1588334 +22.4527295     2181.052     72.16286      1.479     2.93     5.089129     20.39052     290.8933        24     1.180     1.035  49.83   0
       332    940.0774    153.2645 300.4160173 +22.6984551     864.8578     72.36539      1.414     3.39     4.345795     20.39052     101.9626        10     1.068     0.722  11.16   0
       333     66.2825    152.6516 300.1442289 +22.4366305     631.7899     72.29181      1.555     4.14     5.173426     20.39052     64.60795        14     1.104     1.001 -73.38   0
       334    274.1481    149.3232 300.2099169 +22.4979588     5687.751      72.2734      1.404     2.54     4.894849     20.39052     682.7099        39     1.253     1.145  66.17   0
       335    256.4536    150.3705 300.2040753 +22.4929587     320.9418      72.2734      1.086     3.32     4.890704     20.39052     45.78561         7     0.830     0.675  66.53   0
       336     58.3119    143.7619 300.1446346 +22.4316895     1282.696     72.25499      1.498     2.81     5.155128     20.39052     165.5704        18     1.178     0.966  10.91   0
       337    257.3644    140.0513 300.2077040 +22.4902677     548.1262     72.29181      1.542     3.21     4.930479     20.39052     66.32063        11     1.086     0.777 -88.09   0
       338    918.3055    130.9687 300.4164568 +22.6855283     3670.689     72.19973      1.424     2.99     4.343884     20.39052     453.8043        31     1.234     1.114 -68.79   0
       339   1021.8773    129.8004 300.4491399 +22.7161749     2741.773     65.20888      1.491     2.92     4.300841     20.39052     323.1431        28     1.252     1.080  76.55  24
       340    220.6206    126.5885 300.2006442 +22.4753932     237.1589     72.25499      1.209     3.15     4.965878     20.39052     45.94094         6     0.860     0.482  85.76   0
       341    467.6476    125.8962 300.2777083 +22.5491834     608.3541     72.31021      1.280     2.41     4.493783     20.39052     102.3091        11     0.888     0.760 -77.51   0
       342    581.8267    124.0269 300.3138585 +22.5828325     321.8377     72.23657      1.345     4.74     4.574915     20.39052     41.97654         6     1.033     0.617  81.67   0
       343    391.8236    117.6370 300.2567913 +22.5241036     688.0875     72.29181      1.381     3.71     4.902548     20.39052     98.04806        10     1.173     0.598  54.69   0
       344    395.8065    116.5178 300.2583933 +22.5249748     399.5794     72.19973      1.420     4.05     4.878486     20.39052     52.79274        10     0.998     0.801  76.43   0
       345    157.7639    115.4848 300.1847048 +22.4533721     612.1368     72.25499      1.342     3.36     4.680944     20.39052     78.04396        11     0.936     0.834  -6.54   0
       346    519.0609    113.5072 300.2977275 +22.5610175     1711.777     72.36539      1.281     2.23     4.380428     20.39052     269.1635        19     1.066     0.866  60.96   0
       347    446.9673    113.8438 300.2751795 +22.5395274     501.1035     72.31021      1.242     2.75     4.586869     20.39052     72.69353         9     0.842     0.706 -74.92   0
       348    580.8994    112.8100 300.3172061 +22.5793308     383.2309      72.1813      1.284     2.26      4.63816     20.39052     61.97975         6     0.727     0.535  34.96   0
       349    263.0056    108.7082 300.2196188 +22.4829549     302.4309      72.1813      1.378     2.27     5.054001     20.39052     51.26288         5     0.831     0.454  -1.89   0
       350    807.6914    102.9738 300.3910476 +22.6443809     385.6253     72.21815      1.210     3.28     4.394036     20.39052     52.79726         7     0.745     0.654 -69.77   0
       351    654.2949     99.1071 300.3445055 +22.5973620       256.76     72.43889      1.168     3.96     4.614508     20.39052     40.36782         6     0.972     0.461  50.99   0
       352    953.5215     97.5724 300.4382660 +22.6864565     326.9926     72.29181      1.457     3.10     4.312249     20.39052     43.36088         6     0.864     0.696  82.20   0
       353    293.0574     93.1554 300.2340053 +22.4874891     5883.833     72.31021      1.403     2.74     5.101076     20.39052     729.1108        36     1.336     1.051  66.35   0
       354    144.2880     92.8098 300.1878664 +22.4428227     788.3466     72.21815      1.582     3.04     4.635451     20.39052     93.76965        13     1.130     0.737 -17.73   0
       355    922.3962     90.8581 300.4307358 +22.6752141     285.9298     72.23657      1.063     2.87     4.387199     20.39052     49.69647         5     0.919     0.343   4.45   0
       356    264.9323     86.9507 300.2272703 +22.4772823     318.3294      72.2734      1.169     2.46     5.103519     20.39052     59.54511         5     0.901     0.358 -27.53   0
       357    769.1776     84.4320 300.3850549 +22.6275241     248.5576      72.2734      1.470     5.14     4.506136     20.39052     34.02887         6     1.046     0.713   6.63   0
       358    308.7233     84.6687 300.2416281 +22.4897433      208.201     72.36539      1.060     2.33     5.066048     20.39052     51.37616         5     0.708     0.447  15.62   0
       359     54.9038     83.2825 300.1631801 +22.4133041     478.1471     72.43889      1.941     4.67     5.004051     20.39052     49.92266         8     1.038     0.820 -57.05   0
       360    539.1930     78.6353 300.3152985 +22.5570220     6158.145     72.29181      1.342     2.43     4.542145     20.39052     923.4938        34     1.242     0.996  73.47   0
       361    424.7673     78.5713 300.2797046 +22.5227438     607.1511      72.2734      1.313     2.71     4.558866     20.39052     82.27126        11     0.989     0.673 -44.37   0
       362    596.2222     73.6385 300.3346748 +22.5726575     182.6507     72.29181      1.015     2.57     4.963701     20.39052     49.29665         6     0.692     0.625  53.16   0
       363    559.8596     72.8415 300.3236107 +22.5615435     196.9353     72.25499      1.190     2.54     4.721231     20.39052     42.70234         6     0.754     0.532  38.32   0
       364    791.2621     69.5549 300.3967597 +22.6298538     974.6761     72.31021      1.986     5.09     4.578627     20.39052     96.27359        17     1.991     0.715 -67.18   0
       365    733.1149     69.9615 300.3785078 +22.6125713     300.8943     72.25499      1.262     2.38      4.61603     20.39052     47.83714         5     0.616     0.575   5.28   0
       366    884.0735     66.9745 300.4265279 +22.6568794     513.8508     72.29181      1.386     4.28     4.609803     20.39052     64.67155        10     1.131     0.688  80.24   0
       367    952.1998     65.6662 300.4481961 +22.6768819     197.4029     72.23657      1.178     3.83     4.692592     20.39052     40.12518         5     0.736     0.713  74.72   0
       368    192.8207     64.4016 300.2121588 +22.4492039     133.6647     72.19973      0.910     2.27     4.760854     20.39052     37.00395         5     0.701     0.452 -20.74   0
       369    232.2502     62.2479 300.2251147 +22.4603966     435.1417     72.31021      1.295     3.09     5.106873     20.39052     69.76046         9     0.951     0.621 -37.06   0
       370    590.8271     61.2822 300.3369996 +22.5674905     411.5636      72.2734      1.176     2.58     4.980128     20.39052     85.06602         8     0.910     0.591 -15.77   0
       371    667.5758     58.6568 300.3617536 +22.5897070      6273.74      72.2734      1.353     2.40     4.868073     20.39052     889.6572        33     1.196     1.043  75.19   0
       372    708.7917     56.1179 300.3754163 +22.6013117     908.8568     72.21815      1.417     3.42     4.771355     20.39052     126.6749        17     1.332     0.829  79.68   0
       373    442.4509     57.5625 300.2920166 +22.5220014     1436.922     72.29181      1.426     2.39     4.447337     20.39052     197.4147        19     1.147     0.955  60.41   0
       374    778.6726     54.0967 300.3978463 +22.6216411     412.0419     72.40215      1.844     5.56     4.684019     20.39052     41.24891         9     1.378     0.632  80.02   0
       375    724.8167     51.7457 300.3818261 +22.6048498     728.9363     72.25499      1.556     3.75     4.748322     20.39052     84.12436        14     1.065     1.036  68.61   0
       376    994.7928     50.0490 300.4665431 +22.6851278     542.6321      72.2734      1.533     3.08     4.934364     20.39052     60.68705         9     0.914     0.689 -74.14   0
       377     38.2139     51.0071 300.1684552 +22.3990356     340.5776     72.16286      1.474     3.79     5.066232     20.39052     36.75783         5     0.820     0.502 -25.38   0
       378    191.4462     49.8805 300.2164375 +22.4446212     817.8593     72.25499      1.595     3.30     4.707659     20.39052     94.04443        11     1.058     0.720 -78.67   0
       379    762.9581     47.6765 300.3950299 +22.6150927     428.5187     72.23657      1.244     2.61     4.724621     20.39052     84.13788        10     0.955     0.761 -45.02   0
       380    726.8599     42.6992 300.3853946 +22.6028597     886.5655     72.36539      1.783     4.67      4.79838     20.39052     94.47306        15     1.383     0.960  56.76   0
       381    711.8175     43.5641 300.3804276 +22.5986071     2694.337      72.2734      1.312     2.46     4.851283     20.39052      418.564        23     1.045     1.012 -81.95   0
       382    353.1468     44.5560 300.2684462 +22.4915227     365.7309     72.29181      1.378     4.56     4.572945     20.39052     53.40331         7     1.230     0.480   6.51   0
       383      5.3196     37.6892 300.1625531 +22.3853546      864.777     72.23657      1.654     4.54     5.462321     20.39052     98.15443        17     1.415     0.914 -26.55  16
       384    798.2818     35.2407 300.4100688 +22.6220849     1589.796     72.23657      1.335     2.43     4.800866     20.39052     228.7463        20     1.105     0.956  74.72   0
       385    876.2690     29.8041 300.4361415 +22.6438519     276.2916     72.23657      1.325     3.71     4.879633     20.39052     34.45448         5     0.868     0.455 -42.95   0
       386    711.5462     30.2744 300.3846500 +22.5947042     178.2959     72.29181      1.624     3.49     4.955218     20.39052     31.79709         5     0.766     0.458 -71.47   0
       387    736.1198     28.4240 300.3929062 +22.6015252     722.7674     72.23657      1.318     2.83     4.846733     20.39052      117.368        12     1.060     0.718  55.39   0
       388    541.7583     27.6294 300.3326277 +22.5431282     1157.843     72.29181      1.336     2.26     5.035475     20.39052      180.401        16     1.205     0.782  71.15   0
       389    114.6152     27.6303 300.1997683 +22.4152139     631.0963      72.2734      1.388     2.89     4.235498     20.39052     78.04652         9     1.052     0.586  -8.52   0
       390    827.9746     24.7205 300.4227332 +22.6279423     433.9663     72.25499      1.259     2.36     4.866413     20.39052     80.69181         7     0.802     0.626  71.70   0
       391    445.5864     25.5679 300.3033608 +22.5137450     851.2466      72.2734      1.434     2.86     4.362349     20.39052     112.3115        13     1.055     0.785  76.35   0
       392    784.9510     16.5167 300.4119818 +22.6127110     677.9505      72.2734      1.346     2.27     4.914062     20.39052     101.6564         9     0.842     0.670  59.88   0
       393    348.2183     16.7020 300.2759392 +22.4820430     214.0915     72.19973      1.091     4.66     4.352115     20.39052     33.11407         6     0.990     0.622  34.47   0
       394    124.0890    962.9749 299.8990359 +22.6864064     5273.481     72.21815     22.461    84.60     33.73935     20.39052     116.2195      3174    19.357    15.204 -12.71  19
       395      9.0686     15.4736 300.1709161 +22.3800992     335.3205       72.347      1.445     3.56     5.500896     20.39052     48.87804         6     0.956     0.596  28.00   0
       396    219.1662   1011.5754 299.9127712 +22.7288743     2796.919     72.29181      6.181    23.44     81.12785     20.39052     61.99052       154     4.944     3.609  43.06  18
       397    542.8256     13.2047 300.3376342 +22.5393009     329.1466     72.23657      1.266     2.70     5.191189     20.39052     49.70805         6     0.751     0.536 -54.69   0
       398    216.8998   1005.9854 299.9138856 +22.7265918     1977.352      72.1813      5.020    13.33     76.36166     20.39052     59.88924        51     3.991     1.238 -52.65  19
       399    194.9804   1018.8832 299.9028762 +22.7237092     372.9153     72.21815      1.946     6.10     86.68841     20.39052     27.67287         7     1.171     0.892 -35.03  16
       400    245.1485    998.8558 299.9249863 +22.7330266     4217.335     72.31021      7.816    22.67     62.41289     20.39052      83.2763       275     5.270     4.416 -68.39  19
