#   1 NUMBER                 Running object number                                     
#   2 X_IMAGE                Object position along x                                    [pixel]
#   3 Y_IMAGE                Object position along y                                    [pixel]
#   4 ALPHA_J2000            Right ascension of barycenter (J2000)                      [deg]
#   5 DELTA_J2000            Declination of barycenter (J2000)                          [deg]
#   6 FLUX_APER              Flux vector within fixed circular aperture(s)              [count]
#   7 FLUXERR_APER           RMS error vector for aperture flux(es)                     [count]
#   8 FLUX_RADIUS            Fraction-of-light radii                                    [pixel]
#   9 FWHM_IMAGE             FWHM assuming a gaussian core                              [pixel]
#  10 BACKGROUND             Background at centroid position                            [count]
#  11 THRESHOLD              Detection threshold above background                       [count]
#  12 FLUX_MAX               Peak flux above background                                 [count]
#  13 ISOAREA_IMAGE          Isophotal area above Analysis threshold                    [pixel**2]
#  14 A_IMAGE                Profile RMS along major axis                               [pixel]
#  15 B_IMAGE                Profile RMS along minor axis                               [pixel]
#  16 THETA_IMAGE            Position angle (CCW/x)                                     [deg]
#  17 FLAGS                  Extraction flags                                          
         1    686.9172     15.7223 300.3930128 +22.6015179     815.5369     72.31676      1.611     4.80     6.927536     20.37682     81.47419        17     1.319     1.001  79.70   0
         2    396.3863     13.5348 300.3032032 +22.5139374     624.2413     72.18803      1.269     3.28     6.582882     20.37682     92.34776        11     1.132     0.658  -8.51   0
         3    778.8688     12.1526 300.4228414 +22.6280003     474.4579     72.20644      1.907     5.49     6.557985     20.37682     48.53515         7     1.182     0.876 -46.66   0
         4    492.4902     14.9465 300.3326756 +22.5431112     1144.713     72.26162      1.541     3.39     6.278214     20.37682     137.6394        20     1.311     1.015  87.06   0
         5    167.8529      3.2968 300.2353974 +22.4425645     3632.198     66.09633      1.646     3.06     6.891084     20.37682     383.5377        34     1.449     1.189   8.27  24
         6    736.0887      3.9484 300.4121579 +22.6128427     652.4639     68.56308      1.443     4.42     6.847383     20.37682     78.48935        10     1.120     0.689 -84.30  24
         7    173.6895   1004.1511 299.9123650 +22.7315110     1123.211     72.22484      2.985     8.55     87.09348     20.37682     44.17133        18     2.359     0.866 -17.02   3
         8     80.8806   1009.7985 299.8816706 +22.7052723     5377.834      72.1328     20.191   102.46     74.35539     20.37682     155.2525      2802    21.473    18.234  53.05  27
         9    215.3983    984.6248 299.9316883 +22.7384311      4547.52     72.16962      8.755    27.76     67.99088     20.37682     83.94485       395     6.792     4.747 -49.20  19
        10    234.0197    972.9626 299.9412736 +22.7406758     7269.563     72.24323      8.172    33.05     48.81901     20.37682     162.2957       682    10.547     4.628  63.24  18
        11    352.6528    998.3879 299.9699191 +22.7835607      509.315     72.24323      1.657     3.05     4.103203     20.37682     44.15271         6     0.855     0.475  87.44   0
        12    482.6740   1000.7708 300.0096243 +22.8232477     428.8102     72.24323      1.912     5.09     3.650617     20.37682     32.69725         6     1.138     0.643 -17.40   0
        13    543.0759    991.0131 300.0316112 +22.8385645     2393.002     72.24323      2.055     5.22      4.39857     20.37682     154.7283        33     1.469     1.403 -58.89   0
        14    821.3725    991.0137 300.1183559 +22.9220015     1733.605     72.22484      0.621     0.97     3.919143     20.37682     890.6555         7     0.516     0.397   1.66   0
        15     73.0323    952.2452 299.8979476 +22.6864230     5929.953     72.28001     29.721   103.51     25.46618     20.37682     1224.165      3651    22.922    12.968 -24.17  19
        16      2.3930    996.2551 299.8616800 +22.6778293       1770.1     61.90262     13.868    20.87    -21.58774     20.37682      53.5634        95     7.656     1.580 -83.28  27
        17    629.7017    986.5834 300.0600418 +22.8632701      8750.56      72.1328      2.115     5.10     4.421573     20.37682     448.5977        52     1.663     1.539  17.01   3
        18    635.1890    984.3010 300.0624942 +22.8642606     9855.521      72.1328      2.184     5.23     4.423532     20.37682     501.9946        56     1.680     1.577  41.40   3
        19    729.9322    986.9852 300.0911526 +22.8934357      740.456     72.22484      2.310     6.62     4.408105     20.37682      40.2621        13     1.472     0.836  47.29   0
        20     72.9984    916.7204 299.9094878 +22.6762311     4408.656      72.1328     26.143    64.62     9.375675     20.37682     88.43263      1336    15.679     7.391 -26.73  19
        21    160.6081    981.0853 299.9157985 +22.7209737      630.893     72.15121      1.956     3.72     66.89433     20.37682     36.99192         5     1.169     0.340 -71.39   3
        22    160.8900    971.8948 299.9188750 +22.7184240     1458.491     72.40857      8.099    15.17     58.90401     20.37682     44.29761        35     4.096     1.562 -87.97   3
        23    164.1927    975.1657 299.9188384 +22.7203527     1584.701     72.22484      6.604     8.34     61.38609     20.37682     60.11997        26     1.884     1.337  37.56   3
        24    494.4025    975.4719 300.0215053 +22.8195089     422.2795     72.16962      1.902     4.67     4.024922     20.37682     36.67268         6     1.304     0.474 -39.13   0
        25    194.0407   1002.0765 299.9193693 +22.7370242      1361.03     72.18803      3.311    11.67     84.87959     20.37682     47.36501        29     2.201     1.723 -25.99   1
        26    172.5642   1001.0148 299.9130351 +22.7302744     960.2871     72.22484      3.222     6.54     84.39302     20.37682     65.13176        14     1.657     0.725  10.54   3
        27    922.7100    970.2371 300.1567269 +22.9464068     716.4418     72.20644      2.181     8.36     4.566838     20.37682     41.83671        16     1.597     1.224 -26.90   0
        28    163.7961    979.1206 299.9174289 +22.7213673     1367.501      72.1328      7.158     9.87     64.95534     20.37682      52.7721        20     2.243     1.211  50.21   3
        29      4.8747    962.6557 299.8733778 +22.6689470     1098.821     71.31771      5.828     7.93    -7.536759     20.37682     34.09093        13     1.635     1.075  -0.74  26
        30    528.5268    948.0111 300.0410645 +22.8218652     498.9467     72.24323      1.789     5.77     4.386645     20.37682     30.66838         8     1.229     0.763 -65.67   0
        31    141.4529    955.3014 299.9182266 +22.7078343     2089.421     72.31676     15.115    16.69     42.27414     20.37682     55.83368        86     3.612     2.796  22.81   1
        32    239.2929    947.5983 299.9511624 +22.7349863     78.26958      72.1328      1.260     5.03     25.75746     20.37682     46.60703        10     1.275     1.073  -8.99   0
        33    161.5988    947.0202 299.9271843 +22.7115065     1002.147     72.15121      3.923     5.13     36.60626     20.37682     33.77339         8     1.545     0.482 -15.00   2
        34    800.5007    946.3117 300.1263854 +22.9029143     400.6606     72.39022      2.169     4.41     4.435181     20.37682     34.95079         5     1.007     0.720   6.03   0
        35    556.5079    944.0151 300.0510804 +22.8291095     1498.261     72.15121      1.940     4.96     4.437742     20.37682     97.96511        28     1.467     1.269  13.95   0
        36    450.4451    940.3250 300.0192464 +22.7962436     1081.198     72.20644      1.982     5.65      4.49344     20.37682     72.64722        22     1.355     1.208  49.95   0
        37    380.8893    938.5984 299.9981525 +22.7748857     6699.536      72.1328      2.007     4.48     4.745646     20.37682     480.8955        46     1.530     1.500  27.71   0
        38     35.7689   1003.0254 299.8698509 +22.6897891     1256.673     72.22484      7.610     8.31     15.86169     20.37682     41.77647        13     2.132     0.905 -65.54   3
        39    647.9531    953.4326 300.0765114 +22.8592302     6957.003     72.26162      2.056     4.60     4.446766     20.37682     387.7658        56     1.609     1.566  35.17   0
        40    226.5187   1000.0900 299.9301177 +22.7462015     737.5079     72.33513      1.909     6.74     79.92818     20.37682     63.21006        17     1.728     0.963  17.98   0
        41    413.6941    925.9999 300.0124616 +22.7811120     550.4167     72.09595      1.750     6.32     4.794307     20.37682     44.45107        13     1.127     0.996  34.74   0
        42    928.5148    918.5225 300.1753566 +22.9332972     1407.557     72.33514      1.823     5.80     4.761943     20.37682     87.25025        16     1.510     0.813 -75.79   3
        43    925.7905    918.0425 300.1746627 +22.9323431     1226.255     72.22484      1.786     5.74      4.76755     20.37682     98.91765        16     1.598     0.820 -77.64   3
        44     23.3604   1023.1071 299.8594628 +22.6918179     475.9689      59.3158      2.885     4.75   -0.7484812     20.37682     36.64647         5     1.022     0.625  -3.39  25
        45    717.0434    906.4859 300.1133133 +22.8664684     832.9152     72.20644      2.334     4.29     4.600049     20.37682      55.3996        12     1.212     0.820  56.30   2
        46     18.2124   1016.9748 299.8598575 +22.6885153     1576.024     72.22484     10.058    17.98    -7.273318     20.37682     39.76294        60     4.305     2.086 -79.65  19
        47    750.9996    900.7763 300.1257565 +22.8750070     1010.041     72.15121      1.832     4.98      4.67926     20.37682     67.04548        20     1.242     1.138  16.93   0
        48    528.3532    901.6926 300.0560716 +22.8085244     391.9592     72.24323      1.708     6.44      4.54244     20.37682     38.70322         9     1.257     0.926 -18.94   0
        49      4.8467   1014.3642 299.8565528 +22.6837545     3125.514      71.2618     22.930    54.33    -24.26476     20.37682     67.72179       497    16.614     4.930 -83.42  27
        50    773.0854    894.2534 300.1347641 +22.8797538     11252.06     72.28001      1.957     4.70     4.780005     20.37682     683.7964        52     1.530     1.502  58.06   0
        51    820.0253    894.2609 300.1494004 +22.8938230     526.2121     72.22484      1.991     4.34     4.896182     20.37682     37.94704         6     1.184     0.453 -75.80   0
        52    167.9613    995.7980 299.9133003 +22.7273976     3065.426     72.24323      6.536    27.57     80.00879     20.37682     67.55276       217     5.388     4.294 -55.65  19
        53    134.0100   1008.8639 299.8984929 +22.7209523     496.1056     72.16962      1.493     4.78     92.62678     20.37682     30.65338         5     1.227     0.527  61.24   2
        54     84.7686    886.6703 299.9229162 +22.6711502     1393.658     72.22484      8.434     7.65     7.938033     20.37682      64.2644        22     1.820     1.476   8.31   1
        55    203.4678   1002.5558 299.9221455 +22.7399908     1098.666     72.20644      2.932    10.83     85.65071     20.37682     42.81811        15     2.619     1.249  16.18   1
        56    478.4895    882.6357 300.0467367 +22.7881048     435.8415     72.20644      1.799     5.26     4.647071     20.37682     36.44135         7     0.945     0.827 -20.80   0
        57     55.2752    879.8264 299.9159725 +22.6603372     431.8908     72.22484      2.077     4.29     6.471861     20.37682     43.05303         5     1.057     0.495 -52.57   0
        58     75.3038    877.0739 299.9230934 +22.6655590      650.023      72.3535      4.261     5.11     6.877223     20.37682     45.48038         8     1.180     0.625 -78.83   0
        59    781.7867    876.4033 300.1432810 +22.8772371     1514.498     72.05907      1.926     4.47     4.911851     20.37682     89.69563        25     1.382     1.164 -25.18   0
        60    964.3373    875.2881 300.2005934 +22.9316132     336.2493     72.31676      1.773     5.93     5.299239     20.37682     33.91484         7     1.372     0.722 -37.42   0
        61    819.7645    870.0549 300.1571890 +22.8867951     762.8823     72.24323      2.000     6.76     5.073169     20.37682     46.00039        17     1.257     1.019  13.80   0
        62    929.1172    866.6736 300.1924030 +22.9185882     397.2088     72.33513      1.772     3.41     5.137757     20.37682     37.13365         5     0.961     0.351  46.22   0
        63    193.5476    866.1940 299.9633986 +22.6979210     276.2767     72.18803      2.748     4.84     8.092767     20.37682     32.67124         5     1.058     0.628 -26.61   0
        64    867.2162    860.9776 300.1749416 +22.8984069     549.9932     72.20644      1.847     4.34     5.114322     20.37682     28.71634         7     1.320     0.406 -74.19   2
        65    719.8531    859.9703 300.1293124 +22.8539584     677.3033     72.24323      1.708     5.15     4.649273     20.37682     55.01883        15     1.187     1.041  -2.61   0
        66    432.1531    856.3023 300.0408684 +22.7666549     4091.022     72.26162      1.867     4.11     4.882603     20.37682     304.9432        41     1.456     1.406   3.39   0
        67    730.8561    857.0541 300.1336908 +22.8564189     429.0932     72.28001      1.488     5.97      4.67062     20.37682     43.27966        11     1.069     0.937  69.41   0
        68     93.9050    845.5484 299.9391235 +22.6621038     437.0383     72.29839      1.969     4.87     6.119524     20.37682     54.94525         6     1.124     0.651 -13.69   0
        69    475.6155    844.5040 300.0582375 +22.7763027     500.9306      72.1328      1.923     5.37     4.861058     20.37682     35.75773         6     1.106     0.736 -41.26   0
        70    157.4244    841.8912 299.9600633 +22.6801146     907.0659     72.16962      2.132     6.08     8.063252     20.37682     52.95805        17     1.428     1.056 -26.42   0
        71    134.7245    838.6617 299.9540539 +22.6723778     1576.197     72.28001      2.024     4.92     7.235234     20.37682     117.9836        31     1.560     1.347  50.43   0
        72    940.4311    837.0375 300.2055680 +22.9134659     1281.767     72.22484      0.664     0.80     5.291938     20.37682     590.5859         8     0.575     0.389   1.97   0
        73   1006.4444    828.3696 300.2289888 +22.9307494     2082.184     72.26162      2.057     5.10      5.57379     20.37682     130.4317        34     1.527     1.432 -21.29   0
        74     10.4634    828.8882 299.9186009 +22.6322878     428.1073     72.33513      1.281     1.98     5.611422     20.37682     52.03494         5     0.679     0.465 -68.63   0
        75    960.6987    826.8415 300.2152074 +22.9166085     2194.119     72.20644      1.986     5.13     5.399909     20.37682     118.1863        32     1.471     1.359  13.65   0
        76    665.4555    827.4312 300.1229328 +22.8283141     549.3157     72.24323      2.415     3.78     4.718044     20.37682     31.30155         6     0.965     0.425  72.51   0
        77    744.0549    820.7166 300.1496179 +22.8499423      686.595     72.28001      1.805     5.17     4.867646     20.37682     45.39241        15     1.204     0.967  13.96   0
        78    167.4024    820.7827 299.9700269 +22.6770558     382.9129      72.1328      1.473     3.09      6.92402     20.37682      39.8895         5     0.711     0.478 -78.11   0
        79    612.1174    814.4465 300.1105304 +22.8085998      4798.87     72.20644      1.756     3.81     4.766813     20.37682     410.1883        39     1.391     1.325  18.22   0
        80    414.5837    811.2816 300.0500313 +22.7484701     659.1099     72.20644      1.643     3.82     4.988802     20.37682     66.88518        12     1.068     0.882 -30.99   0
        81    162.3109    808.0255 299.9725895 +22.6718702     1320.597     72.16962      1.967     5.13     6.273637     20.37682     92.70648        24     1.441     1.239  13.95   0
        82    633.0165    807.2647 300.1193773 +22.8128026     776.3405     72.20644      2.031     4.85     4.798223     20.37682     52.64296        11     0.966     0.892 -22.65   0
        83    182.5912    805.6450 299.9796705 +22.6772717     554.0182     72.24323      1.698     3.51     6.086419     20.37682     30.88525         5     1.068     0.333 -69.13   0
        84   1005.0559    794.6332 300.2395211 +22.9206420     1034.023     72.24323      2.012     5.76     5.529667     20.37682     68.62489        21     1.456     1.141  42.57   0
        85    788.2552    794.2454 300.1720043 +22.8555862     4235.315     72.26162      1.811     4.07     5.073408     20.37682     302.8456        39     1.426     1.354  28.25   0
        86    197.6468    788.5481 299.9899093 +22.6768853     289.6586     72.26162      1.182     3.46     5.841397     20.37682     41.22757         5     0.738     0.468  17.17   0
        87    505.2938    787.0502 300.0861541 +22.7687146     483.0931     72.29839      1.536     3.69     5.246388     20.37682     50.25883         9     0.986     0.693  -2.77   0
        88    151.8195    784.5367 299.9769597 +22.6619873     1067.195     72.20644      1.936     3.79     5.813769     20.37682      102.279        16     1.294     0.914 -28.27   0
        89    566.7421    779.9745 300.1075953 +22.7851044     466.7223     72.22484      1.671     6.20      5.15738     20.37682     45.07998        12     1.142     0.946 -20.97   0
        90    301.2208    776.6087 300.0260130 +22.7045272     54015.56     72.20644      1.841     3.82     5.556648     20.37682     4818.889       104     1.580     1.523  13.81   0
        91    559.1042    775.7800 300.1065788 +22.7816110     1645.667      72.1328      1.717     3.82     5.212023     20.37682      142.561        24     1.282     1.141  -1.19   0
        92    972.1392    775.2547 300.2355448 +22.9052165     948.9125     72.28001      1.971     5.36     5.412265     20.37682     60.48409        24     1.531     1.189   7.77   0
        93    230.8087    775.1811 300.0045686 +22.6829991     276.3121     72.18803      1.525     2.82     5.777166     20.37682     40.25616         5     0.710     0.691  53.35   0
        94    588.1219    771.9437 300.1168664 +22.7892077     1123.695     72.26162      1.844     4.41     5.103864     20.37682     83.09178        16     1.230     0.922  37.47   0
        95    598.9245    770.4761 300.1207093 +22.7920243     576.2881     72.31676      1.666     6.12     5.067436     20.37682     64.40572        14     1.395     1.089 -23.18   0
        96    704.4089    766.2454 300.1549605 +22.8224227     326.4521     72.24323      1.639     5.43     4.903907     20.37682     42.99846        10     1.214     0.862 -12.94   0
        97    350.9493    753.8813 300.0488747 +22.7129202     31960.21     72.24323      1.752     3.59     5.371727     20.37682     2858.931        76     1.498     1.438  -0.53   0
        98    742.1633    756.9724 300.1697445 +22.8310730     775.5081     72.22484      1.757     4.77     4.947476     20.37682     70.15295        16     1.374     0.839   5.19   0
        99    365.2369    754.3104 300.0531826 +22.7173275     2094.908     72.20644      1.800     3.91     5.354776     20.37682     188.8773        27     1.395     1.225  35.84   0
       100    874.2084    750.0445 300.2131787 +22.8686424      2828.64     72.24323      1.799     3.89     5.325324     20.37682     180.6987        33     1.395     1.270   8.41   0
       101    362.1159    747.9137 300.0542895 +22.7145564     615.4357     72.33513      1.807     5.00     5.401744     20.37682     58.95196         8     1.160     0.610  47.29   1
       102    632.1199    745.8640 300.1390513 +22.7949080     998.9807     72.33513      1.665     3.60     5.078481     20.37682     78.97652        19     1.167     1.036  12.05   0
       103    233.7837    745.7709 300.0150502 +22.6754559     724.3251     72.22484      1.738     4.09     5.680759     20.37682     65.84086        15     1.151     0.931 -10.42   0
       104    479.0037    740.9517 300.0929453 +22.7476036     744.1891     72.20644      1.505     3.92     5.524904     20.37682     73.06675        16     1.202     0.918   6.22   0
       105     39.0261    741.2586 299.9559529 +22.6157374     377.0862     72.22484      1.797     3.45     5.661414     20.37682     44.05599         7     0.991     0.605  68.95   0
       106    880.0809    737.9165 300.2189517 +22.8669178     525.1934     72.37186      1.757     5.35     5.359424     20.37682     43.58982        12     1.187     0.855 -12.90   0
       107    424.7090    736.4263 300.0775083 +22.7300277     483.3876     72.16962      2.184     6.06      5.44944     20.37682     47.01086        10     1.517     0.775 -62.87   0
       108    381.5170    737.4270 300.0637361 +22.7173649     298.4358     72.22484      1.521     3.68     5.465375     20.37682     34.52097         6     0.942     0.413 -70.61   0
       109    337.7817    736.5287 300.0504143 +22.7039932     277.3722     72.24323      1.141     2.51     5.527474     20.37682     42.95674         5     0.709     0.450  23.31   0
       110    468.0391    745.8550 300.0879375 +22.7457238     403.7194     72.22484      1.633     4.56     5.473403     20.37682     42.83693         7     1.055     0.560  53.76   0
       111     67.1045    734.7446 299.9667974 +22.6222941     564.5457     72.28001      1.842     5.32     5.652052     20.37682     41.15271         8     1.135     0.703  47.36   0
       112    857.5659    733.1417 300.2134792 +22.8588022     427.7765     72.24323      1.638     4.83     5.352513     20.37682     33.42363         7     1.180     0.560 -16.52   0
       113    231.9505    730.1811 300.0195449 +22.6704343     521.8961     72.22484      1.726     4.30      5.62368     20.37682     54.55354         8     1.052     0.690 -49.69   0
       114    554.7212    720.9764 300.1230205 +22.7645667     435.4194     72.18803      1.484     4.53     5.427174     20.37682     55.39784        10     1.237     0.732   5.13   0
       115    524.0655    718.8421 300.1141640 +22.7547656     681.2244     72.20644      1.608     4.19     5.498078     20.37682     59.60877        12     1.119     0.834  41.39   0
       116    433.3705    717.5579 300.0863354 +22.7272098     296.4686     72.26162      1.504     5.68     5.493793     20.37682     33.19498         7     1.067     0.851   7.40   0
       117    940.6096    715.4166 300.2451489 +22.8785830     4465.973     72.15121      1.790     4.02     5.352346     20.37682     334.9496        37     1.392     1.318 -43.60   0
       118    545.9846    716.2405 300.1218374 +22.7605887     1187.135     72.24323      1.537     3.38     5.468332     20.37682      110.133        20     1.142     1.038  25.62   0
       119    466.4303    715.4144 300.0973265 +22.7365054     408.4585     72.22484      1.840     4.23      5.54458     20.37682      38.6597         7     1.101     0.464  -9.61   0
       120    929.0807    707.0612 300.2442659 +22.8727299     1646.712     72.31676      1.683     3.72     5.361933     20.37682     122.2719        23     1.239     1.105  18.82   0
       121    292.0953    700.2170 300.0479927 +22.6798755     918.5169     72.15121      1.811     4.28     5.491346     20.37682     77.36925        21     1.306     1.139  37.25   0
       122    755.3428    698.0454 300.1929999 +22.8180997     2649.207     72.24323      1.708     3.33     5.138451     20.37682     205.4227        30     1.318     1.279  40.61   0
       123    960.1640    697.1444 300.2571880 +22.8791893     1646.958     72.24323      1.841     3.83     5.337168     20.37682     120.9646        23     1.213     1.195  42.02   0
       124    141.1926    684.4801 300.0061615 +22.6301046     569.6366     72.15121      1.403     3.25     5.453337     20.37682     61.81887        10     0.895     0.815  -2.11   0
       125    837.6481    684.1263 300.2231905 +22.8387568     527.1367     72.22484      1.685     4.18     5.458924     20.37682     41.59571         9     0.920     0.692  17.30   0
       126    420.7285    683.5372 300.0934508 +22.7136564     221.4893     72.26162      1.390     4.74     5.541088     20.37682     29.61978         6     1.049     0.609  58.15   0
       127    873.8425    674.9863 300.2374507 +22.8469718     149213.6     72.24323      1.725     3.57      5.61645     20.37682      10823.4       160     1.594     1.509 -47.47   0
       128   1020.8181    676.6418 300.2827810 +22.8914597     1240.806     69.37223      1.923     5.04     5.288438     20.37682     80.70572        21     1.363     1.163  52.28  16
       129    726.2304    675.1859 300.1913488 +22.8028130     773.3975     72.22484      1.538     4.51     5.213647     20.37682     66.10167        17     1.325     0.956  49.57   0
       130    906.7494    668.2388 300.2499096 +22.8548884     418.2113     72.24323      1.512     5.42     5.461307     20.37682     49.88612        11     1.229     0.674  -9.83   0
       131    560.0058    663.5654 300.1433169 +22.7496694     1588.183     72.22484      1.522     3.34     5.520158     20.37682     169.0921        22     1.154     1.124  30.85   0
       132    741.3273    661.0579 300.2006450 +22.8032781      9260.39     72.26162      1.577     3.19     5.236504     20.37682     814.5266        44     1.319     1.254 -45.79   0
       133    242.7673    655.9199 300.0470324 +22.6523748     4998.359     72.22484      1.719     3.55     5.380438     20.37682     446.2539        35     1.337     1.283  16.91   0
       134    324.6727    653.9985 300.0731434 +22.6763823     1066.711     72.11437      1.608     3.86     5.421211     20.37682     100.6306        20     1.169     1.156 -48.18   0
       135    200.5858    651.7396 300.0352678 +22.6385262     507.1429     72.18803      1.871     5.33     5.403921     20.37682      58.4921         8     1.129     0.711 -31.87   0
       136    533.0706    649.5420 300.1394805 +22.7375713     721.2035     72.24323      1.460     3.04     5.608202     20.37682     80.97417        14     1.003     0.892 -32.29   0
       137    524.7753    641.7563 300.1394251 +22.7328501     3286.306     72.26162      1.598     3.34     5.619761     20.37682     327.6489        32     1.248     1.189  88.10   0
       138    515.0714    635.4017 300.1384662 +22.7281177      1306.33     72.16962      1.551     2.96     5.622734     20.37682     149.2659        20     1.131     1.017  47.99   0
       139    962.2376    634.0137 300.2783423 +22.8616700     702.1042     72.22484      0.560     0.80     5.378336     20.37682     483.2361         6     0.436     0.407 -37.98   0
       140    908.5999    633.8427 300.2616594 +22.8455599     512.8313     72.20644      1.768     5.29     5.418701     20.37682     41.65368        10     1.092     0.723  11.99   0
       141    443.2881    634.6817 300.1163436 +22.7063966     293.3541     72.33513      1.544     4.15     5.546258     20.37682     33.89433         6     1.092     0.450   6.93   0
       142    178.1846    631.8931 300.0347453 +22.6261148     652.0907     72.15121      1.514     4.46     5.446258     20.37682     69.53171        13     1.249     0.809 -13.03   0
       143    192.9098    629.9012 300.0399723 +22.6299593     611.2147     72.39021      1.523     3.09     5.427006     20.37682      75.8606        11     0.983     0.727  70.09   0
       144    218.3543    626.7388 300.0489143 +22.6366821     597.5148     72.24323      1.737     4.43     5.391912     20.37682     51.69122        12     1.077     1.010 -75.45   0
       145    961.6613    627.0806 300.2804142 +22.8595051     446.5887     72.31676      1.581     5.71     5.386012     20.37682     46.91316         9     1.089     0.845 -86.28   0
       146    538.9226    626.5759 300.1487624 +22.7327316     440.8495     72.24323      1.383     3.73     5.664571     20.37682     48.82323         7     0.859     0.593 -24.49   0
       147    439.7415    625.3350 300.1182746 +22.7026506     1812.378     72.26162      1.577     3.29     5.535372     20.37682     174.1509        24     1.166     1.122  43.98   0
       148    249.6588    626.8621 300.0586135 +22.6461043     461.4055     72.28001      1.961     5.22     5.377537     20.37682     43.69559         7     1.115     0.727  60.50   0
       149   1015.9362    622.9663 300.2986918 +22.8745724     850.7044     72.22484      1.957     6.50     5.396176     20.37682     67.92752        16     1.435     1.033 -36.30  16
       150    473.5611    624.6982 300.1290133 +22.7126043     308.4742     72.20644      1.707     4.47     5.580854     20.37682     30.07539         6     1.240     0.458   1.44   0
       151     93.7078    619.9502 300.0123534 +22.5973534     19886.27     72.26162      1.850     3.68     5.665859     20.37682     1654.773        72     1.573     1.520  17.84   0
       152     15.2867    621.8537 299.9873570 +22.5743764     696.0696     72.26162      2.203     6.17     5.756369     20.37682     45.52602        12     1.269     0.884  -5.49   0
       153    524.4958    620.6074 300.1462065 +22.7266947     1073.781     72.11437      1.629     3.48     5.655843     20.37682     108.8922        18     1.273     0.930  -0.74   0
       154    559.9505    619.6105 300.1575754 +22.7370331     323.9137     72.24323      1.255     4.68     5.679352     20.37682     42.07444         8     1.101     0.674  33.95   0
       155    579.6586    613.1332 300.1658194 +22.7410787     279.9024     72.26162      1.615     4.95     5.699275     20.37682     29.97044         6     1.113     0.624  15.72   0
       156    278.5349    612.2050 300.0723579 +22.6505566     304.5196     72.20644      1.484     4.47     5.370166     20.37682     30.66382         7     1.212     0.468  81.14   0
       157    608.4284    608.4302 300.1763113 +22.7483485     285.6697     72.22484      1.493     5.13     5.727618     20.37682     36.44327         6     0.942     0.791  67.49   0
       158    942.7345    606.8643 300.2810730 +22.8480286     1039.825     72.28001      1.732     4.36     5.399462     20.37682     83.06725        20     1.262     1.137  58.37   0
       159     39.7683    604.3025 300.0006656 +22.5766866     1577.682     72.18803      2.193     5.05     5.729723     20.37682     90.97384        30     1.572     1.292 -64.87   0
       160    809.3052    605.4622 300.2399003 +22.8076699     252.2331     72.31676      1.108     3.40     5.402013     20.37682     43.41624         5     0.736     0.455  20.59   0
       161    106.5613    604.6009 300.0213340 +22.5968057     389.6034     72.24323      1.412     3.21     5.669134     20.37682     41.01236         5     0.915     0.483  81.52   0
       162    882.8979    599.6947 300.2647301 +22.8280517     828.0439     72.40857      2.091     3.58     5.435248     20.37682     72.41787        16     1.189     0.951  43.71   2
       163    878.7374    599.2717 300.2635695 +22.8266843     322.4175     72.26162      1.450     4.41     5.443534     20.37682     45.64207         5     0.793     0.696  64.86   3
       164    488.0341    601.4649 300.1410656 +22.7102721     527.5612     72.22484      1.562     4.18     5.634604     20.37682      48.4047         9     1.062     0.627   2.62   0
       165    280.3437    600.8081 300.0766215 +22.6478285     388.2439     72.20644      1.634     3.99     5.365132     20.37682     35.51576         6     1.205     0.379 -27.06   0
       166    444.9141    593.5538 300.1302057 +22.6950780     745.3752     72.20644      1.663     2.95     5.571182     20.37682     80.64137        12     0.981     0.774 -35.51   0
       167    592.9495    591.9636 300.1768351 +22.7389822     424.1577     72.22484      1.413     3.73     5.870341     20.37682     56.89543        10     0.932     0.753 -73.51   0
       168    640.0928    590.7448 300.1919223 +22.7527564     426.7037     72.28001      1.410     3.58     5.691218     20.37682     49.12469        10     0.937     0.760 -53.78   0
       169    610.7126    590.0085 300.1830052 +22.7437428     570.0806     72.15121      1.541     3.26     5.867808     20.37682     62.12319        10     0.926     0.730  -3.82   0
       170    489.1967    589.1698 300.1454201 +22.7070907     1070.702     72.18803      1.789     3.47     5.684314     20.37682     90.62188        17     1.162     0.965  23.51   0
       171    922.8825    585.1067 300.2819435 +22.8358322     3414.601     72.39021      1.691     3.44     5.415775     20.37682     266.5654        34     1.347     1.267 -57.94   0
       172    454.6061    584.6510 300.1361146 +22.6954270     1698.429     72.20644      1.531     3.38     5.613542     20.37682     203.0654        18     1.088     0.999  77.12   0
       173   1020.5873    583.4106 300.3129896 +22.8645956      700.965     70.03938      1.626     4.43     5.422925     20.37682      69.7718        14     1.104     1.014  -4.09  16
       174    819.9677    582.3770 300.2507224 +22.8042309     304.5765     72.22484      1.420     4.45     5.471325     20.37682     36.78034         6     0.904     0.622 -40.30   0
       175     16.4555    578.0494 300.0019431 +22.5621643     5254.674     72.26162      1.971     3.94     5.767073     20.37682     395.9656        47     1.585     1.467  55.22   0
       176    962.2233    575.4706 300.2973499 +22.8448414     350.1676     72.24323      1.734     5.01     5.411689     20.37682     27.89388         9     1.146     0.619 -34.64   0
       177    317.9605    571.3431 300.0978949 +22.6506498     9072.214     72.20644      1.598     3.11     5.355289     20.37682     925.1193        47     1.335     1.286  66.22   0
       178    440.4370    568.5051 300.1369446 +22.6865454      8970.59     72.20644      1.545     2.80     5.626973     20.37682     1079.102        41     1.294     1.210  87.87   0
       179    852.1494    562.7755 300.2671256 +22.8082359     1951.302     72.24323      1.636     3.31     5.636708     20.37682     167.1909        23     1.150     1.124 -39.78   0
       180    936.8181    560.1280 300.2944030 +22.8328260     12576.41     72.22484      1.635     3.26     5.412197     20.37682     1082.556        50     1.356     1.323 -46.53   0
       181    501.0427    558.1304 300.1591878 +22.7017287     11613.74     72.18803      1.489     2.91      5.89883     20.37682     1084.968        47     1.256     1.251  19.44   0
       182    670.4235    554.0870 300.2132786 +22.7513139      530.759     72.16962      1.459     3.48     5.728994     20.37682      74.0209        11     1.012     0.804  35.52   0
       183    228.5047    553.3546 300.0758993 +22.6186694     1450.436     72.24323      1.647     3.10     5.367018     20.37682     160.9669        24     1.273     1.162 -32.86   0
       184    386.5196    552.7163 300.1252830 +22.6658535      426.021     72.37186      1.748     3.56     5.500662     20.37682     40.63503         7     0.941     0.540 -31.07   0
       185    475.3256    551.5474 300.1533152 +22.6921323     464.0656     72.24323      1.610     3.67     5.747561     20.37682     51.72158         8     0.928     0.738 -32.81   0
       186    432.7252    546.2665 300.1417633 +22.6778499     4514.638     72.29839      1.531     2.89     5.670727     20.37682     490.7966        30     1.186     1.173  36.37   0
       187    775.6201    546.6049 300.2485060 +22.7806723     817.0228     72.20644      1.620     3.43     5.547673     20.37682     68.64011        15     1.039     0.922 -38.59   0
       188    410.9306    544.6960 300.1354869 +22.6708674     1219.447      72.3535      1.563     3.27     5.611831     20.37682     122.5019        21     1.297     1.004  30.11   0
       189    165.4192    543.9423 300.0593313 +22.5970539     659.9723     72.22484      1.696     3.49     5.426922     20.37682     81.82201        12     1.065     0.958 -69.98   0
       190    852.5998    542.2340 300.2739355 +22.8024682     1616.993     72.18803      1.666     3.56     5.746395     20.37682     141.2105        23     1.291     1.087 -21.53   0
       191    549.3604    533.8785 300.1821127 +22.7092423     206816.8     72.20644      1.508     2.85     6.368892     20.37682     23956.18       188     1.516     1.417 -17.96   0
       192    733.1093    539.0132 300.2377148 +22.7657597      699.692     72.16962      1.356     2.98     5.675859     20.37682     121.5963        13     0.992     0.846  22.47   0
       193    937.2098    535.6102 300.3024856 +22.8258968     349.1702     72.11437      1.526     5.12     5.463377     20.37682     37.30276         7     1.262     0.587 -34.32   0
       194    235.3962    533.7504 300.0844074 +22.6151098     3640.247     72.22484      1.632     2.93     5.374219     20.37682     428.3237        35     1.319     1.218  23.22   0
       195    801.4357    530.1789 300.2618899 +22.7836836     478.5483     72.24323      1.496     3.54     5.558216     20.37682     49.28377         8     0.935     0.628 -46.57   0
       196    580.9802    520.6148 300.1962702 +22.7149062     209.4672     72.18803      1.287     3.39     6.322385     20.37682     39.47289         5     0.776     0.430  20.70   0
       197    440.0037    514.3118 300.1544030 +22.6708568     2732.196      72.1328      1.513     3.00      5.77004     20.37682     231.9073        29     1.345     1.099 -86.82   0
       198    284.8650    516.6633 300.1053463 +22.6250354      390.636     72.26162      1.506     3.53     5.404572     20.37682     51.83038         7     1.055     0.689 -38.16   0
       199    851.0264    510.4430 300.2837653 +22.7928614     160.4444     72.24323      1.180     4.13      5.84374     20.37682     38.28639         5     0.793     0.614  86.65   0
       200    756.9988    503.2249 300.2567818 +22.7626321     532.7396     72.16962      1.428     3.61     5.712738     20.37682     45.30461         8     0.841     0.715  -1.72   0
       201    837.0431    500.6773 300.2825733 +22.7858682     1546.194     72.20644      1.432     2.90      5.82456     20.37682     183.2511        20     1.153     0.966 -18.67   0
       202    724.1332    500.8232 300.2473136 +22.7520998     220.3162     72.20644      1.321     2.65     5.752627     20.37682      44.1702         5     0.736     0.654  41.59   0
       203    708.1812    498.0834 300.2432296 +22.7465352     2535.488     72.16962      1.449     2.89     5.789836     20.37682     251.2228        26     1.177     1.092  50.88   0
       204    951.2574    492.0306 300.3210167 +22.8175758     968.7358     72.24323      2.328     4.44     5.622069     20.37682     66.77334        15     1.229     1.060  29.12   2
       205    613.0482    494.9398 300.2145971 +22.7171383     397.6933     72.28001      1.399     3.01     6.277281     20.37682     48.23955         7     0.836     0.629 -22.98   0
       206    965.4523    492.3943 300.3253290 +22.8219293     1409.066     72.20644      1.682     3.40     5.553689     20.37682     121.4699        22     1.302     1.074 -63.19   0
       207    495.5575    493.8994 300.1783300 +22.6816416     700.3878     72.20644      1.484     3.82     6.204685     20.37682     77.51695        12     1.103     0.735  32.68   0
       208    837.3652    490.7119 300.2859085 +22.7831009     2282.385     72.20644      1.813     3.59     5.862088     20.37682     194.0098        31     1.499     1.187 -89.92   0
       209    590.6990    488.8225 300.2096182 +22.7086865     654.4333     72.15121      1.560     4.11     6.328485     20.37682      80.8891        12     1.135     0.808  47.76   2
       210    590.6671    485.2954 300.2107531 +22.7076638     512.2485      72.3535      1.881     3.50     6.331094     20.37682     41.65634         5     0.800     0.599  19.36   3
       211    376.3045    488.6947 300.1428848 +22.6444131     220.3439     72.39022      1.561     4.78     5.537458     20.37682     38.28099         6     1.128     0.578 -27.22   0
       212    875.4671    485.6977 300.2994225 +22.7930672     4269.427     72.31676      1.578     3.08     5.935286     20.37682     428.0438        31     1.217     1.171  15.79   0
       213    428.7838    487.4229 300.1596369 +22.6597743     447.5467     72.22484      1.465     4.47      5.74327     20.37682     42.19269         8     0.944     0.655   3.58   0
       214    613.2269    482.1663 300.2187988 +22.7135227     240.8412     72.24323      1.421     3.90     6.290126     20.37682     28.34901         5     0.980     0.444  43.62   0
       215    535.9400    481.0181 300.1950901 +22.6900409     360.0153     72.18803      1.265     4.55     6.357444     20.37682     44.48345         7     1.097     0.535 -56.06   0
       216    967.0032    476.3630 300.3310166 +22.8177851     804.9006     72.26162      1.883     3.74     5.615671     20.37682     67.81013        12     0.967     0.931 -41.87   0
       217    107.3882    475.6020 300.0634662 +22.5600453     983.9186     72.04063      1.668     4.34       5.4947     20.37682     97.46525        20     1.342     1.083  65.84   0
       218    906.6768    473.5334 300.3131086 +22.7989140     147.4965     72.31676      1.147     4.21     5.884384     20.37682     36.50495         5     0.962     0.524  37.93   0
       219    768.5068    469.6768 300.2712595 +22.7564385     198.6107     72.37186      1.108     3.35      5.80546     20.37682     42.69173         5     1.020     0.318 -66.53   0
       220    597.2644    467.5074 300.2185821 +22.7045306     6432.922     72.33513      0.887     2.90     6.318664     20.37682     1643.855        14     0.763     0.501 -25.47   0
       221    100.5539    465.7010 300.0645542 +22.5551552     422.2232     72.24323      1.324     2.87     5.485637     20.37682     56.78132         7     0.842     0.599 -17.49   0
       222    963.4548    465.6814 300.3333760 +22.8136523      381.608     72.26162      1.319     3.83     5.723132     20.37682     41.88116         6     0.904     0.466   0.73   0
       223    707.7109    460.3650 300.2553251 +22.7355576     423.3604     72.20644      1.254     3.45     5.835947     20.37682     54.38465         9     0.914     0.741  -6.76   0
       224    596.8511    457.7415 300.2216227 +22.7016016     347.6282     72.28001      1.493     3.60     6.311293     20.37682     45.39139         6     1.035     0.640  78.98   0
       225    648.8788    455.9651 300.2384137 +22.7166744      722.614     72.16962      1.450     3.65     6.039105     20.37682     81.81648        12     1.034     0.857 -88.79   0
       226    963.4041    448.8228 300.3388317 +22.8087906     589.0114     72.18803      1.490     4.23     5.869628     20.37682     50.41789        12     1.079     0.791 -31.21   0
       227    709.9216    448.3218 300.2599228 +22.7327593     888.5863      72.3535      1.507     3.66      5.84247     20.37682     90.72881        14     1.040     0.973 -57.73   0
       228    867.0039    444.5539 300.3101357 +22.7787081     985.3436     72.20644      1.619     3.71     6.040373     20.37682     100.6133        18     1.136     1.084  15.55   0
       229    831.6162    441.8214 300.2999829 +22.7673288     319.4933     72.20644      1.401     3.44     5.991523     20.37682     29.01313         5     0.752     0.454  73.08   0
       230    851.1524    441.0685 300.3063215 +22.7729610     613.5385     72.20644      1.564     3.45     6.026163     20.37682     67.53179         9     0.979     0.615 -32.27   0
       231    595.5052    438.7359 300.2273710 +22.6957390     3242.905     72.31676      1.507     2.90     6.298793     20.37682     401.3753        29     1.221     1.085  86.43   0
       232    956.0386    437.8767 300.3400852 +22.8034392     539.7064     72.20644      1.447     3.62     5.971006     20.37682     65.53339        12     1.118     0.798  43.60   0
       233    601.5195    426.6649 300.2331623 +22.6940727      261.983     72.33513      1.342     4.29      6.28007     20.37682     42.74374         6     1.156     0.453 -43.76   0
       234    367.5833    426.3140 300.1604136 +22.6238895     408.8941     72.18803      1.635     3.20     5.668885     20.37682     46.31898         7     0.825     0.651  22.36   0
       235    435.4352    425.7030 300.1817376 +22.6440444     427.3751     72.22484      1.267     2.05     5.955013     20.37682     74.15188         5     0.701     0.443 -12.09   0
       236   1006.9380    418.1331 300.3623799 +22.8129957     1384.266     72.26162      1.557     3.57     6.196822     20.37682     125.8261        21     1.170     1.118   4.88   0
       237    878.9512    417.8819 300.3225185 +22.7746178     528.4102     72.26162      1.608     5.51     6.089224     20.37682     52.27488        10     1.082     1.018  -8.02   0
       238    965.2996    416.6891 300.3498513 +22.8001195     952.2651     72.39022      1.677     3.31     6.148347     20.37682     102.7679        16     1.116     0.990  62.65   0
       239    614.8071    414.7854 300.2411578 +22.6946396     279.0558      72.1328      1.428     4.24     6.211278     20.37682     32.73047         5     0.742     0.707 -48.47   0
       240    705.9611    412.7432 300.2702334 +22.7213503      1164.51     72.22484      1.474     3.19     5.864699     20.37682     124.4739        18     1.160     0.992 -24.24   0
       241    501.9169    413.4355 300.2064233 +22.6604382      487.834     72.18803      1.469     5.08     6.285271     20.37682      46.6334        10     1.092     0.746 -16.41   0
       242    210.2563    410.7455 300.1165053 +22.5722706     705.8978     72.28001      1.723     3.05     5.685426     20.37682     70.91685         7     0.818     0.603 -78.28   0
       243    272.3779    406.4518 300.1372264 +22.5896567     3787.854     72.22484      1.586     2.93     5.807346     20.37682     446.3824        31     1.247     1.178  80.51   0
       244   1005.5536    405.3963 300.3660807 +22.8089191      4367.88     72.20644      1.682     3.16     6.227894     20.37682     433.7472        35     1.341     1.237 -89.40   0
       245    219.5666    401.2034 300.1224976 +22.5723221      7519.39     72.22484      1.617     3.16     5.685984     20.37682     810.3545        44     1.358     1.290  63.23   0
       246    985.6011    396.4668 300.3627498 +22.8003807     1877.316     72.20644      1.624     3.03     6.203865     20.37682     192.6469        28     1.356     1.159 -22.40   0
       247    360.3918    395.5744 300.1681486 +22.6129082     4917.163     72.22484      1.572     2.92     5.673203     20.37682     560.7871        36     1.283     1.172  46.27   0
       248    604.6043    392.3690 300.2452515 +22.6851439     18579.69     72.20644      1.455     2.65      6.11973     20.37682      2255.09        56     1.304     1.241  64.42   0
       249    622.2198    392.6183 300.2506603 +22.6904910      880.971     72.22484      2.119     6.79     6.059595     20.37682     52.29406        17     1.640     0.788 -29.25   0
       250    801.7662    382.7403 300.3098431 +22.7414116     370.7875     72.26162      1.649     3.25     6.004745     20.37682      46.1401         5     0.904     0.416 -84.57   0
       251    224.9005    379.3255 300.1312546 +22.5676405     323.4424      72.3535      1.364     4.27     5.756828     20.37682     35.41199         6     0.787     0.660  63.67   0
       252    938.3016    375.3881 300.3548260 +22.7801651     722.0894     72.11437      1.591     3.32     6.116101     20.37682     73.97635        12     0.970     0.869 -17.05   0
       253    475.4942    374.3573 300.2108719 +22.6412988      422.794     72.22484      1.719     4.10     6.081563     20.37682     48.37372         7     1.019     0.714 -13.64   0
       254    159.2707    372.2950 300.1131200 +22.5459518     2042.216     72.33513      1.597     2.87     5.868993     20.37682     239.8685        28     1.272     1.218  -5.40   0
       255    545.2897    361.7683 300.2366973 +22.6585882     6569.356     72.18803      1.449     2.63      6.26498     20.37682     795.9308        36     1.203     1.153  68.82   0
       256    959.0281    362.3718 300.3655175 +22.7826251     1135.963     72.18803      1.498     3.11     6.173149     20.37682     137.5101        19     1.139     0.979 -49.09   0
       257    260.3767    361.0549 300.1482194 +22.5730271     694.4652     72.24323      1.591     3.35     5.874805     20.37682     80.93307        10     0.962     0.800  85.23   0
       258    117.8774    354.6718 300.1059634 +22.5284860     553.9506     72.33513      1.638     3.61     5.856177     20.37682     52.35744        10     1.131     0.595   5.32   0
       259    804.8397    353.7202 300.3202165 +22.7339901     331.3357     72.20644      1.349     2.32     5.980007     20.37682     51.27868         5     0.740     0.416  16.02   0
       260    749.4835    350.7791 300.3039069 +22.7165736     1280.511     72.18803      1.619     3.37     5.859591     20.37682     124.1237        18     1.125     1.032  82.41   0
       261    658.6652    352.0999 300.2751645 +22.6897623     488.3458     72.31676      1.455     3.50     5.839695     20.37682     78.47283        11     1.114     0.844   0.47   0
       262    451.9352    348.0058 300.2120830 +22.6266728     6214.275     72.18803      1.453     2.86     5.932954     20.37682     676.3544        38     1.272     1.144  49.28   0
       263    941.4497    342.8906 300.3663512 +22.7717632     637.1243     72.22484      1.529     3.49     6.104021     20.37682     61.66208        14     1.050     0.913  22.94   0
       264    843.9260    342.6954 300.3359850 +22.7425203     1303.015     72.37186      1.385     2.82     5.934408     20.37682     180.8902        17     1.074     0.938  35.37   0
       265    436.3343    336.8349 300.2108482 +22.6187909     574.6177     72.22484      1.738     3.20     5.884864     20.37682     56.51208         9     0.903     0.759 -27.42   0
       266    797.5682    333.9032 300.3243769 +22.7261171       403.42     72.18803      1.561     4.17     5.957932     20.37682     40.47852         6     0.782     0.636 -51.01   0
       267    816.6523    330.5121 300.3314293 +22.7308546     569.1509     72.26162      1.478     3.05      5.94109     20.37682     65.51899         7     0.914     0.499   2.51   0
       268    339.4332    327.2566 300.1837861 +22.5870106     2479.903     72.24323      1.498     2.91     5.808661     20.37682     275.4046        24     1.199     1.059  55.92   0
       269     58.2875    324.4669 300.0972320 +22.5019544     942.2297     72.31676      1.550     3.44     5.955578     20.37682     106.1442        17     1.226     0.924 -25.69   0
       270    308.7848    316.5411 300.1777221 +22.5747509     30229.44     72.20644      1.576     2.92     5.889059     20.37682      3453.99        67     1.391     1.287  70.08   0
       271    843.5220    314.4581 300.3450183 +22.7342815     1391.426     72.26162      1.485     2.72     5.869981     20.37682     169.4248        21     1.143     1.041  88.22   0
       272    798.5034    312.4999 300.3316110 +22.7202443     276.0371     72.42692      1.003     3.41     5.940272     20.37682     39.38447         6     0.890     0.435 -18.56   0
       273      5.1286    304.1539 300.0872950 +22.4801890     4970.167     71.76345      1.879     3.70     5.994668     20.37682     482.8033        45     1.501     1.462 -12.09  24
       274    758.7615    303.2399 300.3222201 +22.7056866     534.2609     72.29839      1.475     4.48     5.885026     20.37682     67.78205        10     1.048     0.782  40.82   0
       275    183.0969    303.1695 300.1429515 +22.5332494      543.158     72.16962      1.658     3.72     5.878197     20.37682     49.73277        12     1.071     0.792 -15.51   0
       276    407.3588    301.9910 300.2131268 +22.6001031     549.6566     72.22484      1.522     3.61     5.870071     20.37682     55.35733        10     0.998     0.723 -46.14   0
       277    719.3340    296.5621 300.3120918 +22.6919647     1888.924     72.20644      1.477     2.64     5.862437     20.37682     234.1465        23     1.213     1.012  81.80   0
       278    934.5319    289.6095 300.3814743 +22.7543717     594.2739     72.22484      1.499     3.36     5.949249     20.37682     62.58041         9     0.894     0.754  12.96   0
       279    381.0063    281.1348 300.2116857 +22.5862187     2193.357     72.20644      1.664     3.64     5.896041     20.37682     201.7599        24     1.323     1.054  66.79   0
       280    593.3053    279.8978 300.2782125 +22.6494438     372.9595     72.40857      1.448     3.50     6.027484     20.37682     62.19656         8     0.939     0.655  57.60   0
       281    820.5368    274.3362 300.3508607 +22.7158671     607.1905     72.26162      1.190     2.47     5.818699     20.37682     91.10754        11     0.909     0.720  12.52   0
       282    702.5676    271.8265 300.3148862 +22.6798357     437.8682     72.22484      1.413     3.43     5.857348     20.37682     58.12931         8     0.829     0.768  33.06   0
       283    456.7634    260.5860 300.2419384 +22.6030066     1159.393     72.22484      1.484     3.36     5.889886     20.37682     129.8597        17     1.113     0.973  35.47   0
       284    542.3469    258.0685 300.2694133 +22.6279125     282.7723     72.24323      1.502     3.83     5.957631     20.37682     32.63383         5     0.889     0.474 -86.67   0
       285    968.2485    256.8748 300.4026132 +22.7550454     349.3405     72.22484      1.230     4.12     6.002264     20.37682     60.78965         6     1.060     0.457 -23.99   0
       286    196.6026    256.0213 300.1624414 +22.5237599     208.9761     72.16962      1.410     4.13      5.89204     20.37682     27.12213         5     0.800     0.607  -2.71   0
       287    840.5302    253.8450 300.3637423 +22.7159587     360.9916     72.18803      1.505     4.11     5.656332     20.37682      44.0467         7     1.015     0.475 -80.22   0
       288    701.7613    252.4145 300.3209296 +22.6740144     2343.846     72.24323      1.426     2.61     5.846038     20.37682     293.4084        25     1.205     1.055  66.92   0
       289    963.1633    246.8631 300.4042725 +22.7506445     3142.572     72.22484      1.587     3.29      5.92276     20.37682     291.3276        35     1.345     1.244 -85.16   0
       290    509.5856    245.4228 300.2633076 +22.6144688     301.1702     72.22484      1.511     3.88     5.910426     20.37682     39.44038         6     0.899     0.730  11.44   0
       291    410.3200    236.3548 300.2353325 +22.5821357     606.6944     72.20644      1.294     2.97     5.855826     20.37682     81.25574         9     0.849     0.756  28.66   0
       292     85.0499    230.0499 300.1361682 +22.4828747     1547.433     72.26162      1.894     4.06     6.082232     20.37682     124.7728        28     1.465     1.276 -40.16   0
       293    115.7587    230.4272 300.1455949 +22.4921859     698.3356     72.26162      1.569     3.42     5.951187     20.37682     71.98643        13     1.102     0.803 -11.17   0
       294    978.8171    227.8885 300.4153110 +22.7498699     450.7002     72.15121      1.496     2.65     6.077854     20.37682     66.51073         7     0.785     0.727  85.02   0
       295    822.0623    224.1754 300.3676017 +22.7019010     475.1397     72.20644      1.866     5.16     5.643602     20.37682     42.48637         7     1.282     0.586  65.70   0
       296    169.1637    222.2415 300.1648580 +22.5058388     581.8621     72.29839      1.667     4.01     5.887151     20.37682     58.72616        10     1.140     0.639 -28.52   0
       297    963.6170    220.0980 300.4130925 +22.7430818     325.9859     72.15121      1.690     5.22     5.847226     20.37682     45.35806         8     1.173     0.656  56.21   0
       298    844.8752    216.2623 300.3772836 +22.7064520     344.6436     72.28001      1.275     3.67     5.553935     20.37682     54.39267         5     0.833     0.466 -55.55   0
       299    773.5061    213.7749 300.3558290 +22.6843797     618.3527     72.15121      1.486     3.82     5.818618     20.37682     83.31683        13     1.127     0.953 -32.29   0
       300    363.8759    213.4464 300.2282995 +22.5616443     453.8382     72.22484      1.510     3.59     5.862146     20.37682     50.16626         7     0.943     0.491   5.55   0
       301    871.6683    202.9022 300.3899740 +22.7106269     2153.767     72.31676      1.608     3.04     5.547969     20.37682     207.5375        25     1.268     1.075 -61.94   0
       302    290.1487    199.9859 300.2097147 +22.5356939     2362.433     72.24323      1.550     3.03     5.849738     20.37682     247.0518        27     1.216     1.121  31.23   0
       303    368.0541    194.9687 300.2355903 +22.5575876     1107.472     72.24323      1.718     3.57     5.881384     20.37682     100.7502        21     1.252     1.088  89.91   0
       304    119.5330    195.4132 300.1581192 +22.4832641     238.1163     72.22484      1.512     5.30     5.987103     20.37682     33.41929         8     1.003     0.790  56.67   0
       305    770.2124    194.7575 300.3609672 +22.6779260     527.4128     72.20644      1.393     3.11     5.858558     20.37682     66.26135         9     0.895     0.689   5.59   0
       306    877.1226    191.8175 300.3952693 +22.7090709     321.6991     72.22484      1.244     2.71     5.627789     20.37682     46.58772         6     0.750     0.546 -41.84   0
       307    184.8400    187.2347 300.1810823 +22.5004836     721.9307     72.26162      1.571     3.48     5.934924     20.37682     93.30327        12     0.999     0.884  87.71   0
       308    722.7416    184.1969 300.3495879 +22.6606829     1702.863     72.18803      1.522     2.96     5.907854     20.37682     214.5841        21     1.122     1.047  83.27   0
       309    787.6559    184.2268 300.3698212 +22.6801180     494.5602     72.22484      1.232     2.31     5.872834     20.37682     75.29139         6     0.679     0.619  33.50   0
       310    206.4868    180.3356 300.1900526 +22.5049876     582.6917     72.31676      1.698     2.94     5.952123     20.37682     70.16187        11     0.971     0.789  47.21   0
       311    994.4576    176.7105 300.4367853 +22.7398265     940.3461     72.28001      1.730     5.32     5.818496     20.37682      96.3806        18     1.508     1.054 -57.33   0
       312    496.7237    176.6552 300.2815950 +22.5908570      320.818     72.26162      1.431     4.46     5.909639     20.37682     45.98621         9     1.098     0.739 -23.84   0
       313    727.1046    175.6475 300.3537196 +22.6595306     741.6132     72.24323      1.564     3.31     5.917753     20.37682     96.15691        13     1.108     0.793 -61.35   0
       314    647.1904    175.0555 300.3289982 +22.6354422     1177.359     72.22484      1.414     2.91     6.011814     20.37682     136.5337        20     1.122     0.970  61.52   0
       315    468.6964    171.4039 300.2745674 +22.5809560     424.1991      72.1328      1.289     3.13     5.911365     20.37682     45.49632         5     0.709     0.482 -10.41   0
       316    842.9339    166.6443 300.3927633 +22.6916021     1361.516     72.20644      1.454     2.65     5.882193     20.37682     184.3416        18     1.082     0.937  -0.28   0
       317    573.5475    166.7454 300.3087413 +22.6110091     990.3848     72.26162      1.474     2.73      5.97487     20.37682     138.4801        16     1.004     0.947  23.92   0
       318    854.7292    165.6396 300.3967687 +22.6948422     756.7457     72.16962      1.472     3.50     5.882625     20.37682     86.00211        16     1.064     1.014  62.74   0
       319    900.7816    165.0719 300.4113214 +22.7084567     324.8528     72.22484      1.716     3.80     5.749823     20.37682     31.70819         5     0.802     0.516  34.39   0
       320   1015.7087    156.5888 300.4499420 +22.7403937     1829.282     72.16962      1.802     3.34     5.703974     20.37682     168.9506        26     1.329     1.184 -81.31  16
       321    971.5045    156.0665 300.4363123 +22.7270221     1227.513      72.3535      1.584     4.13      5.71395     20.37682     129.7983        18     1.219     1.047  50.14   0
       322    205.5095    149.0949 300.1998740 +22.4957227     684.6544     72.40857      1.372     2.99     6.027414     20.37682     85.75843        12     1.018     0.726 -12.14   0
       323     67.3046    143.3155 300.1587645 +22.4526557      2239.46     72.40857      1.859     3.51     6.402361     20.37682     229.2209        31     1.419     1.283  -3.42   0
       324    890.6210    141.1413 300.4159077 +22.6985338     761.5151     72.20644      1.505     3.68      5.90041     20.37682     89.33986        13     1.184     0.783  20.55   0
       325     17.5259    140.2048 300.1442975 +22.4368458     408.8201     72.15121      1.443     3.72     6.783021     20.37682     44.22508         6     0.795     0.499  88.72   0
       326    224.8051    136.7678 300.2098722 +22.4979624     5613.524     72.20644      1.637     3.30     6.136665     20.37682     577.0554        38     1.348     1.262  81.71   0
       327      8.9555    131.2007 300.1445514 +22.4316925     1225.644     72.22484      1.598     3.45     6.806718     20.37682     121.6746        21     1.301     0.978  -1.68   0
       328    208.4020    127.9196 300.2076364 +22.4905074     531.2256      72.1328      1.388     2.93     6.135185     20.37682     68.59488        11     1.019     0.668 -14.92   0
       329   1023.0664    124.6976 300.4625756 +22.7334184     12771.67     59.62858      1.412     3.87     6.039186     20.37682     1583.714        34     1.509     0.864  84.90  24
       330    868.9882    118.6348 300.4164523 +22.6855885     3605.656     72.22484      1.606     3.00     5.935771     20.37682     408.4595        33     1.325     1.198  87.67   0
       331    972.7060    117.5359 300.4491755 +22.7162964     2727.067     72.33513      1.728     3.08     6.107789     20.37682      282.847        33     1.374     1.250 -75.36   0
       332    418.5756    113.8392 300.2776152 +22.5494069     665.3813     72.26162      1.503     3.21     5.938852     20.37682     76.20374        13     0.992     0.920   8.81   0
       333    342.7073    105.9131 300.2565629 +22.5244112      863.316     72.39022      2.470     3.77     6.345592     20.37682     71.56638        11     1.058     0.743 -25.34   2
       334    108.6009    102.6099 300.1847959 +22.4533405      569.228     72.04063      1.861     4.79      6.27238     20.37682     68.28069        10     1.274     0.743 -30.00   0
       335    469.8404    101.0207 300.2977342 +22.5610719       1814.4     72.26162      1.491     2.91     5.924531     20.37682     193.5828        25     1.198     1.088  12.06   0
       336    397.9978    101.5289 300.2751969 +22.5397079     518.5783     72.16962      1.482     3.37     6.069683     20.37682       64.601        10     1.053     0.732  11.68   0
       337    758.0163     90.9316 300.3908149 +22.6444203      408.778     72.22484      1.566     2.41       5.9773     20.37682     47.66553         5     0.630     0.562   0.79   0
       338    903.8746     85.6108 300.4380394 +22.6865243     375.4925     72.24323      1.512     3.40     6.209494     20.37682     32.71876         5     0.754     0.443  19.41   0
       339    243.8214     80.6503 300.2339732 +22.4875387     6004.572     72.22484      1.623     3.24     6.472708     20.37682     656.9115        42     1.374     1.274  71.51   0
       340    750.4000     81.6267 300.3914549 +22.6394655     277.3965     72.16962      1.189     3.67     6.062824     20.37682     40.96198         6     0.967     0.401 -17.93   0
       341     95.0008     80.4788 300.1877375 +22.4429105      920.761     72.11437      1.969     3.68     6.436235     20.37682     68.11912        14     1.115     0.878  -5.65   0
       342    215.9012     74.8813 300.2271553 +22.4775191     344.8632      72.3535      1.536     3.83     6.431936     20.37682     39.61066         5     0.787     0.534 -35.19   0
       343    259.1691     72.5475 300.2413741 +22.4898075     319.3633     72.24323      1.170     4.72     6.507468     20.37682     43.29013         8     1.267     0.498 -22.57   0
       344    878.2137     72.2212 300.4343711 +22.6749968     195.5623     72.18803      1.237     3.31     6.203927     20.37682      36.2076         5     0.722     0.702 -25.72   0
       345    719.0609     72.1487 300.3847539 +22.6273629     292.9931     72.28001      1.234     3.50     6.208081     20.37682     41.65826         6     0.883     0.486  36.48   0
       346      6.4698     71.2335 300.1632091 +22.4137306     421.9173     72.20644      1.681     3.01     6.489197     20.37682     46.63467         5     0.808     0.566  39.02   0
       347    489.8959     66.0975 300.3152967 +22.5570382     6434.417     72.40857      1.523     3.02     6.055636     20.37682     711.1333        38     1.341     1.178  88.43   0
       348    375.3730     65.9473 300.2796816 +22.5227088     699.9875     72.24323      1.604     3.31     6.355409     20.37682     73.89434        14     1.035     0.977 -30.76   0
       349    546.9763     60.9753 300.3347383 +22.5726517     335.1477     72.18803      1.463     3.62     6.089298     20.37682     33.28618         5     1.007     0.374  33.04   0
       350    243.6161     60.4892 300.2404412 +22.4816854     280.9727     72.15121      1.403     4.79     6.528189     20.37682     41.46704         6     1.147     0.567 -46.13   0
       351    742.1582     56.7732 300.3969376 +22.6298518      891.086     72.26162      1.874     5.58     6.309431     20.37682     78.10581        18     1.790     0.918 -63.39   0
       352    683.8031     57.2415 300.3785913 +22.6125262     290.5871     72.24323      1.507     4.13      6.45309     20.37682     38.61879         6     1.002     0.664  86.36   0
       353    834.7888     54.9478 300.4264199 +22.6570384     413.0631     72.22484      1.349     4.51     6.266577     20.37682     47.08449         8     1.182     0.488  45.23   0
       354    182.2718     50.5908 300.2245629 +22.4604688     561.8711     72.20644      1.854     5.00     6.471694     20.37682      55.6831         9     1.138     0.623 -18.51   0
       355    541.2927     48.8507 300.3368956 +22.5674650     533.2914     72.29839      1.582     3.20     6.129829     20.37682      57.1103         9     0.946     0.612  19.62   0
       356    618.3207     46.2444 300.3617428 +22.5897688     6300.625     72.20644      1.530     2.95     6.625622     20.37682     714.3703        37     1.290     1.178  82.81   0
       357    393.2737     45.2909 300.2919470 +22.5221322      1489.39     72.39022      1.528     2.88     6.405334     20.37682      166.287        20     1.148     1.023  69.93   0
       358    659.5986     43.9514 300.3753517 +22.6014618     770.3104     72.20644      1.408     2.70     6.642209     20.37682     93.92387        13     0.955     0.823 -44.94   0
       359    675.3218     39.6379 300.3816505 +22.6049262     598.5548     72.20644      1.630     5.42     6.683093     20.37682     66.40129        10     1.214     0.735  39.88   0
       360    984.7659     37.4199 300.4789000 +22.6968506     306.9733     72.24323      1.537     5.01     6.328165     20.37682     28.40489         8     0.861     0.824  63.62   0
       361    141.7291     37.6392 300.2161479 +22.4446049     791.0844     72.16962      1.940     5.55     6.575157     20.37682     82.76324        12     1.416     0.765  40.20   0
       362    944.8041     37.6712 300.4663452 +22.6849727      445.964     72.16962      1.680     4.51     6.327709     20.37682     58.97126         8     1.313     0.669  -2.90   0
       363    713.9855     35.3809 300.3950837 +22.6152704     516.4763     72.18803      1.610     4.48     6.614337     20.37682     56.46036         8     1.102     0.599 -15.10   0
       364    677.5895     30.2711 300.3853919 +22.6029110     884.3028     72.22484      1.748     4.51     6.794661     20.37682     85.67648        20     1.532     0.883  38.81   0
       365    662.5001     31.1083 300.3804168 +22.5986368     2785.796     72.39021      1.560     3.06     6.799692     20.37682     328.6012        29     1.322     1.133  77.72   0
       366    303.5306     32.1325 300.2682728 +22.4914804     419.2852     72.28001      1.269     2.66     6.571035     20.37682     55.36188         7     0.800     0.614 -14.34   0
       367    749.0450     22.8400 300.4100785 +22.6221526     1562.832     72.29839      1.560     3.17     6.604435     20.37682     148.1957        24     1.183     1.115  74.79   0
       368    728.6265   1013.4695 300.0821307 +22.9006446     469.3368     72.22484      2.097     5.27     4.317039     20.37682     27.52781         5     1.073     0.731 -20.03   0
       369     65.8472     15.6241 300.1996822 +22.4155512     547.3073     72.24323      1.770     4.33     6.504877     20.37682     61.13277        10     1.145     0.738 -23.72   0
       370    291.6927   1011.7413 299.9466048 +22.7690990     1401.226     72.28001      2.815     5.80     6.504064     20.37682     73.25972        29     1.541     1.432  -9.75   0
       371    127.6014   1006.5081 299.8972665 +22.7183536     1513.214      72.1328      3.328    12.33     90.91183     20.37682     68.43433        28     2.831     1.496 -32.76  18
       372    196.1196    985.4479 299.9254240 +22.7328816     4024.841     72.24323      7.119    20.31     68.85457     20.37682     82.24472       251     4.951     4.464  -4.43   3
       373    145.5326   1007.6621 299.9024668 +22.7240664     605.8749     72.28001      2.009     7.11     91.32032     20.37682     35.46464        12     1.583     0.894 -85.18   0
