#   1 NUMBER                 Running object number                                     
#   2 X_IMAGE                Object position along x                                    [pixel]
#   3 Y_IMAGE                Object position along y                                    [pixel]
#   4 ALPHA_J2000            Right ascension of barycenter (J2000)                      [deg]
#   5 DELTA_J2000            Declination of barycenter (J2000)                          [deg]
#   6 FLUX_APER              Flux vector within fixed circular aperture(s)              [count]
#   7 FLUXERR_APER           RMS error vector for aperture flux(es)                     [count]
#   8 FLUX_RADIUS            Fraction-of-light radii                                    [pixel]
#   9 FWHM_IMAGE             FWHM assuming a gaussian core                              [pixel]
#  10 BACKGROUND             Background at centroid position                            [count]
#  11 THRESHOLD              Detection threshold above background                       [count]
#  12 FLUX_MAX               Peak flux above background                                 [count]
#  13 ISOAREA_IMAGE          Isophotal area above Analysis threshold                    [pixel**2]
#  14 A_IMAGE                Profile RMS along major axis                               [pixel]
#  15 B_IMAGE                Profile RMS along minor axis                               [pixel]
#  16 THETA_IMAGE            Position angle (CCW/x)                                     [deg]
#  17 FLAGS                  Extraction flags                                          
         1    204.7041      9.6549 300.2354293 +22.4424709     3799.967     72.33405      1.578     2.78      6.48643     20.38687     492.2189        36     1.359     1.194  51.21   0
         2    772.9916     10.5964 300.4120504 +22.6128558     576.9334     72.07616      1.244     2.96     5.693302     20.38687     79.15241         8     0.808     0.668  19.74   0
         3    627.1511      7.2441 300.3676901 +22.5682535     478.1286     72.29726      1.666     3.11     4.883726     20.38687     47.09245         6     0.878     0.457  36.55   0
         4    530.3878      7.2329 300.3375565 +22.5392900     394.4643     72.24205      1.333     2.97     5.139058     20.38687     39.59146         5     0.711     0.469  75.79   0
         5    766.1183      2.4777 300.4125384 +22.6084641     780.8387     62.44642      1.296     2.72     5.701758     20.38687     112.4544        12     0.949     0.780  54.40  24
         6    320.7326      2.0534 300.2739800 +22.4750347     1011.117     60.27898      1.312     2.62     5.832061     20.38687     165.2224        14     1.076     0.740  12.44  24
         7    732.0594      1.5392 300.4022268 +22.5980043     246.7738     57.45481      0.964     2.04     5.585411     20.38687     65.74933         6     0.741     0.494  -6.85  24
         8    209.7558    994.4233 299.9172989 +22.7265929     1234.531     72.31565      4.691     9.32     70.79475     20.38687     56.64767        19     1.668     1.454 -32.89   3
         9    282.4235   1019.6030 299.9317026 +22.7556200     2694.591      72.1868      5.975    31.21      32.4762     20.38687      69.0432       163     6.575     4.112  69.30  27
        10    233.7081    992.3515 299.9254199 +22.7331876     4785.382     72.29726      9.819    42.03     60.41639     20.38687      99.2664       517     9.464     5.179  86.31  19
        11    252.1921    991.1299 299.9315647 +22.7383847      6232.03     72.24205     11.522    42.16     46.63003     20.38687     107.5084       506    11.078     4.452 -72.73  19
        12    271.4596    981.0832 299.9408244 +22.7412864     8980.313     72.35242     13.145    46.41     29.15859     20.38687     188.0289      1289    13.937     7.483  82.10  19
        13      3.5610    999.4474 299.8515895 +22.6661346     2641.096     67.16662     15.946    29.74    -24.36266     20.38687     58.90379       202     7.033     3.491 -74.07  27
        14    961.1916    976.4716 300.1571423 +22.9467973     489.4399     72.24205      1.708     5.05     3.696102     20.38687     40.09704         9     1.006     0.719 -72.47   2
        15    958.5819    976.8875 300.1561930 +22.9461347     474.9422     72.20522      1.551     3.44     3.687776     20.38687     43.51196         5     0.751     0.456 -68.19   3
        16    580.3764    997.4858 300.0316199 +22.8386651     2437.803     72.20522      1.894     4.34     3.665025     20.38687     164.1309        30     1.396     1.262  40.54   0
        17      5.2031   1017.2430 299.8463104 +22.6717264     3314.332     72.02079     10.880    45.18    -30.35059     20.38687     67.56564       428     9.736     5.818 -52.05  27
        18    179.2931    962.6108 299.9181772 +22.7083309     1369.317     72.20522      4.070    11.39     50.72831     20.38687     51.75108        31     2.102     1.757  41.48   2
        19    666.7846    992.7924 300.0600596 +22.8632308       8774.7     72.16837      1.972     5.01     3.439035     20.38687     548.3331        49     1.583     1.444  22.54   3
        20    685.1090    959.8932 300.0764710 +22.8592845     6878.759     72.42592      1.890     4.25     3.505462     20.38687     427.9992        46     1.510     1.390  30.45   0
        21    672.3388    990.6118 300.0624993 +22.8642705     9464.287     72.22363      1.937     4.48     3.400606     20.38687     548.5164        52     1.594     1.457  23.51   3
        22    211.1863   1004.4495 299.9144820 +22.7298963     1658.111     72.29726      5.472    12.13     78.69104     20.38687     50.65412        35     3.029     1.352 -67.49   3
        23    767.2525    993.6052 300.0910997 +22.8935868     641.2691     72.24205      1.865     6.23     3.570058     20.38687     46.18926        17     1.392     1.126  25.02   0
        24    109.8216    922.9565 299.9094820 +22.6761131     4044.719     72.31565     18.238    52.27     11.34476     20.38687     82.57221       884    11.354     7.332 -27.70   3
        25    565.3320    954.0583 300.0410627 +22.8216941     325.6301     72.27886      1.456     4.60     3.895023     20.38687     40.41109         7     1.004     0.640 -71.02   0
        26    122.9261   1013.0842 299.8842388 +22.7058785     2884.583      72.3708     14.573    76.31     89.01138     20.38687     116.5793      1242    21.499     7.516  45.84  27
        27    837.1960    952.4239 300.1262988 +22.9027323      282.164     72.22363      1.667     4.86     3.656119     20.38687     34.00421         5     1.078     0.621  64.86   0
        28    593.6565    950.5364 300.0510286 +22.8291777     1470.054     72.31565      1.766     4.15     3.931123     20.38687     131.3549        23     1.296     1.182   1.26   0
        29    111.7247    953.9371 299.8999976 +22.6855643     5111.499     72.31565     22.229    86.62     34.95552     20.38687     236.1786      2451    15.779    13.193  35.08  19
        30    160.2776    962.2954 299.9123690 +22.7025333     1322.741     72.38918      3.564     2.93     52.54039     20.38687     44.61754         5     0.835     0.443 -15.26   2
        31    487.5394    947.2334 300.0190635 +22.7964051     930.8763     72.27886      1.643     4.16     3.962226     20.38687     88.39532        16     1.160     0.989 -15.58   0
        32    418.0806    945.0117 299.9981686 +22.7749333     6558.964     72.24205      1.832     3.74     3.988861     20.38687     556.2838        44     1.431     1.367  20.19   0
        33    196.9976    972.4042 299.9204954 +22.7164519     689.5577     72.07616      3.286     7.74     55.09782     20.38687     37.45739         8     1.888     0.888  24.47   2
        34    450.5889    931.8301 300.0125726 +22.7809036       456.22     72.26046      1.619     5.69     4.163323     20.38687     51.03269        11     1.098     0.830 -25.17   0
        35     13.4948    979.1030 299.8612929 +22.6632878     1670.499     72.44428     10.687    26.65     -9.37966     20.38687     61.49537        89     5.486     3.593 -17.75  27
        36    151.3676    922.0292 299.9226956 +22.6883165     1107.739     72.26046      7.786     9.10     22.19822     20.38687     38.22841        14     2.124     1.088 -11.25   2
        37    965.3712    923.9083 300.1755450 +22.9329558     1543.048     72.22363      1.723     3.99     4.104225     20.38687       127.41        20     1.373     0.905 -75.32   3
        38    963.0000    924.0427 300.1747616 +22.9322839     1193.849     72.24205      1.532     4.87      4.10429     20.38687     126.8151        14     1.540     0.590 -74.00   3
        39    142.4482    923.7088 299.9193772 +22.6861211     957.2944     72.27886      3.315     3.74     20.23721     20.38687     35.21247         5     1.496     0.268  40.18   2
        40    463.0046    919.7898 300.0203528 +22.7811738     260.0713     72.11306      1.201     4.01     4.230778     20.38687     38.30931         5     1.051     0.438  69.34   0
        41    753.3158    912.5535 300.1131220 +22.8661449      838.069     72.24205      2.083     4.71     3.773136     20.38687     54.68302        16     1.310     0.919  54.96   0
        42    787.9208    906.9694 300.1257233 +22.8749144     1023.859     72.26046      1.742     5.02     3.739982     20.38687     77.78855        21     1.269     1.227 -84.52   0
        43    565.6364    907.7094 300.0562325 +22.8084869     316.2467     72.24205      1.661     6.21     4.170992     20.38687     42.74856        10     1.060     1.022 -31.41   0
        44    203.6730   1002.5974 299.9127487 +22.7271104     2691.806     72.16837      4.983    20.29     78.85874     20.38687     61.80927       108     4.604     2.483 -65.93  19
        45    810.3047    900.6222 300.1347648 +22.8798010     11466.18     72.16837      1.809     4.18     3.795733     20.38687     773.0099        51     1.441     1.399 -41.20   0
        46    388.5330   1004.3684 299.9696659 +22.7830918     613.7446     72.26046      1.866     5.58     3.796245     20.38687     50.26097        11     1.303     1.068  73.05   0
        47   1001.8433    900.5501 300.1945200 +22.9371748     379.7673     72.29726      1.497     3.80      4.10167     20.38687      40.6453         7     0.848     0.639  75.07   0
        48    855.6107    900.7899 300.1488345 +22.8934272     452.4586     72.14994      1.755     5.95     3.974777     20.38687      34.2911        10     1.088     0.916 -14.39   0
        49    122.0321    892.0587 299.9233243 +22.6709208     1003.512     72.27886      5.347     7.19     10.21171     20.38687     54.13234        17     1.664     1.233  33.67   2
        50     92.3985    885.7691 299.9161605 +22.6602240     603.2631     72.22363      3.184     5.50     6.166981     20.38687      31.5183         8     1.380     0.619 -78.90   0
        51    818.6920    882.7599 300.1431884 +22.8771864     1374.826     72.26046      1.730     4.04     3.950545     20.38687     98.09064        24     1.268     1.151   7.18   0
        52    515.7651    888.4082 300.0469818 +22.7879939      455.887     72.26046      1.724     6.06     4.314009     20.38687     45.86166        13     1.508     0.859  44.99   0
        53   1001.3051    882.1858 300.2003246 +22.9317390     378.7054      72.1868      1.778     5.54     4.100861     20.38687     33.98637         8     1.138     0.760  47.70   0
        54    857.0004    876.3145 300.1572275 +22.8868160     831.0091      72.1315      1.857     4.66     4.167119     20.38687     60.28975        16     1.146     1.070 -30.62   0
        55    197.2087    875.7237 299.9520030 +22.6887974     367.8268     72.22363      3.034     3.26     10.02649     20.38687     50.04633         5     0.981     0.663  77.61   0
        56    905.1135    867.5466 300.1750813 +22.8987152     557.9178     72.29726      1.889     6.60      4.17974     20.38687     37.58739        12     1.244     0.982 -45.99   0
        57    756.7707    866.2684 300.1292509 +22.8538935     713.4186     72.24205      1.828     6.76     3.874999     20.38687      57.5897        17     1.296     1.050  54.79   0
        58    183.2297   1012.3604 299.9032174 +22.7237728     335.1266     72.24205      1.834     5.37     88.89928     20.38687     52.04254         7     1.234     0.659  14.11   0
        59    766.2470    863.6837 300.1330447 +22.8559917     1293.715     72.26046      1.572     6.46     3.904159     20.38687     644.5927        14     1.702     0.688 -11.03   0
        60    469.3268    862.6454 300.0409034 +22.7666760     4066.961     72.24205      1.668     3.42      4.39424     20.38687     402.0087        32     1.292     1.223  32.97   0
        61    530.6088    981.8740 300.0212029 +22.8192601     453.8408     72.26046      1.675     5.83     3.518159     20.38687     30.99919         9     1.389     0.688 -46.83   0
        62    194.5081    848.4252 299.9600390 +22.6801596     820.3715     72.20522      1.794     4.81     7.053239     20.38687     66.78164        18     1.264     1.109  80.28   0
        63    171.6272    845.1939 299.9539767 +22.6723676      1633.88     72.26046      1.827     4.20      7.08085     20.38687     129.0858        27     1.424     1.254  49.06   0
        64    200.2112    983.8967 299.9177560 +22.7207108     1592.869     72.16837      3.578    12.37     64.23056     20.38687     63.86408        33     2.128     2.086  36.12   2
        65    997.6187    833.1860 300.2151081 +22.9165600     2197.617     72.20522      1.807     3.89     4.097427     20.38687     145.1031        29     1.382     1.214  -8.90   0
        66    703.8013    833.1260 300.1235211 +22.8285027     458.5728     72.14994      1.706     5.02     4.000626     20.38687     34.61437         8     1.145     0.623 -29.18   0
        67    203.9635    827.0773 299.9699188 +22.6768750     480.5769     72.22363      1.531     4.69     6.048148     20.38687      58.4825         9     1.274     0.747 -46.13   0
        68    781.0052    827.0941 300.1495415 +22.8499095     599.3453     72.14994      1.433     3.77      4.11082     20.38687      61.2925         9     0.794     0.780  17.41   0
        69    649.2834    820.9122 300.1105073 +22.8086551     4851.111      72.3708      1.585     3.36     4.142209     20.38687     472.5928        35     1.244     1.226  19.69   0
        70    139.4011    821.8404 299.9515518 +22.6560016      259.128     72.27886      1.157     3.69     5.823641     20.38687     44.98424         6     0.811     0.645 -62.78   0
        71    451.5301    817.8127 300.0499402 +22.7484758     741.4719     72.26046      1.584     4.37     4.452691     20.38687     65.29276        14     1.075     0.961  64.17   0
        72    199.5662    814.4411 299.9726595 +22.6719321     1283.071     72.31565      1.762     4.01     5.504352     20.38687     119.5439        21     1.343     1.042  35.62   0
        73    669.8313    813.4656 300.1193293 +22.8126768     753.6588     72.26046      1.662     4.27     4.128616     20.38687     71.46111        13     1.061     0.937   7.43   0
        74    219.3596    811.2625 299.9798466 +22.6769588     464.0209     72.24205      1.357     2.63     5.166742     20.38687     52.38025         5     0.712     0.456  74.10   0
        75    825.3076    800.6713 300.1719415 +22.8555979     4194.385     72.40755      1.631     3.55     4.273172     20.38687      345.735        36     1.318     1.199   9.19   0
        76    233.4169    795.1544 299.9894534 +22.6765563     405.2957     72.27886      1.549     5.33     4.616589     20.38687     40.16226         9     1.435     0.560 -23.27   0
        77    542.4991    793.2629 300.0862394 +22.7687071     574.4568      72.3708      1.624     5.93     4.300384     20.38687     50.75492        12     1.257     0.786  25.85   0
        78    188.7290    791.0591 299.9768907 +22.6619753     953.0453     72.29726      1.690     3.66     4.970492     20.38687     97.02906        17     1.163     1.076  67.76   0
        79    338.3596    783.0696 300.0260198 +22.7045682     53892.76     72.24205      1.645     3.19     4.726374     20.38687     5641.909        91     1.457     1.389  51.23   0
        80    604.1431    786.2643 300.1077105 +22.7851783     371.2833     72.31565      1.519     4.68      4.31574     20.38687      40.7836         8     1.023     0.607   7.51   0
        81   1009.2923    781.6468 300.2355060 +22.9052505     880.4219     72.27886      1.834     4.94     4.372173     20.38687     68.60111        19     1.254     1.131  20.76   0
        82    596.2576    782.2519 300.1065589 +22.7816628     1573.213     72.31565      1.482     2.99     4.317678     20.38687     162.6987        23     1.222     1.042 -12.62   0
        83    311.6837    780.6602 300.0185050 +22.6958761      401.812     72.35242      1.911     4.38     4.703384     20.38687     47.34769         5     1.039     0.706  63.47   0
        84    266.7894    781.1481 300.0043835 +22.6825501     454.1149     72.26046      1.553     3.27     4.635359     20.38687     58.62167        10     1.050     0.746 -15.62   0
        85    625.2729    778.2806 300.1168868 +22.7892204     1019.157     72.38918      1.577     3.48     4.311753     20.38687     92.99408        19     1.170     1.036 -22.26   0
        86     24.6209    777.5134 299.9302940 +22.6088491     810.3586      72.1868      1.973     6.50     4.593354     20.38687     56.97356        19     1.538     1.159  56.51   0
        87    636.2120    776.6855 300.1208126 +22.7920414     625.5457     72.20522      1.391     3.26     4.301835     20.38687     83.30385        12     1.082     0.800  -9.77   0
        88    741.3054    772.9017 300.1547857 +22.8224521      498.018     72.44428      1.542     4.09     4.268354     20.38687     44.20796        11     1.034     0.823 -82.27   0
        89    388.1085    760.3669 300.0488765 +22.7129745     31540.67     72.22363      1.561     3.02     4.662564     20.38687     3409.874        67     1.357     1.308  31.13   0
        90    779.1381    763.0823 300.1697684 +22.8309693     819.5947     72.35242      1.554     3.98     4.416867     20.38687     78.88772        13     1.136     0.849  16.49   0
        91    402.3599    760.8246 300.0531622 +22.7173794     2058.952     72.29726      1.639     3.15     4.618596     20.38687     216.9845        26     1.250     1.164 -24.71   0
        92    911.3198    756.4026 300.2131508 +22.8686524     2881.486     72.16837      1.652     3.48     4.711322     20.38687     246.3089        31     1.327     1.199 -39.83   0
        93    399.3694    754.7822 300.0541955 +22.7147489      750.756     72.24205      1.738     4.13     4.630272     20.38687     65.47233        13     1.141     0.806  41.77   1
        94    669.0215    752.3768 300.1389343 +22.7948964     910.2408     72.26046      1.543     3.20     4.339869     20.38687     101.2939        18     1.112     0.978  35.94   0
        95    505.6452    752.5856 300.0879869 +22.7459838     372.7621     72.27886      1.384     3.17     4.412984     20.38687     47.94816         7     0.931     0.480  -8.08   0
        96    563.3940    750.5029 300.1066440 +22.7626982     217.6998     72.16837      1.536     4.26     4.316086     20.38687     31.43219         5     1.057     0.489 -89.95   0
        97    516.3220    747.2965 300.0930297 +22.7476667     815.0256     72.38918      1.466     3.29     4.388605     20.38687     101.7268        13     0.981     0.896 -11.34   0
        98     75.8992    747.9762 299.9558250 +22.6157681     514.4381     72.20522      1.914     3.76     4.651882     20.38687     57.11503         9     1.140     0.667 -50.36   0
        99    917.5341    744.2536 300.2190376 +22.8670240     609.1187     72.29726      1.685     5.60     4.853909     20.38687     48.60962        12     1.366     0.808 -26.92   0
       100    665.0543    744.3328 300.1403128 +22.7913979     407.8665     72.29726      2.566     3.44     4.364426     20.38687     42.07351         5     1.010     0.338 -41.14   0
       101    418.4131    743.3874 300.0638248 +22.7171897     319.6913      72.1868      1.311     4.35     4.571198     20.38687     39.26637         6     1.105     0.584 -24.48   0
       102    462.0818    742.1596 300.0778146 +22.7299308     428.6115     72.22363      1.322     4.72     4.529745     20.38687     54.67398         8     0.889     0.728  -3.18   0
       103    103.4238    741.3907 299.9665182 +22.6221383     571.8412     72.26046      1.807     3.86     4.672944     20.38687      58.1296        11     1.082     1.031   0.62   0
       104    270.4719    752.3307 300.0148947 +22.6753885     736.6667     72.33405      1.635     3.42     4.574037     20.38687     93.71559        15     1.218     0.860   2.61   0
       105    895.1495    738.3008 300.2139915 +22.8586087     258.0117     72.35242      1.608     5.02     4.850918     20.38687     30.02433         7     1.240     0.576  78.79   0
       106    268.6701    736.5724 300.0194554 +22.6703277     556.6767     72.24205      1.409     3.15     4.535208     20.38687     70.25108        11     0.908     0.878 -50.50   0
       107    301.0261    730.3575 300.0315382 +22.6782491     148.2118     72.29726      1.346     4.04     4.610953     20.38687     34.00946         5     0.790     0.591  86.49   0
       108    591.3604    727.0031 300.1229903 +22.7643353     518.6517     72.27886      1.714     3.56     4.369092     20.38687     72.74301         9     1.227     0.703  75.29   0
       109    561.2578    724.9814 300.1142730 +22.7547320     776.6221     72.22363      1.501     5.04     4.321391     20.38687     67.67139        17     1.344     0.981 -27.43   0
       110    583.1549    722.7216 300.1218263 +22.7606468     1298.399     72.26046      1.360     2.78     4.358199     20.38687     152.5052        19     1.059     0.975  26.52   0
       111    470.3296    723.9819 300.0862892 +22.7271867     324.9329     72.29726      1.296     4.43     4.482526     20.38687     35.37194         6     0.863     0.645  50.72   0
       112    977.6489    721.7908 300.2450890 +22.8785762     4524.612     72.27886      1.691     3.69     5.045774     20.38687     353.6193        36     1.328     1.260  17.05   0
       113    503.1143    722.3503 300.0970249 +22.7365472     356.2934     72.24205      1.252     3.44     4.409456     20.38687     42.99751         6     0.747     0.624 -51.39   0
       114    664.7515    717.8343 300.1488300 +22.7836990      322.736     72.29726      1.335     2.79     4.387866     20.38687     54.15686         5     0.906     0.368  -3.45   0
       115    966.2733    713.1500 300.2443485 +22.8726866      1642.34     72.26046      1.682     3.99     5.039367     20.38687     119.2605        24     1.246     1.187  50.96   0
       116    329.0764    706.8047 300.0479168 +22.6799038     802.1614     72.16837      1.482     3.07     4.548349     20.38687     106.2367        14     1.079     0.861   0.69   0
       117    194.8746    707.4966 300.0059573 +22.6398525     255.2076     72.40755      1.337     4.25      4.48899     20.38687     27.46301         6     1.033     0.498  -2.50   0
       118    792.6765    704.4248 300.1930517 +22.8181798     2627.837     72.27886      1.691     3.28     4.488376     20.38687     254.7545        33     1.569     1.129  -6.96   0
       119    997.2903    703.2919 300.2572283 +22.8791431     1685.466     72.42592      1.685     3.60     5.073855     20.38687      137.056        25     1.272     1.142  31.82   0
       120     15.1608    694.7483 299.9542497 +22.5822809     763.2137     72.24205      1.550     3.81      4.49356     20.38687     105.6775        11     1.127     0.826 -72.97   0
       121    875.1963    690.2767 300.2233760 +22.8388361     579.8873     72.16837      1.702     6.14     4.839548     20.38687     47.38481        11     1.474     0.719  32.40   0
       122    177.6526    690.5602 300.0061062 +22.6298286     716.7976     72.24205      1.854     3.78     4.558743     20.38687     65.52084        12     1.019     0.869  13.34   0
       123    910.9261    681.3014 300.2374346 +22.8469595     148839.8     72.40755      1.589     3.13     4.984541     20.38687     13914.62       153     1.481     1.436  40.15   0
       124    673.2164    685.2225 300.1620643 +22.7768716     430.1114     72.24205      1.430     3.62     4.388627     20.38687     51.76064        10     0.931     0.778  68.03   0
       125    763.2158    681.9402 300.1911754 +22.8028955     790.3558     72.22363      1.502     2.94     4.401277     20.38687     88.71656        12     0.955     0.819 -87.49   0
       126     75.0109    680.7361 299.9773969 +22.5962199     258.5068     72.20522      1.351     3.78     4.658462     20.38687     30.05859         5     1.003     0.523 -35.63   0
       127    943.5100    674.3748 300.2498479 +22.8547282     365.5188     72.20522      1.508     3.10       5.0684     20.38687     47.87505         7     1.004     0.605 -23.21   0
       128    597.1564    670.0869 300.1432896 +22.7497322     1795.914     72.24205      1.437     3.08      4.44182     20.38687     190.1801        22     1.114     1.053   9.33   0
       129    778.3879    667.3864 300.2006329 +22.8032608     9388.771      72.1868      1.459     2.84     4.411837     20.38687     1037.496        40     1.209     1.189  60.70   0
       130    260.3512    669.2922 300.0387291 +22.6485311     254.0494     72.29726      1.078     3.76      4.32024     20.38687     43.97464         5     0.855     0.475  43.81   0
       131    279.8697    662.4198 300.0470320 +22.6524127     5143.865     72.26046      1.576     3.17     4.282527     20.38687     516.6666        36     1.319     1.180  36.87   0
       132    361.8227    660.6220 300.0731090 +22.6764709     1256.842     72.26046      1.607     3.46     4.326781     20.38687     112.2669        18     1.184     0.990  25.94   0
       133    237.4264    658.0493 300.0352527 +22.6384304     531.1931     72.27886      1.814     4.70     4.331483     20.38687     53.93705         9     1.142     0.939  -9.85   0
       134    570.3060    656.0633 300.1394838 +22.7376589     810.3729     72.35242      1.301     2.66     4.474684     20.38687      111.741        12     0.917     0.809  23.03   0
       135    561.8366    648.2225 300.1393937 +22.7328694     3194.133     72.27886      1.335     2.68     4.499457     20.38687     397.1127        28     1.136     1.060  72.49   0
       136     87.2998    645.4036 299.9926935 +22.5897733     301.8976      72.1315      1.480     3.46     4.701665     20.38687     33.85659         5     0.765     0.453  17.84   0
       137    552.0781    641.9811 300.1383826 +22.7281528     1440.249     72.26046      1.329     2.64     4.493951     20.38687     194.9052        21     1.083     0.987  47.01   0
       138    945.5240    639.9957 300.2616459 +22.8454529     324.9972     72.16837      1.422     5.37     5.064125     20.38687     47.00162         9     1.075     0.757  14.99   0
       139    215.2136    638.1838 300.0347991 +22.6260693     728.9813     72.20522      1.602     3.84     4.343758     20.38687     75.16956        15     1.255     0.939 -12.66   0
       140    229.7540    636.4283 300.0398904 +22.6299263     656.1727     72.29726      1.522     3.37     4.313336     20.38687     66.34149        12     1.098     0.840  53.25   0
       141    998.5637    633.2404 300.2803866 +22.8593940     493.7713     72.33405      1.668     4.63     5.067514     20.38687     42.67196         9     1.131     0.636  81.25   0
       142    255.6369    633.1852 300.0489925 +22.6367577     661.7294     72.26046      1.705     3.25     4.263589     20.38687      84.4083        10     0.970     0.785 -86.68   0
       143    286.7973    633.1662 300.0586896 +22.6460963     380.9998     72.22363      1.881     4.50     4.208745     20.38687     51.55529         8     1.073     0.623  58.12   0
       144    576.0806    632.1324 300.1490563 +22.7325185     400.1353      72.3708      1.262     3.32     4.678425     20.38687     54.40023         9     0.802     0.774 -74.98   0
       145    510.2311    631.7556 300.1286750 +22.7126749     261.9425     72.31565      1.658     4.52     4.516223     20.38687     36.55277         6     1.156     0.503 -27.27   0
       146    476.8348    631.6144 300.1183244 +22.7026244     1856.101     72.26046      1.415     2.75     4.501311     20.38687     221.3633        19     1.090     0.930  36.00   0
       147    130.8068    626.4713 300.0123642 +22.5973936     20111.17     72.22363      1.663     3.36     4.547745     20.38687     2126.452        60     1.409     1.339  36.46   0
       148     51.9882    628.0156 299.9873692 +22.5741933     709.7531     72.20522      1.669     4.75     4.610219     20.38687     54.37725        13     1.078     0.891 -19.23   0
       149    561.9329    626.9879 300.1463218 +22.7268015     1136.293     72.26046      1.460     3.02     4.638209     20.38687     134.7469        15     1.046     0.878   5.42   0
       150    596.8217    626.2349 300.1574315 +22.7370407     331.4344     72.27886      1.163     3.00     4.843012     20.38687     50.94101         7     0.831     0.605  22.24   0
       151    979.7518    613.5117 300.2809267 +22.8480914     973.5234     72.26046      1.458     3.18     5.059969     20.38687     111.0251        17     1.074     0.969 -19.44   0
       152     76.7437    610.6074 300.0007153 +22.5766266     1492.742     72.24205      2.030     5.35     4.678732     20.38687     130.0494        26     1.560     1.131  89.42   0
       153    847.0323    611.4959 300.2401892 +22.8077673     526.9567     72.22363      1.442     3.87     4.761836     20.38687      57.7139         9     1.094     0.643  -8.87   0
       154    143.4024    611.3339 300.0211958 +22.5968292     523.6643     72.26046      1.569     2.78     4.428349     20.38687     51.27162         5     0.699     0.470  74.40   0
       155    525.3600    607.6574 300.1412129 +22.7102907     571.1523     72.24205      1.414     2.11     4.646682     20.38687     66.28881         6     0.645     0.611  29.87   0
       156    317.9506    606.7142 300.0769716 +22.6478465     356.1331     72.24205      1.443     3.32     4.175423     20.38687      31.5264         7     0.728     0.677  -9.50   0
       157    918.8354    605.9581 300.2643789 +22.8276798     1013.497     72.31565      2.410     7.83     5.012917     20.38687     64.16335        18     2.083     0.824   0.63   0
       158    664.4770    604.5483 300.1855501 +22.7510853     358.2934     72.24205      1.734     5.08     4.953485     20.38687     31.82645         6     0.987     0.739  10.47   0
       159    482.0811    599.8487 300.1302756 +22.6950777     818.8643     72.29726      1.373     3.32     4.641479     20.38687     94.75833        12     1.061     0.734  52.86   0
       160    630.0788    598.4125 300.1768274 +22.7390167     468.6768     72.24205      1.476     3.58      5.05668     20.38687     68.17891         9     0.983     0.728  51.12   0
       161    677.0553    596.9752 300.1919286 +22.7526787     373.8667     72.27886      1.237     2.48     4.936169     20.38687     60.53615         9     0.798     0.708   8.83   0
       162    647.3980    596.4848 300.1828485 +22.7436523     535.4855      72.1868      1.220     2.45     5.018979     20.38687     100.9908        10     0.860     0.745 -51.45   0
       163    526.3102    595.7733 300.1453687 +22.7071634     956.3481     72.22363      1.520     2.66     4.727103     20.38687     107.6047        14     1.015     0.819  33.40   0
       164    713.1843    595.1641 300.2037740 +22.7629825     158.9046     72.26046      1.264     2.91     4.805336     20.38687     39.92698         5     0.741     0.663 -52.75   0
       165    959.9736    591.4079 300.2819366 +22.8358169     3351.812     72.26046      1.504     2.76     5.025994     20.38687     350.5144        30     1.243     1.117  50.87   0
       166    491.6339    591.1075 300.1360884 +22.6954313     1769.242     72.20522      1.424     3.00     4.669575     20.38687     205.3568        21     1.090     1.023  52.93   0
       167    856.6777    588.2630 300.2507430 +22.8039807     415.1151     72.33405      1.505     4.03     4.794291     20.38687     40.46865         6     0.931     0.498  48.89   0
       168    829.0589    587.9596 300.2422305 +22.7956219     192.5174     72.26046      1.111     3.77     4.723548     20.38687     33.74514         5     0.679     0.602   1.40   0
       169     53.6203    584.6557 300.0019586 +22.5622467     5046.146     72.24205      1.729     3.41     4.755085     20.38687     530.6667        35     1.317     1.279   9.80   0
       170    466.8570    586.4441 300.1298902 +22.6866664      203.438     72.27886      1.226     4.08     4.582526     20.38687     37.88584         6     0.979     0.491  -5.23   0
       171    521.1334    582.1304 300.1481879 +22.7016947      331.998     72.31565      1.300     2.26     4.800686     20.38687     50.27331         6     0.714     0.555  37.60   0
       172    998.8346    581.2284 300.2973664 +22.8445265     313.0058     72.27886      1.276     2.55     5.047421     20.38687     48.27553         5     0.880     0.345  45.67   0
       173    355.0766    577.8571 300.0978934 +22.6506950     9206.595     72.29726      1.411     2.74     4.242012     20.38687     1173.202        42     1.251     1.130  48.54   0
       174    477.5529    574.9618 300.1369487 +22.6865756     9064.447     72.29726      1.397     2.50     4.630017     20.38687     1275.085        36     1.186     1.071  47.96   0
       175    243.0458    571.7018 300.0650459 +22.6153400     202.8778     72.29726      1.162     2.83     4.274525     20.38687     44.96011         5     0.939     0.561  70.01   0
       176    723.8529    571.6611 300.2147319 +22.7594272      176.717     72.31565      1.273     2.89     4.775582     20.38687     40.08319         5     0.762     0.417  20.60   0
       177    121.5279    571.2064 300.0274287 +22.5787569     296.0941     72.20522      1.138     3.21     4.641058     20.38687     53.90319         5     0.857     0.548 -39.42   0
       178    973.8988    566.4617 300.2943830 +22.8328165      12573.8     72.33405      1.511     2.76     5.002697     20.38687     1403.394        49     1.289     1.268 -75.07   0
       179    889.2614    569.0751 300.2671354 +22.8082249     1890.271     72.31565      1.419     2.90     4.862152     20.38687     203.9421        20     1.053     1.002  80.09   0
       180    538.1415    564.5505 300.1591928 +22.7017439     11583.93     72.31565      1.344     2.49     5.012961     20.38687     1487.953        40     1.167     1.082  59.50   0
       181   1003.8702    563.1431 300.3048114 +22.8408358     3875.353     72.27886      0.557     0.93     5.048656     20.38687     2422.703         8     0.458     0.442  77.96   0
       182    707.5289    560.3473 300.2133195 +22.7512873     483.3891     72.24205      1.279     3.33      4.86371     20.38687       89.869        11     1.056     0.840  73.67   0
       183    265.4648    559.9370 300.0758382 +22.6186859     1452.606     72.29726      1.556     2.78     4.266543     20.38687     194.1242        18     1.094     0.945  17.93   0
       184    423.4494    559.2355 300.1252161 +22.6658449      304.651     72.27886      1.079     2.27     4.506897     20.38687     55.28365         5     0.676     0.489  78.90   0
       185    512.3617    557.4035 300.1534871 +22.6919662      446.207     72.29726      1.296     3.11     4.879768     20.38687     60.14016         9     0.873     0.731  80.27   0
       186    572.1547    555.6902 300.1726616 +22.7093917      228.877     72.24205      1.197     3.52     5.176307     20.38687     36.84297         5     0.826     0.432 -13.62   0
       187    812.6874    552.9028 300.2485122 +22.7806462     803.0245     72.44428      1.361     3.55     4.707093     20.38687     114.4945        14     1.041     0.967  44.21   0
       188    469.7894    552.6523 300.1417770 +22.6778436     4468.476     72.26046      1.363     2.52     4.619315     20.38687     669.7865        29     1.145     1.032  82.78   0
       189    448.2137    551.2764 300.1355081 +22.6709823     1370.403     72.27886      1.394     2.69     4.582107     20.38687     155.8947        19     1.047     0.956  27.04   0
       190    202.6069    550.6383 300.0593117 +22.5971702     829.1744     72.29726      1.410     3.32     4.311489     20.38687     98.77738        14     1.173     0.872   7.25   0
       191    889.5963    548.4028 300.2739534 +22.8023846     1697.755     72.03925      1.612     3.14     4.840173     20.38687     152.1892        19     1.073     1.033 -30.16   0
       192    586.4302    540.2860 300.1821096 +22.7092452     203106.5     72.26046      1.336     2.42      5.24652     20.38687     26526.35       191     1.430     1.355  14.50   0
       193    136.4304    548.3824 300.0394720 +22.5766782     233.0474     72.24205      1.058     2.56     4.565179     20.38687     52.34425         5     0.723     0.472  12.26   0
       194    770.0474    545.3252 300.2376814 +22.7656982     831.0189     72.26046      1.268     2.51     4.701617     20.38687     103.6485        10     0.826     0.737  71.19   0
       195    410.3873    546.2292 300.1253746 +22.6581959     285.7078     72.26046      1.326     4.24     4.519306     20.38687     37.38238         8     1.024     0.617  32.95   0
       196    974.7171    542.3610 300.3024653 +22.8261343     263.9221     72.22363      1.305     3.49     4.969566     20.38687     43.10566         5     0.762     0.463 -12.21   0
       197    272.5694    540.1105 300.0844858 +22.6151260     3526.162     72.22363      1.427     2.75      4.30221     20.38687     454.7955        28     1.164     1.115 -29.09   0
       198    838.2145    536.2757 300.2618700 +22.7835133     564.3885     72.27886      1.610     3.57      4.78897     20.38687     67.82944         8     0.942     0.733 -76.25   0
       199    192.5349    529.2648 300.0631201 +22.5880169     362.1404     72.31565      1.985     5.00     4.374844     20.38687     35.63911         6     1.016     0.697  29.43   0
       200    321.1967    523.1571 300.1051156 +22.6248380     410.5149     72.27886      1.352     3.21     4.408239     20.38687     54.42635         9     0.927     0.682   7.36   0
       201    477.0753    520.4763 300.1544928 +22.6707886     2664.421     72.35242      1.376     2.60     4.844526     20.38687     313.9645        23     1.082     1.009  44.75   0
       202    926.9281    520.2433 300.2947406 +22.8054695     131.6026     72.24205      1.292     4.56     4.871721     20.38687     32.87849         5     1.242     0.475  27.14   0
       203    633.7615    517.9478 300.2041053 +22.7170097     408.7647     72.27886      2.111     4.59     5.150105     20.38687     28.80707         5     0.947     0.631  58.36   0
       204    888.2456    517.1843 300.2836697 +22.7930084     385.9178     72.27886      1.489     4.77     4.881968     20.38687     40.53158         8     1.024     0.630 -32.70   0
       205    794.2464    509.3005 300.2569220 +22.7625949     346.3428     72.27886      1.324     2.55     4.820755     20.38687      55.0668         6     0.721     0.565  54.87   0
       206    874.0671    506.6916 300.2826553 +22.7857474     1661.597     72.40755      1.450     2.94     4.908076     20.38687     199.2726        22     1.169     1.062  60.40   0
       207      4.2463    505.2852 300.0123902 +22.5246701     789.6895      69.5978      1.712     4.58     4.938844     20.38687     79.66103        15     1.235     1.123  66.19  16
       208    745.2620    504.4648 300.2432243 +22.7465352     2528.781     72.29726      1.349     2.51     4.845792     20.38687     333.2951        24     1.133     0.995  45.54   0
       209    989.9689    501.9193 300.3203555 +22.8190751     378.8661     72.26046      1.367     3.51     4.856089     20.38687     50.48596         9     0.935     0.695 -12.12   0
       210    955.1123    501.5642 300.3095969 +22.8085384     367.2426     72.24205      1.480     3.48     4.864905     20.38687     38.63737         5     0.824     0.424 -21.33   0
       211    649.9578    501.0303 300.2146435 +22.7170021     455.0918     72.29726      1.416     3.44      5.06427     20.38687     56.32258         9     0.933     0.673  64.65   0
       212    532.5145    500.3220 300.1782962 +22.6816135     758.0062      72.3708      1.527     2.34     5.185768     20.38687     88.57073        10     0.873     0.697  -7.68   0
       213    317.5162    498.6553 300.1119256 +22.6167016     213.7296     72.35242      1.668     4.78     4.544126     20.38687     24.34403         6     1.489     0.435 -80.04   0
       214   1002.6567    498.6763 300.3253671 +22.8219408     1405.153     72.29726      1.560     3.39      4.83958     20.38687      155.231        16     1.097     0.895 -11.01   0
       215    988.3406    497.7225 300.3212102 +22.8173813      718.944     72.31565      1.522     2.82     4.842523     20.38687     82.40063        14     1.020     0.847  23.37   0
       216    874.3275    496.9364 300.2859038 +22.7830217     2261.111     72.29726      1.595     3.78     4.930593     20.38687     264.1323        27     1.603     0.945  75.48   0
       217    627.3708    495.1292 300.2095233 +22.7085408     464.0328     72.26046      1.213     2.70     5.151678     20.38687     75.47784        10     0.943     0.657  31.29   2
       218    627.5847    491.2480 300.2108500 +22.7074899     474.5691     72.29726      1.573     4.28     5.143294     20.38687     37.18422         7     1.003     0.542 -58.74   3
       219    413.1596    495.1045 300.1428367 +22.6443491     338.9135     72.26046      1.302     3.49     4.622073     20.38687     52.56108         6     0.788     0.678   0.60   0
       220    465.9677    493.7522 300.1597117 +22.6597863     455.7681     72.29726      1.433     4.33      4.98202     20.38687     45.74188         7     0.770     0.692   6.11   0
       221    912.4694    491.9844 300.2994064 +22.7930183     4358.244     72.27886      1.467     2.90     4.893213     20.38687      447.319        32     1.213     1.129 -65.06   0
       222    573.1424    487.8580 300.1949940 +22.6902064     385.4985     72.33405      1.301     4.54     5.217761     20.38687     44.45749         7     0.931     0.630  71.25   0
       223   1004.3518    482.6176 300.3311098 +22.8178316     662.2613     72.29726      1.330     2.85     4.767606     20.38687     95.99589        11     0.895     0.828  -5.84   0
       224    144.3353    482.0609 300.0634610 +22.5600191     1098.547     72.29726      1.558     3.64     4.761117     20.38687     135.2056        17     1.238     0.954  51.47   0
       225    804.8939    475.7203 300.2711436 +22.7561339     247.9738     72.38918      1.363     4.36     4.926859     20.38687     52.54148         6     1.350     0.400  36.39   0
       226    411.1609    475.6004 300.1485465 +22.6381501     290.5772     72.26046      1.767     4.40     4.691895     20.38687      31.4466         7     1.206     0.458   9.00   0
       227    137.1928    472.3835 300.0643823 +22.5551004     370.2512      72.1868      1.246     4.15     4.815143     20.38687     65.61467         7     0.800     0.615  12.20   0
       228   1001.1518    471.5835 300.3336937 +22.8137015     259.2939     72.29726      1.149     4.22     4.759729     20.38687     37.80264         6     1.077     0.472  -8.42   0
       229    744.7706    466.7027 300.2553308 +22.7355379     478.0378      72.1868      1.429     2.98      4.93417     20.38687     54.14965         8     0.929     0.640  52.95   0
       230    633.5495    464.2359 300.2214772 +22.7015172     348.4154     72.27886      1.167     3.61     5.123461     20.38687     53.46902         7     1.017     0.469  40.35   0
       231    685.9780    462.2932 300.2384415 +22.7166628     834.2415      72.1868      1.335     2.96     4.967655     20.38687     110.6481        14     1.024     0.840 -53.41   0
       232   1000.5263    454.9918 300.3388848 +22.8087441     711.0868     72.22363      1.564     3.22     4.753221     20.38687     62.31718        11     0.984     0.731  15.76   0
       233    746.6436    454.6147 300.2598385 +22.7326254     856.7147     72.27886      1.262     2.27     4.944999     20.38687     134.8192        16     0.979     0.906 -75.48   0
       234    904.0104    451.1502 300.3100248 +22.7787485      950.035     72.27886      1.302     2.70     4.915391     20.38687     127.7869        14     0.959     0.847   0.40   0
       235    888.2826    447.1723 300.3064112 +22.7728965     588.8559     72.26046      1.327     2.88     4.943661     20.38687     77.67249        13     0.951     0.865  69.18   0
       236    868.9151    447.8854 300.3001402 +22.7673032     211.0804     72.38918      1.368     4.27     4.977068     20.38687      40.6902         6     1.166     0.446  62.42   0
       237    632.5177    445.2047 300.2273335 +22.6957408     3305.395      72.1868      1.294     2.42     5.147542     20.38687     416.4318        23     1.052     0.963  74.32   0
       238    993.3036    444.1574 300.3401484 +22.8034673     522.9393     72.27886      1.522     3.05     4.762615     20.38687     58.23954         9     0.948     0.622 -38.50   0
       239    638.0444    432.9190 300.2330428 +22.6938667     296.2188     72.24205      1.312     3.80     5.147284     20.38687     47.50966         6     1.025     0.494  77.73   0
       240    404.3769    433.1556 300.1602126 +22.6239296     347.5145     72.31565      1.494     3.44     5.070357     20.38687     34.65403         5     0.770     0.443  71.90   0
       241    472.1978    432.4561 300.1815483 +22.6440508     410.2117     72.22363      1.200     2.66      5.18649     20.38687     55.71062         6     0.771     0.495   5.73   0
       242   1018.2070    431.0103 300.3521861 +22.8071408     373.7274      72.1315      2.369     5.09     4.713948     20.38687     29.14542         6     1.382     0.530  -5.10  16
       243   1002.2305    423.1824 300.3497420 +22.8001084     1011.105     72.24205      1.420     3.19     4.739158     20.38687     106.8048        15     1.069     0.868  24.92   0
       244    915.9566    424.1841 300.3225038 +22.7745729     541.3784     72.27886      1.264     2.95     4.894619     20.38687     87.82722        11     1.016     0.690 -28.22   0
       245    652.6584    421.4052 300.2413325 +22.6949358     364.6101     72.22363      1.590     3.09     5.131686     20.38687      43.8304         5     0.711     0.474 -13.84   0
       246    743.2484    419.1667 300.2702864 +22.7214223     1152.584     72.29726      1.265     2.50     4.980502     20.38687     151.7109        14     0.903     0.856 -71.11   0
       247    538.9115    419.6942 300.2064606 +22.6603726     504.7537     72.44428      1.554     2.80     5.190553     20.38687      75.8346         8     0.892     0.829 -65.16   0
       248    246.9422    417.3176 300.1163766 +22.5721985     626.9523     72.33405      1.483     3.23     5.150633     20.38687     75.30266        14     1.049     0.877  51.78   0
       249    309.4551    413.0255 300.1372126 +22.5897031     3734.115     72.27886      1.363     2.46     5.364404     20.38687     530.8896        28     1.172     0.986  26.27   0
       250    256.6562    407.8114 300.1224826 +22.5723813     7561.553     72.24205      1.428     2.56     5.241699     20.38687     1086.177        38     1.195     1.138  55.98   0
       251    635.3777    407.2901 300.2405302 +22.6857047     471.9861      72.1868      1.657     4.14     5.195813     20.38687     44.70912         6     0.736     0.665  -7.90   0
       252   1022.5016    402.6172 300.3627418 +22.8002617     1771.849     62.42512      1.507     2.81     4.700675     20.38687       211.02        21     1.227     0.988  71.93  24
       253    397.4943    402.0139 300.1681776 +22.6129246     4939.778      72.1868      1.320     2.39     5.225676     20.38687     704.1299        31     1.121     1.051  74.27   0
       254    641.6658    398.7784 300.2452515 +22.6851425     18837.21     72.24205      1.299     2.23     5.204235     20.38687     3029.784        52     1.214     1.085  71.51   0
       255    659.4232    398.8254 300.2507682 +22.6904742     780.6282     72.22363      1.800     6.72     5.181178     20.38687     65.84965        16     1.729     0.784 -43.32   0
       256    489.0155    400.4949 300.1971566 +22.6399099     349.2673      72.1868      1.360     3.41     5.205489     20.38687     43.38615         6     0.784     0.499   2.13   0
       257    884.9753    395.0526 300.3222965 +22.7569242     211.3246     72.27886      1.109     2.53     4.936107     20.38687     38.69856         5     0.604     0.601  39.22   0
       258    838.4286    389.4265 300.3096083 +22.7413726     286.6836     72.24205      1.189     3.17     4.956907     20.38687     53.35697         7     0.862     0.635 -69.26   0
       259    261.8187    385.9749 300.1311742 +22.5676598     358.7831     72.26046      1.220     1.87     5.342173     20.38687     77.57017         7     0.679     0.633 -70.97   0
       260    975.5042    381.1130 300.3550573 +22.7800131     1004.731     72.44428      1.827     5.86     4.774355     20.38687     99.39772        18     1.591     0.900 -61.32   0
       261    511.9601    380.6654 300.2107348 +22.6410879     411.9148     72.22363      1.109     2.62     5.203165     20.38687     49.68691         5     0.729     0.433  18.57   0
       262    196.2444    378.7461 300.1131289 +22.5459297     2143.389     72.27886      1.547     2.82     5.280278     20.38687     275.7032        24     1.228     1.071  25.17   0
       263    582.3467    368.2133 300.2366934 +22.6585943     6713.578     72.27886      1.277     2.33     5.255874     20.38687     791.4343        37     1.200     1.013  60.22   0
       264    996.0243    368.7759 300.3654629 +22.7826066     1237.382     72.22363      1.438     2.75     4.743666     20.38687     156.4336        16     1.006     0.908  18.85   0
       265    297.3177    367.5396 300.1481974 +22.5730060     564.2459      72.3708      1.316     2.78     5.456409     20.38687     85.80143        12     1.018     0.751  32.82   0
       266    155.1499    361.0090 300.1061082 +22.5285199     529.7978     72.26046      1.343     2.45     5.417613     20.38687     72.48714         8     0.816     0.600 -32.49   0
       267    696.0551    358.5696 300.2752448 +22.6898764     536.3401     72.27886      1.289     2.18     5.172823     20.38687     77.73706         8     0.723     0.672  67.08   0
       268      2.3239    358.1667 300.0595386 +22.4818857     1221.127     61.61019      1.445     3.68     4.802154     20.38687     136.6833        19     1.318     0.936  81.32  24
       269    786.5742    357.3214 300.3038608 +22.7166201     1354.364     72.26046      1.521     2.72      4.93374     20.38687     148.6909        18     1.150     0.869  59.94   0
       270    488.9661    354.4559 300.2120806 +22.6266710     6260.608     72.27886      1.299     2.39     5.207227     20.38687      872.271        27     1.065     0.989  45.70   0
       271    880.7567    348.9029 300.3359568 +22.7423938     1517.422     72.26046      1.437     2.60     4.916202     20.38687     194.2994        19     1.205     0.857  74.43   0
       272    978.2802    349.1039 300.3663104 +22.7716395      704.628     72.38918      1.750     4.23     4.764212     20.38687     77.64383        14     1.265     0.935  75.89   0
       273    473.7572    343.2576 300.2109793 +22.6188982     396.2537     72.20522      1.218     2.91      5.21736     20.38687       59.999         8     0.882     0.600  88.66   0
       274    556.5286    341.2767 300.2373930 +22.6431224     404.5627      72.3708      1.053     2.24      5.25445     20.38687     64.60107         7     0.755     0.595 -13.20   0
       275      1.3933    339.9068 300.0651735 +22.4763669     583.6146     56.54482      0.963     1.90     4.966519     20.38687     147.2228         7     0.829     0.481 -82.82  24
       276    536.6279    338.5608 300.2320772 +22.6363815     350.1486     72.29726      1.538     5.03     5.238736     20.38687     40.57574         6     1.069     0.687  43.78   0
       277    853.5079    336.6484 300.3314360 +22.7307144     620.3286     72.29726      1.305     2.57     4.940703     20.38687     81.89112        12     0.888     0.833  85.86   0
       278    357.8620    336.1531 300.1772158 +22.5821358     120.9824     72.27886      1.302     4.45     5.377913     20.38687     32.90221         5     0.790     0.713  28.56   0
       279    376.4823    333.6456 300.1838231 +22.5869947      2568.62     72.22363      1.351     2.48     5.328749     20.38687     380.5748        22     1.040     1.031  53.62   0
       280     95.1397    331.0088 300.0971887 +22.5019195     1013.482     72.22363      1.466     2.99       5.2115     20.38687     123.2633        17     1.064     0.956  10.33   0
       281    724.1924    328.4374 300.2937895 +22.6896413     246.8966     72.27886      1.381     3.50     5.023755     20.38687     34.34457         5     0.762     0.465  16.57   0
       282    345.8717    323.0517 300.1777357 +22.5747806     30237.24     72.26046      1.382     2.68     5.405999     20.38687     3879.548        74     1.342     1.202  65.52   0
       283    880.5262    320.8017 300.3450026 +22.7342454     1354.014     72.16837      1.276     2.63     4.909266     20.38687     185.0069        19     1.061     0.958 -31.42   0
       284    835.6118    318.3612 300.3317892 +22.7201001     276.8914     72.26046      1.518     4.30     4.932813     20.38687     28.65987         5     1.023     0.514  46.19   0
       285     42.1073    310.8341 300.0872536 +22.4802306      4904.07     72.20522      1.613     3.13     5.360051     20.38687     640.4835        39     1.383     1.241  49.32   0
       286    919.9586    310.0560 300.3607867 +22.7429572     274.1094     72.22363      2.336     5.41     4.838364     20.38687     28.73919         5     1.438     0.574 -77.38   0
       287    795.7002    309.7064 300.3221542 +22.7056649     496.0926     72.44428      1.226     2.74     4.929226     20.38687      89.4967         8     0.886     0.618  58.55   0
       288    220.0021    309.7144 300.1429121 +22.5332326     364.9211      72.1868      1.274     3.48     5.412463     20.38687     50.16016         7     0.854     0.574 -18.95   0
       289    444.6306    308.1625 300.2132986 +22.6000918     470.1332     72.27886      1.229     3.05     5.257496     20.38687     63.97062         7     0.833     0.559 -62.52   0
       290    812.4136    306.8580 300.3282886 +22.7098491     200.7322     72.22363      1.297     4.30     4.928597     20.38687     27.59749         5     0.959     0.550  42.88   0
       291    756.3464    302.8893 300.3120990 +22.6919243       1955.7     72.29726      1.368     2.56     4.942438     20.38687     238.7324        20     1.068     0.936  77.38   0
       292    971.3192    296.0793 300.3813422 +22.7543077     596.0159     72.38918      1.387     3.08     4.776672     20.38687     73.91683        12     0.979     0.815 -30.77   0
       293    564.7143    297.3516 300.2541923 +22.6329534     278.3447     72.24205      1.043     2.99     5.359235     20.38687     47.79572         7     0.801     0.615  29.85   0
       294    418.0216    287.3975 300.2117526 +22.5861559     2173.929     72.20522      1.500     3.10     5.279394     20.38687      266.192        22     1.292     0.910  56.72   0
       295    630.6354    286.3450 300.2782948 +22.6495311     208.5262     72.27886      0.955     2.61      5.38609     20.38687     48.86909         5     0.719     0.443 -70.51   0
       296    857.1462    280.4591 300.3507994 +22.7156482     511.8306     72.31565      1.179     2.85     4.927575     20.38687     86.91151        11     0.896     0.816  57.27   0
       297    849.8124    281.0291 300.3483277 +22.7136172     362.8428     72.26046      1.409     5.43     4.927575     20.38687     46.06414         8     1.117     0.746 -19.76   0
       298    757.0081    278.0568 300.3203605 +22.6849840     273.5677     72.24205      1.311     1.85     4.925685     20.38687     52.70705         5     0.585     0.564  -1.05   0
       299    739.4024    278.0663 300.3148703 +22.6797163     509.2581     72.26046      1.371     3.41     4.924912     20.38687     61.73883         9     0.856     0.785   2.70   0
       300    707.7365    277.1252 300.3053073 +22.6699659     297.3985     72.29726      1.381     4.38     5.120389     20.38687     43.88427         6     1.053     0.518  42.82   0
       301    493.9539    266.9358 300.2420252 +22.6030219     1080.841     72.29726      1.256     2.15     5.326741     20.38687     190.8842        14     0.917     0.835 -71.81   0
       302    301.2188    267.1031 300.1819926 +22.5453338      384.189     72.16837      1.272     2.66     5.529409     20.38687     49.33618         6     0.747     0.535  54.46   0
       303    738.7983    258.7735 300.3209398 +22.6739895     2303.661     72.20522      1.370     2.26     4.884944     20.38687      349.323        21     1.065     0.913 -75.09   0
       304   1000.1470    253.2632 300.4042248 +22.7506186     3275.525     72.31565      1.416     2.88     5.116473     20.38687      438.455        28     1.226     1.072  55.60   0
       305    446.9625    242.6951 300.2352589 +22.5819829     564.1061     72.24205      1.222     2.60     5.255298     20.38687     80.70894        10     0.849     0.763  27.55   0
       306    122.1399    236.6044 300.1362000 +22.4829130     1464.371     72.22363      1.736     3.95     5.558889     20.38687     168.3373        22     1.286     1.208 -61.89   0
       307    152.8542    236.6593 300.1457296 +22.4921337     573.7361     72.31565      1.375     2.14     5.556458     20.38687     99.04227         8     0.816     0.605 -47.97   0
       308   1015.6927    234.0452 300.4153085 +22.7497415     582.1459     72.27886      1.414     2.83     5.309643     20.38687     80.33406        11     1.004     0.734  53.61   0
       309    859.3159    230.5084 300.3676772 +22.7019343     307.6736     72.42592      1.497     3.42     4.927575     20.38687     41.27773         5     0.744     0.454 -20.80   0
       310    205.9574    228.7563 300.1648023 +22.5057779     452.6094     72.35242      1.481     2.88     5.547273     20.38687     68.84438         8     0.940     0.629  46.58   0
       311   1000.7278    226.7193 300.4130150 +22.7431571     321.4075     72.38918      1.478     3.40     5.384107     20.38687     52.01456         5     0.755     0.666  39.80   0
       312     61.7675    225.4846 300.1210432 +22.4616259     310.9781     72.22363      1.329     4.20     5.584459     20.38687     40.37363         5     0.900     0.560  50.90   0
       313    882.1149    222.3340 300.3774378 +22.7064061     345.9258     72.35242      1.152     2.21     5.070911     20.38687     48.07949         7     0.689     0.645   1.49   0
       314    810.4511    220.2821 300.3557581 +22.6843698     631.4573     72.27886      1.190     2.56     4.958347     20.38687     87.87621        11     0.929     0.709  14.05   0
       315    400.9068    219.4993 300.2284470 +22.5615242     473.8348     72.44428      1.471     3.44     5.218173     20.38687     54.51095         9     0.910     0.680  72.12   0
       316    901.0258    213.2903 300.3862683 +22.7094639     292.8086      72.1868      1.423     3.50     5.235513     20.38687     46.70792         6     0.911     0.496  38.90   0
       317    908.6304    209.3063 300.3899321 +22.7105936     2102.407      72.1868      1.391     2.28     5.293274     20.38687     279.8723        27     1.269     1.018  87.66   0
       318    327.2621    206.5141 300.2097429 +22.5357338      2089.65     72.38918      1.347     2.46     5.446199     20.38687     258.9974        23     1.092     1.018  42.28   0
       319    405.1228    201.5400 300.2355826 +22.5576274     1128.626     72.31565      1.463     3.20     5.253565     20.38687      151.367        16     1.190     0.860  88.19   0
       320    157.1536    201.8299 300.1583599 +22.4834216     349.6611     72.27886      1.421     5.01     5.540558     20.38687     39.16243         8     0.917     0.774 -89.94   0
       321    806.9142    201.0542 300.3608907 +22.6777824     560.9684     72.31565      1.356     2.85     5.073477     20.38687     68.21558         8     0.820     0.631  35.07   0
       322    914.1073    197.7868 300.3953758 +22.7089191     357.3217      72.1868      1.328     3.70     5.340554     20.38687     56.49423         8     1.026     0.706 -51.63   0
       323    221.8900    193.8836 300.1810640 +22.5005374     865.5181     72.40755      1.537     3.12     5.533265     20.38687     107.1271        14     1.072     0.882   4.68   0
       324    339.9552    193.4150 300.2179392 +22.5357734      338.168     72.27886      1.567     3.19       5.4064     20.38687     42.17474         5     0.750     0.602 -82.41   0
       325    759.6839    190.5648 300.3495693 +22.6606310     1720.272     72.22363      1.411     2.50     5.168543     20.38687     251.5327        17     1.093     0.859  70.49   0
       326    824.4873    190.1513 300.3699048 +22.6799062     607.6576     72.26046      1.435     3.38     5.155241     20.38687     73.75026         9     0.953     0.690  57.55   0
       327    243.1340    186.9903 300.1899054 +22.5049226     512.0702     72.24205      1.409     3.44     5.539489     20.38687     64.21979        10     0.936     0.760  57.35   0
       328    533.3051    183.2556 300.2814139 +22.5907605     260.7086     72.31565      1.104     2.00     5.447566     20.38687     56.83121         5     0.674     0.453  80.47   0
       329    763.9009    182.1019 300.3536278 +22.6594597     787.3488     72.48099      1.361     2.57     5.245503     20.38687     91.59402         9     0.784     0.722  23.76   0
       330    684.2020    181.2739 300.3290587 +22.6353668     1257.392     72.16837      1.309     2.47      5.48821     20.38687     191.2832        19     1.142     0.887  66.32   0
       331    505.8557    177.5428 300.2747194 +22.5808995     416.8607     72.33405      2.090     3.21     5.398348     20.38687     53.42607         7     0.967     0.708 -34.58   0
       332    879.7194    172.9104 300.3927172 +22.6914751     1424.957      72.3708      1.421     2.55     5.339235     20.38687     184.5295        19     1.063     0.998 -59.59   0
       333    610.3161    172.9039 300.3087542 +22.6108425      947.457     72.44428      1.363     2.65     5.535065     20.38687      121.212        15     1.143     0.800  51.15   0
       334    891.7156    171.9859 300.3967581 +22.6947985     795.2323     72.22363      1.337     2.91     5.359629     20.38687     103.5966        15     1.001     0.903  21.10   0
       335    450.8775    169.3124 300.2602725 +22.5620709     270.9234     72.40755      1.009     2.44     5.347745     20.38687     50.14479         5     0.740     0.423 -18.22   0
       336   1008.5096    162.2447 300.4363501 +22.7269369     1170.417     72.24205      1.592     3.20      5.40473     20.38687      124.984        19     1.136     0.972  85.92   0
       337     32.1840    159.3548 300.1332913 +22.4337746     357.1519     72.27886      1.292     2.80     6.100301     20.38687      65.9043         6     0.802     0.466  -9.49   0
       338    242.7262    155.3825 300.2000259 +22.4957222     694.0489     72.26046      1.325     2.44     5.523459     20.38687     96.84253        10     0.831     0.773 -47.99   0
       339    104.2978    149.8681 300.1587763 +22.4526623     2247.782     72.35242      1.588     3.03     5.512798     20.38687     280.2748        27     1.327     1.102  59.95   0
       340    927.5471    147.3569 300.4159189 +22.6984344     667.6804     72.29726      1.135     2.23     5.401225     20.38687      95.4823        10     0.853     0.679   0.03   0
       341     53.8361    146.5610 300.1441664 +22.4365906     522.3713     72.33405      1.711     5.21     5.910238     20.38687     54.80554        10     1.179     0.991 -24.20   0
       342    261.8456    143.3300 300.2098792 +22.4979879     5701.089     72.24205      1.457     2.63     5.521587     20.38687     707.0862        35     1.270     1.089  63.02   0
       343    243.7135    144.1932 300.2039601 +22.4928040     319.1728      72.1868      1.256     4.71     5.523128     20.38687     43.64105         8     1.054     0.695 -75.66   0
       344     45.9774    137.4635 300.1446734 +22.4316235      1370.51     72.24205      1.691     2.98     5.992897     20.38687     151.6395        22     1.154     1.131  71.77   0
       345    245.0556    134.4030 300.2075511 +22.4903940     707.2568     72.22363      1.495     2.73     5.522024     20.38687     76.83643         9     0.857     0.754  36.41   0
       346    905.9189    124.9264 300.4164446 +22.6855116     3557.581      72.3708      1.416     3.17     5.453552     20.38687     414.7365        29     1.217     1.076  70.73   0
       347   1009.5959    123.8203 300.4491462 +22.7162065     2619.268     72.22363      1.438     2.90      5.37724     20.38687     292.1225        29     1.201     1.124  85.98   0
       348    208.3098    120.9651 300.2004799 +22.4755261      352.828     72.22363      1.335     2.37     5.533134     20.38687     58.29281         5     0.769     0.457 -24.68   0
       349    455.2981    120.0718 300.2776111 +22.5492446     601.9609     72.38918      1.334     2.79      5.35833     20.38687     71.13908        12     0.929     0.809  35.59   0
       350    569.9252    118.3484 300.3138599 +22.5830686     196.9406     72.27886      1.122     3.40     5.426903     20.38687     34.36539         5     0.799     0.420 -19.38   0
       351    379.5467    112.2225 300.2565792 +22.5243048      721.636     72.27886      1.698     4.11     5.382775     20.38687       71.758        13     1.095     0.990   3.57   2
       352    383.6570    110.7230 300.2583443 +22.5251049     452.2635     72.29726      1.524     2.32     5.382783     20.38687     45.44327         5     0.694     0.470  12.44   3
       353    434.9395    108.2689 300.2750998 +22.5397565     462.0765     72.29726      1.424     3.36     5.370782     20.38687     53.00765         9     0.869     0.779 -88.04   0
       354    145.8808    108.7490 300.1850299 +22.4533140     639.0476     72.27886      1.549     3.85      5.51524     20.38687     78.85136        11     1.043     0.808  51.54   0
       355    506.6972    107.4273 300.2977110 +22.5610002     1800.777     72.20522      1.356     2.40     5.364694     20.38687     255.5052        18     1.055     0.901  58.81   0
       356     43.3557    107.8735 300.1534495 +22.4223418     200.5192     72.24205      1.565     5.20     6.047859     20.38687      33.3978         6     1.042     0.733 -72.22   0
       357    568.5773    106.2482 300.3173622 +22.5791868     499.6326     72.26046      1.639     3.80     5.411564     20.38687     54.99919         7     0.981     0.554 -21.46   0
       358    250.2447    103.0501 300.2193273 +22.4829422     452.0294     72.29726      1.571     3.40     5.510328     20.38687     64.81076         9     1.104     0.593  11.75   0
       359    795.2438     97.2038 300.3909205 +22.6444246     411.8268     72.27886      1.393     2.19     5.337379     20.38687     54.86573         6     0.718     0.536  42.92   0
       360    642.6758     93.6758 300.3445179 +22.5977525     317.2171     72.35242      1.174     3.53     5.398531     20.38687     45.92214         5     0.946     0.416  14.61   0
       361    379.9921     92.6248 300.2630696 +22.5188069     338.3372     72.26046      1.815     4.05     5.385493     20.38687     32.54456         5     0.930     0.692 -89.56   0
       362    152.0132     92.8743 300.1920813 +22.4505920     281.4593     72.27886      1.660     4.56     5.561145     20.38687     29.34037         6     1.047     0.564 -76.97   0
       363    691.8570     88.7180 300.3614481 +22.6110463     283.7466     72.31565      1.451     4.05     5.456865     20.38687     38.37082         6     0.953     0.548  63.66   0
       364    280.7698     87.0577 300.2340045 +22.4874912     6130.616     72.27886      1.510     2.96     5.539798     20.38687     713.7028        38     1.430     1.080  67.63   0
       365    787.3514     87.5521 300.3915885 +22.6392871     288.2687     72.29726      1.256     5.60       5.4134     20.38687     68.28659        10     1.344     0.682 -61.27   0
       366    131.9501     86.8341 300.1878020 +22.4428463     756.7676     72.27886      1.532     2.73     5.629551     20.38687     94.76601        11     0.920     0.815 -22.42   0
       367    910.2368     84.9699 300.4307428 +22.6753087     506.0698     72.27886      1.857     2.42     5.439988     20.38687     44.91055         7     0.691     0.672  53.70   0
       368    756.6265     78.7178 300.3848744 +22.6275528     319.1777     72.24205      1.526     3.88     5.558013     20.38687     35.64164         6     0.963     0.448   2.56   0
       369    296.0660     78.4461 300.2415534 +22.4895985     402.4401     72.26046      1.166     3.70     5.578238     20.38687     61.79556         7     0.888     0.575  33.46   0
       370     42.6655     77.6670 300.1630244 +22.4134615     510.6328     72.31565      1.871     4.47     6.114979     20.38687     52.65495         8     1.113     0.579 -15.99   0
       371    526.8661     72.5812 300.3152847 +22.5570222     6387.859     72.24205      1.380     2.55     5.316528     20.38687     930.7852        33     1.207     1.037  74.50   0
       372    412.3168     72.4563 300.2796656 +22.5226906     710.7937     72.35242      1.433     2.69     5.387027     20.38687     81.66847         9     0.849     0.704  31.89   0
       373    584.0086     67.3148 300.3347867 +22.5726134     344.5079     72.20522      1.196     2.50     5.242248     20.38687     57.83044         5     0.770     0.478 -58.74   0
       374    779.3112     62.9936 300.3970414 +22.6298180     927.3463     72.16837      1.843     6.01     5.531146     20.38687     100.9557        15     1.621     0.738 -69.50   0
       375    932.5571     64.1309 300.4444587 +22.6759897      3630.22     72.22363      1.046     3.71     5.202476     20.38687     1103.623         9     1.125     0.352  58.13   0
       376    720.5608     63.8213 300.3784617 +22.6124766      235.353     72.29726      1.272     4.33     5.545005     20.38687     37.97368         7     0.989     0.540  34.21   0
       377    871.8771     61.3568 300.4264325 +22.6570405     391.9958     72.24205      1.341     3.04     5.744061     20.38687     66.13613         8     0.931     0.618  -2.74   0
       378    180.7207     58.4183 300.2121722 +22.4492954     208.6996     72.26046      1.321     4.44     5.960435     20.38687      35.3131         5     0.936     0.599  49.82   0
       379    219.6967     56.7473 300.2248329 +22.4604905     449.3862     72.33405      1.452     2.98     5.980772     20.38687     57.09918         8     0.847     0.659 -10.97   0
       380    655.2970     52.7219 300.3617226 +22.5897541     6415.384     72.38918      1.370     2.51     5.210195     20.38687     853.6622        36     1.245     1.044  76.16   0
       381    578.4420     55.1906 300.3369820 +22.5674615      605.618     72.26046      1.714     2.82     5.187535     20.38687     60.36559         9     0.900     0.759  19.92   0
       382    430.1942     51.5832 300.2919939 +22.5220445     1413.786     72.20522      1.381     2.55     5.376828     20.38687     198.0201        19     1.047     1.012  75.45   0
       383    696.4351     50.0404 300.3754094 +22.6012940     881.2402     72.29726      1.394     3.45     5.376792     20.38687     104.7718        16     1.098     0.911  77.42   0
       384    765.8041     48.1949 300.3976269 +22.6215201     419.7768     72.09462      1.578     2.59      5.59634     20.38687      52.5812         6     0.835     0.615  11.09   0
       385    712.1551     45.9528 300.3816327 +22.6048225     556.7153     72.27886      1.402     3.93      5.46991     20.38687     70.81435        11     1.077     0.807  76.11   0
       386    179.0254     44.1842 300.2162575 +22.4446987     659.0908     72.27886      1.467     3.18     6.115226     20.38687     72.92098        11     1.060     0.714 -51.65   0
       387    982.2243     43.8918 300.4665120 +22.6850210     512.8071     72.20522      1.344     4.13     4.978822     20.38687     59.76688         9     0.973     0.735  45.47   0
       388    751.0225     41.7386 300.3951117 +22.6152404     513.9838     72.24205      1.410     2.75     5.620759     20.38687     78.36205        10     0.943     0.778 -22.03   0
       389    714.5781     36.5385 300.3854385 +22.6028401     874.5518     72.24205      1.803     6.25     5.477378     20.38687      75.4228        20     1.992     0.808  63.50   0
       390    699.4421     37.5757 300.3803856 +22.5986092      2788.47     72.31565      1.376     2.25      5.36813     20.38687     394.8804        28     1.200     1.012  85.48   0
       391    340.3097     38.2995 300.2683270 +22.4913129     437.2891     72.42592      1.448     3.86     5.502612     20.38687     41.59678        10     0.959     0.832  17.66   0
       392    961.5659     31.4826 300.4640881 +22.6752718     292.8232     72.22364      1.902     4.11      4.94037     20.38687     30.38886         5     1.095     0.583 -33.27   0
       393    785.9108     29.1691 300.4100597 +22.6220633     1523.418     72.22363      1.378     3.09     5.646204     20.38687     205.2197        19     1.174     0.871 -84.26   0
       394    946.4841     27.7601 300.4605895 +22.6696900     212.2393     72.22363      1.044     3.28     4.967814     20.38687     50.95667         5     0.988     0.329 -66.20   0
       395    723.8846     22.3984 300.3929206 +22.6015579     782.0371      72.1868      1.308     3.02     5.528457     20.38687     107.5413        12     1.056     0.755  45.14   0
       396    529.4821     21.8168 300.3325492 +22.5432118     1108.961     72.22363      1.370     2.42     5.182307     20.38687     147.8921        14     1.009     0.839  48.28   0
       397    102.7607     21.9628 300.1997497 +22.4154696     456.7547     72.33405      1.237     3.18     6.374657     20.38687     58.02146         7     1.036     0.453 -31.14   0
       398    433.3669     19.7738 300.3032884 +22.5138517     804.3591     72.27886      1.441     3.21     5.374441     20.38687      90.6046        15     1.045     0.912  50.60   0
       399    767.1949   1020.5951 300.0823002 +22.9013155     400.3937     70.03595      1.838     3.77      3.51762     20.38687     27.45837         5     1.053     0.388  85.26  16
       400    329.1773   1018.0299 299.9467559 +22.7691993     916.0002     72.26046      1.661     4.82     12.25018     20.38687     98.76689        17     1.431     0.891  56.94  18
       401    335.7358     10.5556 300.2758932 +22.4819705     320.8781     72.27886      0.991     2.18      5.60272     20.38687     52.56325         5     0.699     0.459 -21.08   0
       402    326.6868   1019.3963 299.9455366 +22.7688437     298.3586      72.1868      1.173     3.54     12.96989     20.38687     50.23211         5     1.053     0.343  42.05  19
       403    206.8441   1005.3871 299.9128270 +22.7288618     1184.569     72.26046      4.950     9.68     80.04667     20.38687     71.35341        23     3.214     0.813  89.76  19
       404    165.3315   1012.3149 299.8976686 +22.7183874     1406.326     72.35242      3.037    11.41     91.32737     20.38687     61.32378        35     2.587     1.403 -61.44  18
       405    216.0358   1008.3504 299.9147206 +22.7324700     851.0775     72.27886      4.907    14.95      81.2235     20.38687     46.94954        25     5.053     1.230 -36.18  19
