#   1 NUMBER                 Running object number                                     
#   2 X_IMAGE                Object position along x                                    [pixel]
#   3 Y_IMAGE                Object position along y                                    [pixel]
#   4 ALPHA_J2000            Right ascension of barycenter (J2000)                      [deg]
#   5 DELTA_J2000            Declination of barycenter (J2000)                          [deg]
#   6 FLUX_APER              Flux vector within fixed circular aperture(s)              [count]
#   7 FLUXERR_APER           RMS error vector for aperture flux(es)                     [count]
#   8 FLUX_RADIUS            Fraction-of-light radii                                    [pixel]
#   9 FWHM_IMAGE             FWHM assuming a gaussian core                              [pixel]
#  10 BACKGROUND             Background at centroid position                            [count]
#  11 THRESHOLD              Detection threshold above background                       [count]
#  12 FLUX_MAX               Peak flux above background                                 [count]
#  13 ISOAREA_IMAGE          Isophotal area above Analysis threshold                    [pixel**2]
#  14 A_IMAGE                Profile RMS along major axis                               [pixel]
#  15 B_IMAGE                Profile RMS along minor axis                               [pixel]
#  16 THETA_IMAGE            Position angle (CCW/x)                                     [deg]
#  17 FLAGS                  Extraction flags                                          
         1    532.7431     22.5105 300.3325996 +22.5431827     1118.884     72.39083      1.361     2.31     5.079804     20.41326     142.4319        15     0.991     0.824  29.10   0
         2    436.4558     20.1656 300.3033877 +22.5136831     964.5429     72.37241      1.516     2.94     4.716382     20.41326     131.5846        16     1.184     0.849  80.45   0
         3    207.9026     10.3652 300.2354706 +22.4424232     3791.605     72.35398      1.475     2.66     5.390507     20.41326     466.4586        29     1.261     1.070  59.88   0
         4    776.1312     10.9630 300.4121580 +22.6126976      724.982     72.33555      1.443     3.16     5.438106     20.41326     84.86375        14     1.082     0.871 -20.46   0
         5    630.4123      7.7556 300.3677957 +22.5681716     355.0969     72.35398      1.379     3.26     5.412564     20.41326     48.70007         5     1.089     0.283  35.14   0
         6    323.7910      2.7347 300.2739820 +22.4749370      1200.19     63.60556      1.419     2.35     4.946068     20.41326     181.8199        18     1.091     0.974 -17.21  24
         7    769.4423      2.9879 300.4126576 +22.6084014     922.1101     64.85122      1.404     2.73     5.492108     20.41326      130.064        14     1.024     0.781 -48.70  24
         8    256.4062      3.0258 300.2529301 +22.4548409     276.6278     64.99499      1.457     3.93     5.342057     20.41326       24.053         5     0.903     0.491  89.96  16
         9    391.4332   1004.6613 299.9696980 +22.7829453     579.0016     72.37241      1.906     6.80     3.868575     20.41326      39.4789        15     1.271     1.021  49.70   0
        10    284.9198   1020.1384 299.9315346 +22.7554223      2339.42     71.48255      4.291    14.94     36.12875     20.41326     70.87172        83     3.019     2.787 -35.43  25
        11    126.3858   1012.9149 299.8846072 +22.7057656     2917.684     72.29867     11.707    88.61     87.80351     20.41326     137.3745      1247    20.958    10.394  48.72  27
        12    198.5688   1004.7122 299.9097088 +22.7250816     569.1932     72.33555      2.054     5.83     79.80323     20.41326     39.50247         9     1.232     0.776  21.04   3
        13      5.2818   1013.0460 299.8469446 +22.6694431      3235.79     72.13249     13.851    56.25    -29.34008     20.41326     67.56564       624    13.064     6.721 -87.18  26
        14    111.4105    924.5504 299.9087002 +22.6759342     4368.132     72.37241     19.566    71.60     10.07199     20.41326     243.3166      1308    17.523     8.119 -23.50  19
        15    187.8527    958.7849 299.9213199 +22.7086950     889.4959     72.33555      8.054     9.55      41.3905     20.41326     34.78641        12     2.341     1.087 -79.42   2
        16    179.8513    962.1744 299.9177303 +22.7072655      1947.89     72.37241      6.534    11.18     43.95792     20.41326     48.98717        38     2.237     1.759 -69.18   3
        17     16.3712    979.3250 299.8613594 +22.6631071     1600.695     72.37241      8.178    22.47    -7.713315     20.41326     61.86021        64     5.650     2.481  -7.99  27
        18    216.6374   1011.4618 299.9131291 +22.7324404     673.6893     72.37241      2.221     8.94      84.5959     20.41326     52.07845        14     1.651     1.350 -48.40   3
        19    688.2905    960.5297 300.0764669 +22.8593191     6901.267     72.51965      1.850     4.13     3.180945     20.41326     446.6389        47     1.497     1.382  28.56   0
        20    279.5583    954.5121 299.9512190 +22.7349909     319.9539     72.35398      1.528     4.92     17.73066     20.41326     51.73315        12     1.191     1.087 -51.67   0
        21    534.6893    982.1046 300.0216170 +22.8194487     394.2676     72.53804      1.824     4.55     3.148654     20.41326     43.30561         5     1.356     0.434  82.77   0
        22    583.5169    998.0574 300.0316275 +22.8386718     2239.933     72.44607      1.790     4.22      3.34179     20.41326     172.9376        29     1.441     1.180  30.42   0
        23    840.2026    954.4475 300.1257821 +22.9031137     351.7458     72.35398      1.470     4.27     3.270786     20.41326      43.4858         6     0.740     0.703 -39.17   0
        24    596.8229    951.1710 300.0510252 +22.8292053     1374.196     72.35398      1.655     3.84     3.457938     20.41326     118.1432        22     1.219     1.138   3.96   0
        25    568.0109    954.9980 300.0408094 +22.8216632     440.1292     72.16945      1.817     5.01     3.325646     20.41326     45.10251        11     1.087     0.950  -0.85   0
        26     82.8302    950.9015 299.8912494 +22.6749108      1688.38     72.29868      0.410    -2.83     24.23569     20.41326     1140.126         5     0.679     0.161  22.32   0
        27    490.5624    947.7083 300.0190725 +22.7963424     1081.794     72.33555      1.751     4.41     3.516995     20.41326     88.02753        19     1.230     1.088  -0.01   0
        28    217.1702   1006.6752 299.9148521 +22.7312277     959.4717     72.37241      2.849     7.23     81.25823     20.41326     41.31387        13     1.300     1.128  78.45   3
        29    421.1667    945.6829 299.9981366 +22.7749449     6722.015     72.31712      1.829     4.00     3.635601     20.41326     545.0085        46     1.474     1.378  24.95   0
        30    670.1479    993.5192 300.0600822 +22.8633493     8844.623     72.37241      1.958     4.36     2.915724     20.41326     549.3113        49     1.572     1.421  34.27   3
        31    157.9003    932.6535 299.9205110 +22.6922116     1273.398     72.44607      7.676     8.07     19.35633     20.41326     43.53989        14     1.735     1.050  81.81   3
        32    453.9342    933.0589 300.0124391 +22.7811518     454.2805     72.39083      1.423     4.99     3.575368     20.41326     46.62396         9     1.055     0.668 -32.83   0
        33    675.5479    991.1455 300.0625365 +22.8642872     9439.767     72.39083      1.906     4.30     2.905488     20.41326     576.4237        46     1.508     1.391  25.94   3
        34    967.4720    924.6344 300.1751632 +22.9326914     2098.551     72.35398      2.023     4.74     3.544617     20.41326     112.1367        33     1.470     1.414   1.65   0
        35    769.9039    993.9818 300.0910097 +22.8933924     697.1442     72.26177      2.093     5.22     2.753086     20.41326     57.71987        18     1.315     1.106  12.78   0
        36    169.8027    927.0234 299.9260413 +22.6941692     1049.936     72.29868      4.811     4.78     16.04788     20.41326     31.75121         5     1.022     0.633 -54.62   0
        37    617.3530    921.5776 300.0670449 +22.8268668     432.3619     72.37241      1.765     6.19     3.480259     20.41326     31.02036         9     1.453     0.741 -63.86   0
        38    465.5813    920.0445 300.0202969 +22.7809107     316.7728     72.37241      1.574     4.85     3.552884     20.41326     29.99038         7     0.882     0.755   7.11   0
        39      2.6101    996.8299 299.8513909 +22.6639929     1838.685     63.12154      3.596    12.06    -25.34595     20.41326     58.68913        38     2.722     1.487 -81.91  27
        40    756.3857    913.6989 300.1129165 +22.8662877     868.4582     72.26177      2.301     8.01     3.599232     20.41326      48.0139        17     1.858     0.966  49.17   0
        41    962.8256    977.0396 300.1566643 +22.9463532     893.9688     72.39083      2.033     6.32     3.492093     20.41326     48.14406        23     1.374     1.307 -36.01   0
        42    791.0621    907.7388 300.1256610 +22.8749704     1008.883     72.39083      1.772     5.04     3.575557     20.41326     64.88573        19     1.255     1.114 -21.61   0
        43     51.1322    906.7751 299.8957547 +22.6527437     1590.092     72.33555      0.561     0.91     5.202668     20.41326     1013.966         5     0.452     0.337 -83.29   0
        44      1.5869    904.8716 299.8809852 +22.6373247     337.7429     57.78358      1.155     3.52     3.048437     20.41326     51.92447         9     1.014     0.638  86.80  24
        45    813.4865    901.3007 300.1347439 +22.8798427     11304.62     72.51965      1.776     3.88      3.57867     20.41326     753.0896        50     1.438     1.382  27.51   0
        46   1003.6389    900.8225 300.1941898 +22.9366865     359.6981     72.37241      1.796     4.31      3.53785     20.41326     34.36415         5     1.114     0.475 -86.09   0
        47    858.5754    900.9810 300.1489024 +22.8932642     331.6861     72.37241      1.471     4.96       3.5749     20.41326     38.18929        10     1.096     0.637 -25.59   0
        48    158.9950    977.8050 299.9061635 +22.7054876     842.0421      72.2064      4.991     5.53     57.47213     20.41326      35.6166         5     1.208     0.713 -21.20   1
        49    255.8941    991.2124 299.9319215 +22.7384155     6155.812     72.28023     11.918    51.27     46.78706     20.41326     116.0885       667    11.189     6.572 -79.21  19
        50    200.7738    974.6479 299.9201755 +22.7171222     1074.772     72.37241      5.236    10.73      54.6893     20.41326     48.68862        22     2.380     1.348 -83.39   3
        51    124.6769    893.1559 299.9230329 +22.6709132     1185.177     72.33555      5.213     5.71      8.73361     20.41326     83.41584        17     1.722     0.962 -31.06   0
        52    518.5735    889.4653 300.0467358 +22.7880278      380.819     72.33555      1.575     3.58     3.444426     20.41326     54.64047         9     1.032     0.776  16.05   0
        53    865.4835    889.1920 300.1548904 +22.8919483     340.7454     72.28023      1.574     6.08     3.599961     20.41326      32.5724         7     1.404     0.740 -17.86   0
        54    204.4806    984.2234 299.9182125 +22.7209807     1842.075     72.31712      5.576    14.33     62.18828     20.41326     58.00473        44     2.978     1.917  72.53   3
        55    116.4443    954.7822 299.9004307 +22.6861138     5392.299     72.37241     22.125    85.25     34.83285     20.41326     113.5571      2710    19.083    13.637   3.16  19
        56   1005.1544    883.1768 300.2004021 +22.9320704     427.7669     72.39083      1.589     4.39     3.533842     20.41326      50.7672         9     1.108     0.811  36.16   0
        57    822.1679    883.3595 300.1432853 +22.8772917     1472.304     72.40925      1.714     3.97     3.618528     20.41326     107.8752        21     1.233     1.099  22.98   0
        58    674.2461    880.5064 300.0981227 +22.8321331     585.6708     72.37241      2.133     5.02     3.618566     20.41326     42.19838         9     0.953     0.748 -21.52   0
        59    859.9947    876.7686 300.1572200 +22.8867349      913.093     72.33555      2.228     4.82     3.626276     20.41326     62.35497        15     1.265     0.937  63.56   0
        60    199.7547    876.6564 299.9517316 +22.6887120     463.2058     72.39083      1.771     3.95      9.26383     20.41326     33.72563         6     1.090     0.410 -13.72   0
        61    908.3937    868.1525 300.1751117 +22.8987629     761.0049     72.35398      2.130     8.58     3.619385     20.41326     49.42331        14     1.561     1.319  77.12   0
        62    759.9398    867.1053 300.1291785 +22.8539725     780.4929     72.44607      1.544     4.30     3.738297     20.41326     68.38119        18     1.317     0.924  32.74   0
        63    771.2886    864.1705 300.1336694 +22.8565312     587.9193     72.33555      1.641     5.19     3.728181     20.41326      50.5305        13     1.088     0.987 -13.13   0
        64    472.4034    863.2654 300.0408864 +22.7666616     4269.667     72.37241      1.664     3.27     3.459865     20.41326     411.1595        34     1.306     1.220  27.93   0
        65    251.3586    852.1213 299.9757521 +22.6971577     374.4743     72.33555      1.551     4.85     5.568186     20.41326     47.87486         8     1.041     0.639  79.38   0
        66    516.0140    851.7331 300.0582100 +22.7764297     383.2273     72.33555      2.051     4.96       3.4485     20.41326     27.88283         7     1.104     0.631  20.10   0
        67    134.5789    850.9710 299.9398277 +22.6617865     203.2989     72.35398      1.460     4.13     6.168792     20.41326      31.4546         5     1.014     0.564  16.07   0
        68    197.6604    848.8472 299.9601235 +22.6801067     709.5955     72.39083      1.739     5.39     6.783521     20.41326     63.58448        15     1.428     0.934  25.48   0
        69    174.8465    846.0461 299.9539432 +22.6724576     1374.622     72.39083      1.580     3.70     6.872986     20.41326      173.565        24     1.233     1.193  57.84   0
        70     50.0529    835.7809 299.9185051 +22.6320625     492.2052     72.33555      1.763     5.00      4.23646     20.41326     39.96008         8     1.148     0.617 -44.88   0
        71   1000.8772    833.6833 300.2151643 +22.9165671     2218.058     72.46447      1.858     4.26      3.71601     20.41326     131.0754        31     1.387     1.291  52.10   0
        72    706.1049    833.8231 300.1232285 +22.8282780     501.2483     72.24332      1.880     6.20     3.903364     20.41326     50.33697         9     1.359     0.796 -39.23   0
        73    784.4316    827.8694 300.1495699 +22.8500439     576.8903     72.33555      1.452     3.96     3.922712     20.41326      59.5704        10     1.039     0.727   1.88   0
        74    206.8269    827.8959 299.9697850 +22.6768469     417.3286     72.29868      1.613     5.67     5.531807     20.41326     40.24677        11     1.205     0.751 -10.53   0
        75    652.4899    821.5170 300.1105291 +22.8086726     4784.073     72.46448      1.556     3.12     3.877797     20.41326     486.5363        31     1.182     1.158  31.99   0
        76    142.0608    822.2252 299.9514990 +22.6557868     383.0808     72.35398      1.784     7.45     5.103902     20.41326      32.9413         8     1.436     1.082 -24.92   0
        77    454.7318    818.5913 300.0499134 +22.7485394     701.1872     72.33555      1.599     3.67      3.47875     20.41326     74.70553        11     1.010     0.852 -72.78   0
        78    202.7017    815.1843 299.9726355 +22.6719626     1287.022     72.26177      1.607     3.50     4.838329     20.41326     124.4726        23     1.246     1.118   3.64   0
        79    673.0419    813.8423 300.1194259 +22.8126294     567.1332     72.46447      1.468     4.30     4.024301     20.41326     65.30919        15     1.323     0.773  42.34   0
        80    470.9209    813.2214 300.0566974 +22.7518528     351.6315     72.35398      1.344     4.34     3.460975     20.41326     42.95987         5     0.782     0.686 -10.60   0
        81    222.4620    812.4479 299.9796678 +22.6771062     487.4034     72.39083      1.531     5.11     4.617816     20.41326     45.30093         9     0.876     0.842  74.44   0
        82    828.5356    801.2790 300.1719617 +22.8556223      4245.84     72.44607      1.653     3.46     4.035511     20.41326     355.0571        31     1.265     1.190   6.62   0
        83    236.8457    795.2562 299.9897284 +22.6764891     443.4991     72.39083      1.777     4.97     4.039775     20.41326      38.6845         7     1.018     0.687  13.21   0
        84    545.5930    793.6215 300.0863123 +22.7686161     764.9487     72.33555      1.801     4.48     3.518072     20.41326      70.8129        15     1.159     1.000  -4.79   0
        85    191.7865    791.5609 299.9769225 +22.6619106     1153.187     72.37241      1.748     3.91     4.057716     20.41326     111.0775        20     1.256     1.117  86.57   0
        86    341.5280    783.7586 300.0260186 +22.7045911     53875.43     72.33555      1.614     3.17     3.891713     20.41326     6032.898        92     1.433     1.343  36.03   0
        87    607.0080    787.1431 300.1075405 +22.7851679     497.8308     72.33555      1.466     3.94     3.858719     20.41326     61.89353         8     0.858     0.653  27.47   0
        88    599.4509    782.8878 300.1065707 +22.7816805     1505.208     72.37241      1.397     3.28     3.838547     20.41326     182.3426        18     1.036     0.999  40.05   0
        89   1012.4713    782.1978 300.2355216 +22.9052439     803.7791     72.29868      1.754     5.86     3.928447     20.41326     67.16911        17     1.279     1.015  12.28   0
        90    270.2102    782.2068 300.0043440 +22.6827538     472.3531     72.22486      1.563     4.31     4.000457     20.41326     52.41892         8     0.888     0.844 -60.39   0
        91    628.4592    778.8660 300.1169116 +22.7892214     965.1903     72.39083      1.596     3.65     3.970228     20.41326     99.20974        19     1.219     0.990  66.52   0
        92     28.5581    778.3271 299.9305060 +22.6091347     829.0335     72.33555      1.778     4.44     4.196721     20.41326     72.80493        12     1.159     0.785  74.30   2
        93    639.3041    777.3356 300.1207866 +22.7920327     647.8782     72.46448      1.645     4.25     4.011329     20.41326     50.89948        14     1.217     0.883   6.34   0
        94    960.1127    774.6852 300.2216325 +22.8874015     381.4069     72.48287      1.437     5.72     3.810291     20.41326     39.11566         9     1.048     0.881 -20.59   0
        95    744.7049    773.8698 300.1547474 +22.8226275      421.489     72.46447      1.365     3.15     4.183271     20.41326     54.81857         9     0.915     0.652 -17.76   0
        96    538.9133    770.4335 300.0917711 +22.7599558     312.7003     72.31712      1.591     4.66     3.632844     20.41326      33.3931         5     0.995     0.618 -77.51   0
        97    782.3058    763.9316 300.1696951 +22.8310404     608.3712     72.50127      1.426     3.44     4.203512     20.41326     78.69382        12     1.053     0.808  29.99   0
        98    391.2657    760.9904 300.0488917 +22.7129732     31457.66     72.31712      1.518     3.00     3.767523     20.41326     3728.106        66     1.322     1.285  35.48   0
        99    405.5847    761.4839 300.0531862 +22.7174090       2040.3     72.31712      1.531     2.98     3.726162     20.41326     229.7788        23     1.211     1.023  62.07   0
       100    914.4679    756.9906 300.2131504 +22.8686433     2811.425     72.35398      1.658     3.57     3.866014     20.41326      235.231        32     1.308     1.224   8.20   0
       101    402.3317    755.3716 300.0541609 +22.7146790     710.8747     72.35398      1.762     3.85     3.757274     20.41326      71.3061        11     1.003     0.881 -63.58   0
       102    672.2506    753.0661 300.1389378 +22.7949377     896.3251     72.37241      1.448     3.31     4.115981     20.41326     89.48077        14     1.015     0.913   1.85   0
       103    509.3165    752.7365 300.0883106 +22.7460014     463.5599     72.44607      1.441     3.67     3.716077     20.41326     60.29132         9     0.880     0.800 -42.90   0
       104    273.8194    752.6628 300.0150697 +22.6753587       959.48     72.33555      1.587     3.64     3.988076     20.41326     93.31495        16     1.130     0.942  11.60   0
       105     78.4083    748.6295 299.9556443 +22.6155763      543.192     72.35398      1.619     5.19     4.147332     20.41326     67.51532        11     1.470     0.848 -33.27   0
       106    519.3075    747.8599 300.0930056 +22.7475966     937.2733     72.42766      1.570     3.71     3.743286     20.41326     105.8511        14     1.157     0.785  18.61   0
       107    920.2424    744.7669 300.2189246 +22.8668604     556.5119     72.40925      1.558     5.79     3.883766     20.41326     53.70629        12     1.318     0.814 -23.82   0
       108    421.2333    744.3400 300.0636275 +22.7171803     387.5143     72.39083      1.580     5.30     3.769664     20.41326      40.6304         8     1.001     0.794  63.88   0
       109    377.4304    743.3131 300.0503334 +22.7037503     459.3411     72.33555      1.707     5.16     3.835634     20.41326     44.90317         8     1.211     0.620  61.72   0
       110    465.1429    742.5202 300.0778828 +22.7298241     438.6676     72.39083      1.671     3.75     3.769522     20.41326     48.93644         8     0.827     0.691  86.31   0
       111    107.1377    742.5367 299.9665507 +22.6224490     600.4733     72.39083      1.751     4.70     4.111947     20.41326     60.55368         8     0.996     0.769  -9.32   0
       112    673.9539    742.0681 300.1430433 +22.7922893     292.9042     72.33555      1.241     4.01     4.120745     20.41326     39.12561         7     0.944     0.487 -46.54   0
       113    898.1301    739.2681 300.2138171 +22.8586563     479.5287     72.40925      1.455     4.45      3.97913     20.41326     44.78999         9     1.034     0.605  27.66   0
       114    446.0779    738.9380 300.0731141 +22.7230792     1153.175     72.42766      0.481     2.07     3.791001     20.41326     842.3425         5     0.411     0.322   4.26   0
       115    271.4991    737.0879 300.0194103 +22.6701932     658.3539     72.51965      1.681     5.13     3.983024     20.41326     47.24899        11     1.136     0.753   9.52   0
       116    594.5948    727.7410 300.1229844 +22.7643886     447.3684     72.31712      1.505     4.49     4.084833     20.41326     50.56011        10     0.993     0.823  -3.06   0
       117    564.1222    725.8684 300.1141049 +22.7547166     557.6937     72.46447      1.448     3.99     3.945624     20.41326     82.11839        13     1.043     0.978 -89.80   0
       118    586.2051    723.4517 300.1217661 +22.7606420     1309.302     72.33555      1.375     2.61     4.063252     20.41326     157.3457        21     1.134     1.003 -69.86   0
       119    473.3692    724.9563 300.0861515 +22.7272479     401.2991     72.39083      1.480     3.47     3.913936     20.41326     45.23585         7     0.935     0.692  -5.50   0
       120    980.8309    722.3526 300.2451061 +22.8785666     4557.741     72.39083      1.673     3.52     4.010635     20.41326     361.0317        32     1.293     1.223  34.89   0
       121    667.4158    718.4234 300.1486918 +22.7835384     352.6068     72.35398      1.137     2.95     4.252264     20.41326      48.2154         6     0.790     0.541 -43.12   0
       122    969.3768    713.8443 300.2442990 +22.8726905     1625.309     72.40925      1.582     3.28     4.081962     20.41326     158.0471        22     1.155     1.071 -28.67   0
       123    332.2987    707.5262 300.0479256 +22.6799437     933.6328     72.50127      1.473     2.76     4.260892     20.41326     125.6782        15     1.002     0.889  82.77   0
       124    795.5781    705.0587 300.1929675 +22.8181031     2634.337     72.35398      1.537     2.77     4.369302     20.41326     281.7034        24     1.118     1.056   2.28   0
       125   1000.4135    703.9532 300.2571947 +22.8791427     1608.726     72.35398      1.676     3.67      4.16232     20.41326     122.1213        22     1.231     1.081 -23.45   0
       126     18.2732    695.3008 299.9542945 +22.5822348     780.8475     72.50127      1.515     3.65     4.501438     20.41326     90.94064        16     1.242     1.005 -42.30   0
       127   1013.8811    694.6719 300.2644124 +22.8805079      393.251     72.48287      2.080     4.34     4.235021     20.41326     28.96968         5     1.175     0.457  56.65   0
       128    877.9963    690.9761 300.2232355 +22.8387472     673.3344     72.31712      1.849     4.87     4.344648     20.41326     53.23549        13     1.209     0.999  74.55   0
       129    181.1150    691.5007 300.0061262 +22.6300001     543.0845     72.51965      1.530     3.45      4.14071     20.41326     66.55618        12     1.093     0.744 -83.87   0
       130    914.0786    681.9518 300.2374186 +22.8469615     149134.6     72.35398      1.535     3.09     4.384809     20.41326     13343.75       152     1.446     1.424  51.50   0
       131    676.5740    686.0091 300.1620789 +22.7769721     296.7586     72.35398      1.340     4.53     4.499097     20.41326     37.77969         8     0.849     0.687   3.25   0
       132    766.5747    682.2291 300.1913481 +22.8028540     732.5953     72.35398      1.423     3.20     4.499074     20.41326     90.43648        11     0.999     0.871  19.98   0
       133    946.8631    674.9960 300.2499028 +22.8547814     377.9087     72.33555      1.582     3.70     4.433112     20.41326     50.52071         7     0.938     0.760  57.56   0
       134    600.2675    670.7560 300.1432699 +22.7497226     1529.842     72.33555      1.376     2.62      4.35397     20.41326     196.7302        19     1.070     0.948  30.60   0
       135    781.5446    668.0630 300.2006166 +22.8032687     9293.417     72.40925      1.412     2.86     4.513203     20.41326     1040.667        35     1.172     1.095  51.99   0
       136    263.5934    669.2271 300.0390045 +22.6483464      159.084     72.35398      1.468     3.35      4.43981     20.41326     30.22896         5     0.722     0.470 -75.03   0
       137    283.0306    663.0872 300.0470435 +22.6524134     4877.176     72.33555      1.455     3.00     4.592408     20.41326     549.4084        34     1.232     1.163  25.41   0
       138    365.0653    661.1855 300.0731759 +22.6764669     1027.498     72.33555      1.306     2.64     4.671864     20.41326     131.0753        15     0.981     0.869 -25.11   0
       139    241.2072    658.7343 300.0354534 +22.6386211     395.5859     72.37241      1.227     2.93     4.254285     20.41326     74.40181         6     0.868     0.541  69.60   0
       140    573.4655    656.6998 300.1394916 +22.7376526     673.6299     72.44607      1.324     2.74     4.370252     20.41326     96.83874        14     0.990     0.863  11.80   0
       141    564.9836    648.8083 300.1394148 +22.7328439      3235.63     72.28023      1.408     2.80      4.40125     20.41326     390.8118        26     1.146     0.997  41.15   0
       142    555.1877    642.7296 300.1383399 +22.7281620     1447.209     72.37241      1.401     2.57     4.399294     20.41326     185.4051        17     1.031     0.919  -6.83   0
       143    948.9185    640.4775 300.2617604 +22.8454747     490.1718     72.46447      1.547     3.13     4.481616     20.41326     52.69917         6     0.722     0.638  53.41   0
       144    466.2314    639.6921 300.1116367 +22.7006258     249.8398     72.29868      1.260     3.48     4.522881     20.41326     44.36093         7     0.861     0.609  24.57   0
       145    218.7948    638.5797 300.0350335 +22.6261148     607.5896     72.33555      1.289     2.78     4.245822     20.41326      89.6044        12     1.026     0.734 -57.75   0
       146    232.9827    637.1202 300.0399185 +22.6299510     632.3021     72.35398      1.407     3.14     4.278602     20.41326     90.21683        10     0.942     0.785 -38.30   0
       147   1002.3125    634.0411 300.2805058 +22.8596134      631.748     72.33555      1.562     3.78     4.418479     20.41326     58.66029         8     1.060     0.612 -16.26   0
       148    763.5019    633.9751 300.2060699 +22.7880683     211.4609     72.29868      1.297     4.52     4.626412     20.41326     38.08875         5     1.012     0.573 -13.59   0
       149    289.8451    633.9005 300.0586451 +22.6460791     292.0244     72.37241      1.456     3.45     4.508109     20.41326     48.27494         6     1.057     0.535 -24.04   0
       150    258.7762    634.0864 300.0489238 +22.6368156     592.0215     72.31712      1.478     2.69     4.390274     20.41326     82.56714        10     0.949     0.716 -12.65   0
       151    579.0550    632.8798 300.1489712 +22.7324861     462.0379     72.39083      1.338     2.56      4.61907     20.41326     61.96412         8     0.808     0.692   1.46   0
       152    480.0117    632.2914 300.1183299 +22.7026313     1833.181     72.29868      1.344     2.66     4.521809     20.41326       201.88        20     1.062     0.939  36.30   0
       153    514.0002    631.7101 300.1290980 +22.7126522     350.9392     72.24332      1.448     3.38      4.47362     20.41326     38.46479         7     0.728     0.682  -4.67   0
       154    134.0002    627.1646 300.0123859 +22.5974060     20013.69     72.31712      1.584     3.12     4.502038     20.41326     2020.611        67     1.422     1.360  35.09   0
       155     54.7430    629.0266 299.9871551 +22.5741646     615.5001     72.35398      1.634     4.87     4.893817     20.41326      84.0176        10     1.060     0.635 -22.88   0
       156    564.8558    627.7371 300.1462209 +22.7267535     1090.805     72.40925      1.437     2.58     4.580758     20.41326     130.4848        12     0.918     0.848  82.98   0
       157    600.1255    626.8166 300.1575021 +22.7370590     254.9402     72.35398      1.098     3.94     4.801703     20.41326     47.82383         6     0.921     0.483 -35.95   0
       158    143.2741    620.5601 300.0174134 +22.5982924     1610.105     72.33555      0.740     0.85     4.484937     20.41326       635.78         5     0.501     0.476  64.07   0
       159    318.0632    619.5162 300.0720938 +22.6504112     245.0443     72.44607      1.116     3.78     4.538547     20.41326     34.00969         6     0.821     0.500   1.29   0
       160    983.0920    614.0609 300.2810019 +22.8481138     972.0777     72.42766      1.444     3.37     4.447522     20.41326     103.8624        16     1.110     0.903 -41.76   0
       161    648.0567    615.2863 300.1761754 +22.7481098     264.0688     72.44607      1.226     3.74     4.914984     20.41326     36.08039         7     0.743     0.672 -18.70   0
       162     80.1369    611.3256 300.0007942 +22.5767038      1499.95     72.39083      1.984     4.79     4.788364     20.41326     119.7675        29     1.656     1.198  83.77   0
       163    849.5577    611.8259 300.2400879 +22.8074810     520.7027     72.39083      1.509     4.96     4.574364     20.41326      47.2113         9     1.264     0.561  52.73   0
       164    146.6119    612.1174 300.0211933 +22.5968707     402.9589     72.31712      1.344     2.84     4.496924     20.41326     55.31079         6     0.727     0.614  38.03   0
       165    528.2287    608.3834 300.1411053 +22.7102172     475.2404     72.35398      1.418     3.62     4.616937     20.41326     66.53942         8     1.031     0.563 -51.82   0
       166    923.4341    606.6362 300.2648078 +22.8281147     928.7123     72.42766      2.065     3.25     4.564891     20.41326     79.78017        13     1.098     0.761 -27.05   2
       167    321.2471    607.3757 300.0770278 +22.6478805     312.1761     72.37241      1.228     3.60      4.52525     20.41326     46.02655         6     0.881     0.486 -46.51   0
       168    667.6070    605.1409 300.1855607 +22.7510529     302.7968     72.33555      1.447     2.86     4.921884     20.41326     34.31316         5     0.724     0.455 -71.56   0
       169    485.0857    600.5344 300.1302257 +22.6950320     805.3723     72.44607      1.372     2.46     4.670465     20.41326     99.17683        12     0.887     0.774  80.07   0
       170    632.9177    599.2109 300.1766825 +22.7389552     432.6174     72.31712      1.234     4.16     5.040703     20.41326     51.42853         8     0.854     0.641  41.62   0
       171    680.4937    597.8126 300.1919556 +22.7528085     463.4864     72.28023      1.389     3.66     4.902884     20.41326      53.7903        10     0.950     0.738   4.46   0
       172    650.8564    597.2768 300.1828979 +22.7437746     452.5243     72.39083      1.179     2.54      4.99513     20.41326     71.57754         7     0.825     0.550  36.90   0
       173    529.2410    596.3290 300.1453362 +22.7070583     930.9366     72.31712      1.341     2.79     4.760605     20.41326     112.4554        17     1.087     0.885  44.97   0
       174    716.1379    596.1139 300.2036118 +22.7629994     219.3297     72.46447      1.285     3.35     4.794217     20.41326     44.66505         5     0.969     0.351  34.27   0
       175    963.1075    591.9780 300.2819426 +22.8357809     3420.989     72.28023      1.485     2.99     4.643314     20.41326     345.6144        30     1.189     1.143 -40.84   0
       176    494.8198    591.8320 300.1360823 +22.6954503     1730.772     72.35398      1.357     2.54      4.75869     20.41326     251.8453        18     0.988     0.925   0.70   0
       177     56.7697    585.4937 300.0019251 +22.5622820     5159.351     72.28023      1.697     3.35     4.999592     20.41326     506.3763        44     1.531     1.361 -77.48   0
       178    859.5396    589.5451 300.2504379 +22.8040665     348.2477     72.40925      1.542     4.11     4.657191     20.41326     43.81842         5     1.097     0.439 -56.16   0
       179    524.2087    582.7746 300.1481725 +22.7016569     334.2372     72.35398      0.995     2.61     4.904958     20.41326     48.45423         7     0.839     0.551  32.43   0
       180   1002.3752    581.6344 300.2975512 +22.8445644     358.1928     72.37241      1.642     5.32     4.683758     20.41326     33.90218         9     1.055     0.757  48.54   0
       181    358.2757    578.5807 300.0978987 +22.6507148     9157.105     72.35398      1.376     2.55     4.803982     20.41326     1198.617        34     1.169     1.068  54.21   0
       182    480.6880    575.5801 300.1369627 +22.6865470     8847.295     72.29868      1.352     2.41     4.863498     20.41326     1308.877        38     1.165     1.066  61.26   0
       183    727.0357    572.1383 300.2147953 +22.7593746     291.0607     72.37241      1.108     2.07     4.836408     20.41326     56.06417         5     0.739     0.473 -58.93   0
       184    892.4437    569.5939 300.2671774 +22.8081855     1963.968     72.37241      1.486     2.82     4.817239     20.41326      230.703        23     1.150     1.101 -66.98   0
       185    124.5971    571.2980 300.0276102 +22.5785532     257.5347     72.26177      1.242     4.46     4.581064     20.41326     31.90829         7     0.971     0.582 -33.69   0
       186    977.0646    567.0929 300.2943795 +22.8328051     12659.82     72.46447      1.500     2.95     4.860504     20.41326      1213.42        46     1.278     1.247  64.11   0
       187    541.2834    565.2034 300.1591953 +22.7017267     11577.56     72.28023      1.305     2.47     5.176997     20.41326     1319.432        40     1.163     1.073  57.66   0
       188    268.6334    560.7397 300.0758134 +22.6187164     1490.911     72.39083      1.505     2.73     4.406193     20.41326     201.8156        18     1.080     0.954  23.47   0
       189    710.9908    561.1203 300.2133749 +22.7514018     519.1783     72.29867      1.233     3.08     4.912707     20.41326     82.83754         9     0.882     0.784  33.52   0
       190    515.8017    558.2374 300.1535252 +22.6920893     447.5293     72.37241      1.429     4.48     5.158187     20.41326     47.06105         8     0.835     0.685  39.32   0
       191    472.8565    553.3278 300.1417526 +22.6778085     4489.315     72.37241      1.338     2.55     5.028292     20.41326     587.5891        31     1.318     1.029  19.05   0
       192    815.6752    553.5833 300.2484453 +22.7805924     751.6431     72.35398      1.286     2.89     4.724734     20.41326     104.4672        12     0.937     0.813  79.50   0
       193    451.2018    551.8074 300.1355071 +22.6708816      1228.07     72.16945      1.327     2.38     4.992935     20.41326     177.2491        18     1.051     0.900   6.78   0
       194    205.5793    550.8638 300.0594166 +22.5969745     741.7208     72.31712      1.486     2.86     4.460966     20.41326     95.67089        13     1.004     0.830 -34.60   0
       195    892.6830    548.9383 300.2739611 +22.8023191     1709.502     72.44607      1.489     3.17     4.964981     20.41326     164.8666        21     1.153     0.983 -23.07   0
       196    139.2163    548.8150 300.0394549 +22.5764851     292.7723     72.31712      1.281     5.03      4.54128     20.41326     40.04867         8     0.983     0.728 -52.99   0
       197    589.6011    540.9484 300.1821169 +22.7092373     201234.8     72.31712      1.335     2.37     5.456448     20.41326     29487.01       176     1.375     1.319  -9.91   0
       198    773.1454    545.9301 300.2376757 +22.7656545     855.3522     72.39083      1.313     2.69     4.777091     20.41326      122.713        14     1.020     0.797  42.16   0
       199    412.9640    546.9159 300.1251970 +22.6580157     295.1309     72.33555      1.437     5.23     4.955824     20.41326     31.84888         9     0.977     0.790 -76.85   0
       200    866.5405    544.3088 300.2673139 +22.7931597     186.2405     72.42766      1.143     3.29      4.90528     20.41326     38.30596         6     0.877     0.461   2.03   0
       201    275.6886    540.8633 300.0844622 +22.6151253     3531.014     72.48287      1.446     2.63     4.404571     20.41326      479.374        30     1.259     1.039  48.55   0
       202    841.7438    537.2803 300.2618662 +22.7837133     669.9291     72.39083      1.333     2.89     4.791533     20.41326     65.32591         9     0.857     0.697 -79.59   0
       203    621.2423    527.5449 300.1963232 +22.7148665     226.2765     72.35398      1.349     3.52     5.366762     20.41326     44.10593         7     0.936     0.528 -60.17   0
       204    480.3162    521.1412 300.1545270 +22.6707991     2841.949     72.46447      1.332     2.41     5.162374     20.41326     329.8568        27     1.122     1.050 -80.66   2
       205    324.4330    523.7005 300.1051950 +22.6248109     314.7437     72.33555      1.233     3.44     4.712317     20.41326     60.92361        10     0.939     0.738  35.11   0
       206    930.2095    521.4547 300.2945889 +22.8056539     191.0679     72.35398      1.354     4.50     5.049366     20.41326     26.88192         5     0.818     0.702 -48.22   0
       207    891.6782    517.7690 300.2837707 +22.7930572     352.8015     72.33555      1.293     3.75     4.828497     20.41326     51.26122         7     1.022     0.582  14.43   0
       208    710.8144    517.1996 300.2275841 +22.7387270     237.4825      72.2064      1.287     3.00     4.933307     20.41326     43.50318         5     0.735     0.667  57.34   0
       209    797.2394    510.1672 300.2567991 +22.7625913      361.551     72.39083      1.254     3.30      4.79885     20.41326     57.59272         8     0.912     0.652 -26.59   0
       210    877.2925    507.4689 300.2826302 +22.7857882     1740.384     72.48287      1.383     2.42     4.658842     20.41326     248.9944        21     1.142     0.961  -1.35   0
       211      7.4778    506.0871 300.0123998 +22.5247105     889.2175     72.50127      1.602     3.41     4.711068     20.41326     103.7587        14     1.091     0.861  68.27  16
       212    748.3977    505.1247 300.2432155 +22.7465138     2606.053     72.26177      1.309     2.46     4.875237     20.41326     320.5287        22     1.077     0.942  67.89   0
       213    991.4827    498.4122 300.3211826 +22.8173722     915.5235     72.31712      2.396     2.99     4.988791     20.41326     69.13324        13     0.960     0.859  39.27   2
       214    957.8712    502.4020 300.3094031 +22.8084573     254.2898     72.29868      1.140     2.61     5.002091     20.41326     41.31304         5     0.723     0.445 -21.16   0
       215    652.9572    501.7501 300.2145774 +22.7169557     402.3953     72.39083      1.281     2.60     5.110253     20.41326     60.96447         9     0.847     0.705 -62.53   0
       216    535.5979    501.2874 300.1781821 +22.6816615      668.796     72.28023      1.231     2.62     5.400162     20.41326     108.2311        11     0.874     0.813 -58.51   0
       217   1005.7257    499.2433 300.3253558 +22.8218749     1304.217     72.33555      1.505     3.32     4.987552     20.41326     132.6421        19     1.181     0.979  73.19   0
       218    877.4011    497.5549 300.2858834 +22.7829704     2349.989     72.35398      1.751     3.76     4.591261     20.41326     235.7421        29     1.608     1.061  80.48   0
       219    630.7947    495.6481 300.2096560 +22.7085629     794.5049     72.33555      1.855     3.04     5.264329     20.41326     93.65443        11     0.963     0.927 -66.46   2
       220    469.3007    494.6897 300.1596878 +22.6598997     431.5062     72.51965      1.360     3.76     5.200824     20.41326     48.90072         7     0.979     0.542  23.59   0
       221    417.1577    495.5945 300.1431674 +22.6445329     278.7931     72.37241      1.177     2.88     5.081724     20.41326     58.05709         7     0.925     0.478   8.17   0
       222    915.6885    492.6597 300.2994113 +22.7930267      4237.69     72.42766      1.390     2.44     4.879986     20.41326     551.5457        27     1.103     1.071  76.18   0
       223    556.5234    492.3070 300.1876129 +22.6853513     308.8403     72.50127      1.263     3.10     5.424978     20.41326     47.22754         5     0.734     0.429  64.57   0
       224    652.8660    489.2200 300.2186176 +22.7133276     264.7991     72.33555      1.409     4.16     5.090446     20.41326     30.85524         6     1.155     0.428  30.24   0
       225    576.3303    488.6004 300.1949835 +22.6902207      371.808     72.28023      1.222     3.20     5.423052     20.41326     53.02268         8     0.935     0.590  70.67   0
       226   1007.5029    483.2299 300.3311100 +22.8178015     697.0192     72.29868      1.345     3.26     4.965318     20.41326     89.76668        12     1.061     0.723  10.02   0
       227    147.8147    482.8764 300.0635376 +22.5601367     925.4255     72.37241      1.395     2.75     4.530395     20.41326     127.3167        14     0.977     0.888 -16.26   0
       228    413.9830    476.0933 300.1485112 +22.6379801     349.0733     72.28023      1.428     4.82     5.110745     20.41326     44.60234         7     1.028     0.640  22.94   0
       229    139.9799    473.1797 300.0642508 +22.5550038     406.1556     72.35398      1.425     3.94     4.561444     20.41326     57.67947         8     1.068     0.841 -29.52   0
       230   1003.9211    472.3784 300.3335162 +22.8136084     277.0239     72.35398      1.268     2.49     4.968652     20.41326     50.21241         7     0.800     0.584  30.65   0
       231    748.1314    467.1636 300.2554584 +22.7355226     416.3938     72.33555      1.168     2.92     4.822544     20.41326     64.53848         8     0.862     0.700 -72.25   0
       232    356.5420    465.7462 300.1339997 +22.6177926     284.0186     72.40925      1.287     4.37     4.989663     20.41326     36.48406         5     1.123     0.485 -30.72   0
       233    689.0839    463.0576 300.2383941 +22.7166573     878.3078     72.44607      1.316     2.43     4.885554     20.41326     124.1973        10     0.846     0.722 -72.06   0
       234    477.7975    461.0462 300.1732554 +22.6527811     198.7525     72.35398      1.354     3.86     5.208683     20.41326     27.93457         5     0.821     0.521  35.32   0
       235     47.9656    457.1988 300.0408480 +22.5228236     310.8737     72.31712      2.006     5.26     4.404614     20.41326     29.35982         6     1.280     0.609 -17.29   0
       236   1003.8841    455.6662 300.3389308 +22.8087907     521.0049     72.46447      1.451     2.93     4.979439     20.41326     72.15004        11     0.924     0.829  86.12   0
       237    749.9194    455.3370 300.2598553 +22.7326585     907.7075     72.46447      1.337     2.76     4.770996     20.41326     120.6619        13     0.966     0.807 -85.99   0
       238    907.2199    451.7446 300.3100552 +22.7787262     984.9232     72.33555      1.365     2.98     4.664879     20.41326      137.167        14     1.038     0.838  41.87   0
       239    891.3519    448.2633 300.3062375 +22.7729745     781.1215     72.37241      1.440     2.85     4.521873     20.41326     88.40915        11     0.949     0.756 -19.20   0
       240    865.5625    448.8851 300.2979949 +22.7654320      334.199     72.33555      1.530     5.28     4.318329     20.41326     39.65071         6     1.193     0.659  49.58   0
       241    871.7575    448.0755 300.3001891 +22.7670541      377.661     72.33555      1.196     4.11     4.366236     20.41326     41.61991         7     0.744     0.677 -81.99   0
       242    635.6925    445.8355 300.2273542 +22.6957152     3201.225     72.29868      1.282     2.34     5.136565     20.41326     488.0518        24     1.083     0.962  67.30   0
       243    996.2697    444.9509 300.3400343 +22.8034296     573.1138     72.35398      1.443     3.97     4.969204     20.41326      60.5714        10     1.014     0.842   3.52   0
       244    641.1476    433.6183 300.2330193 +22.6938380     242.9956     72.33555      1.155     3.49     5.082111     20.41326     40.03428         5     0.766     0.458 -15.16   0
       245    475.4137    433.0361 300.1816064 +22.6440197     350.8077     72.35398      1.141     2.48     5.142523     20.41326     75.47593         6     0.779     0.574 -40.10   0
       246    407.3198    433.4905 300.1602684 +22.6237457     237.2798     72.46448      1.163     2.81     5.095875     20.41326      45.1949         5     0.704     0.475  17.62   0
       247    919.0782    425.0735 300.3224116 +22.7746064     604.3807     72.46447      1.343     3.62     4.670803     20.41326     69.95461         9     0.963     0.646  13.05   0
       248   1005.2554    423.8435 300.3496897 +22.8000480     836.1436     72.35398      1.342     2.69     5.004506     20.41326     140.2191        15     1.098     0.796  32.57   0
       249    542.3716    420.5312 300.2065087 +22.6604879     511.2646     72.33555      1.205     3.01     5.264248     20.41326        73.43        10     0.996     0.729  78.74   0
       250    655.2730    421.1062 300.2414806 +22.6944727     334.5268     72.48287      1.334     5.32     4.982174     20.41326     38.74712         9     0.909     0.880   9.90   0
       251    746.3724    419.8863 300.2702584 +22.7214053     1092.538     72.35398      1.270     2.49      4.62065     20.41326     149.5906        15     1.024     0.866 -44.18   0
       252    250.2898    418.0376 300.1164414 +22.5722432     684.4956     72.33555      1.483     2.55     4.776635     20.41326     91.81013        11     0.921     0.722  36.94   0
       253    312.6251    413.7196 300.1372278 +22.5896873     3756.664     72.33555      1.350     2.28     4.850772     20.41326     597.2477        26     1.172     0.961  56.40   0
       254    259.8505    408.4214 300.1225353 +22.5723474     7767.308     72.35398      1.425     2.58     4.788266     20.41326     1026.867        43     1.297     1.124  44.94   0
       255    400.6886    402.6797 300.1682060 +22.6129077     4836.766     72.50127      1.331     2.28     5.002528     20.41326      771.392        29     1.138     0.981  70.19   0
       256    661.7649    400.5414 300.2501779 +22.6905062     896.4263     72.35398      2.334     6.54     4.889429     20.41326     69.29483        12     1.576     0.828 -46.77   2
       257    644.8506    399.4616 300.2452598 +22.6851299     18575.81     72.40925      1.281     2.23     4.952122     20.41326     2925.125        50     1.152     1.114  83.63   0
       258    492.0056    400.8888 300.1972054 +22.6397545     287.7351     72.26177      1.132     3.72      5.05807     20.41326     44.46947         6     0.910     0.508  89.94   0
       259    638.4168    398.2300 300.2436557 +22.6828489     532.6868     72.33555      1.636     3.51     4.975821     20.41326     40.11084         5     0.776     0.458  73.08   0
       260     19.8588    397.0576 300.0516373 +22.4971325      196.482     72.42766      1.355     4.54     4.400627     20.41326     31.68942         5     1.185     0.495 -21.75   0
       261    841.9611    390.0586 300.3097328 +22.7414505     552.2363     72.37241      1.467     2.52     4.394877     20.41326     74.00941         9     0.811     0.714 -21.16   0
       262    264.7493    386.3426 300.1312243 +22.5674750     441.0296     72.40925      1.358     2.67     4.800931     20.41326     54.98988         6     0.686     0.641  85.99   0
       263    978.3060    382.2103 300.3547970 +22.7800065     886.7012     72.29868      1.643     3.08      4.63749     20.41326      87.3745        15     1.003     0.945  41.54   0
       264    515.1735    381.4019 300.2107417 +22.6410958      356.608     72.29868      1.460     2.61     5.034768     20.41326     36.74733         5     0.712     0.458  18.63   0
       265    199.6292    379.5256 300.1131899 +22.5459978      2088.35     72.37241      1.483     2.54     4.843518     20.41326     282.0856        23     1.218     1.005  66.58   0
       266    688.3909    380.5601 300.2649575 +22.6927365     336.0611     72.35398      1.501     2.77     4.732073     20.41326      50.2597         5     0.888     0.501 -42.74   0
       267    585.5016    368.9095 300.2366923 +22.6585725     6653.093     72.53804      1.323     2.15     4.965218     20.41326     983.3272        33     1.136     1.017  70.02   0
       268    999.0556    369.3825 300.3654330 +22.7825265     1065.943     72.33555      1.336     2.57     4.559414     20.41326      165.149        14     0.962     0.886 -47.68   0
       269    300.2211    368.0029 300.1482071 +22.5728389     631.7382     72.29868      1.410     3.21     4.774184     20.41326     91.20185        11     0.925     0.836  40.52   0
       270    845.5617    361.1116 300.3202501 +22.7342041     286.5252     72.33555      1.141     3.29     4.375576     20.41326     53.77067         5     1.009     0.311   3.05   0
       271    158.1698    361.6914 300.1060900 +22.5284485     405.9261     72.31712      1.195     2.14       4.8684     20.41326     69.69794         5     0.699     0.444 -13.76   0
       272    789.5315    357.9909 300.3037977 +22.7165325     1391.206     72.33555      1.527     2.86     4.597679     20.41326     157.8909        17     1.129     0.983 -60.03   0
       273      5.3138    359.0871 300.0594411 +22.4818716     1396.061     72.29868      1.549     2.99     4.662968     20.41326      169.737        20     1.209     1.025 -16.94  16
       274    699.1915    359.2114 300.2752508 +22.6898336     548.6247     72.22486      1.194     2.50     4.634956     20.41326     89.33352         9     0.913     0.601  31.00   0
       275    492.1277    355.1225 300.2120962 +22.6266402     6181.369     72.46447      1.306     2.45     4.842638     20.41326     801.2534        29     1.115     0.995  75.91   0
       276     77.8870    355.6013 300.0831175 +22.5026313     192.9028     72.26177      1.473     4.81     4.745444     20.41326     28.80479         5     1.417     0.462  -6.90   0
       277    981.7165    349.7325 300.3664014 +22.7716846     610.2684     72.46448      1.414     3.66     4.401671     20.41326     74.43587        13     1.059     0.966 -40.63   0
       278    884.1304    349.6492 300.3359946 +22.7424530      1480.98     72.35398      1.306     2.05     4.329106     20.41326     263.0974        17     1.012     0.889  -1.10   0
       279    476.3886    343.7655 300.2108827 +22.6186616     546.7029     72.33555      1.493     4.13     4.772357     20.41326     68.99911        12     1.140     0.862  23.58   0
       280    559.3998    341.8686 300.2373399 +22.6429825     507.3823     72.29868      1.259     2.48     4.941181     20.41326     81.54846         8     0.909     0.570  71.05   0
       281      3.7044    340.7045 300.0649059 +22.4761121     1112.695     67.92432      1.553     2.75     4.966733     20.41326     148.7636        17     1.122     0.953 -26.88  24
       282    837.4844    341.1341 300.3242151 +22.7260409     452.1529     72.46447      1.604     2.41     4.472014     20.41326      42.8749         5     0.722     0.463  70.11   0
       283    856.7365    337.1771 300.3315010 +22.7306660     520.6051     72.33555      1.306     3.32     4.411911     20.41326     67.94875        11     1.057     0.699  58.83   0
       284    379.6311    334.3397 300.1838320 +22.5869646     2437.363     72.39083      1.303     2.33     4.701756     20.41326     356.8414        21     1.052     0.975  80.92   0
       285     98.0293    331.7327 300.0971207 +22.5018170     1065.997     72.33555      1.458     3.41     4.867909     20.41326      126.671        18     1.182     0.943 -23.18   0
       286    727.4792    329.1857 300.2938078 +22.6896712      371.862     72.37241      1.363     3.41     4.557565     20.41326     48.30128         5     0.852     0.556  41.15   0
       287    349.0511    323.7507 300.1777544 +22.5747596     30291.91     72.39083      1.373     2.52     4.704641     20.41326     4248.525        64     1.273     1.158  66.17   0
       288    883.6965    321.5408 300.3449805 +22.7342386     1479.326     72.42766      1.295     2.23     4.464403     20.41326     209.3172        15     0.911     0.862 -74.05   0
       289    839.3090    319.2400 300.3318884 +22.7202905      233.684     72.35398      1.025     3.62     4.553367     20.41326     36.88232         5     0.890     0.423  43.54   0
       290     45.3028    311.4887 300.0873065 +22.4801971     5000.584     72.53804      1.632     3.04      5.32217     20.41326     625.2942        40     1.339     1.297 -76.55   0
       291    798.9397    310.1962 300.3222391 +22.7056050     602.8059     72.33555      1.413     2.70     4.621904     20.41326     73.93007         8     0.824     0.612  37.17   0
       292    223.1966    310.0941 300.1430456 +22.5331216     465.3298     72.26177      1.376     3.22     4.962472     20.41326      59.3974        10     0.903     0.854  34.11   0
       293    447.4525    309.0301 300.2131473 +22.6000115     543.3766     72.37241      1.455     2.89     4.711557     20.41326     66.62945         7     0.820     0.587  66.72   0
       294    626.3816    305.8805 300.2698755 +22.6526984     218.6589     72.35398      1.105     3.39     4.775916     20.41326     30.63238         5     0.767     0.434 -69.89   0
       295    759.5199    303.5501 300.3121099 +22.6918927     2050.453     72.37241      1.220     2.19     4.600196     20.41326     309.6516        18     0.977     0.917 -86.58   0
       296    974.5092    296.2577 300.3815050 +22.7541437     698.6682     72.40925      1.654     3.45      4.16514     20.41326     79.55383        15     1.189     0.888 -81.01   0
       297    567.8570    298.4013 300.2540767 +22.6330217      231.461     72.29868      0.970     1.63     4.814695     20.41326     67.96308         5     0.641     0.457 -23.28   0
       298    421.1530    288.1454 300.2117387 +22.5861314     2184.005     72.39083      1.443     2.90     4.707984     20.41326      243.547        21     1.260     0.899  56.95   0
       299    633.6190    287.2014 300.2781898 +22.6494956     423.5619     72.28023      1.330     2.99     4.770767     20.41326     54.73765         6     0.859     0.485  42.01   0
       300    860.2903    281.1776 300.3507787 +22.7156230     623.2242     72.28023      1.238     3.08      4.73137     20.41326     83.51614        11     0.953     0.741 -81.24   0
       301    759.6445    278.8397 300.3201656 +22.6848240     306.4675     72.42766      1.113     1.91     4.657505     20.41326     59.27039         5     0.715     0.408  64.79   0
       302    743.0509    278.6259 300.3150640 +22.6797949     339.4898     72.37241      1.211     1.77     4.657787     20.41326     64.14858         5     0.664     0.440 -23.92   0
       303    497.0776    267.5024 300.2420651 +22.6029416     1148.768     72.48287      1.199     2.21     4.745305     20.41326     182.2951        14     0.922     0.787  56.15   0
       304    304.5988    267.5646 300.1821553 +22.5452981     249.6358     72.31712      1.254     4.35     4.900249     20.41326       39.569         7     0.889     0.665  15.54   0
       305    582.5402    265.2799 300.2693938 +22.6278978     201.6149     72.40925      1.034     4.23     4.830251     20.41326     39.04017         5     0.862     0.591  38.42   0
       306    880.4461    260.7388 300.3636935 +22.7157761     274.6336     72.37241      1.607     4.83     4.754142     20.41326     45.30685         6     0.972     0.679 -70.96   0
       307    742.0036    259.4386 300.3209620 +22.6739636     2207.617     72.39083      1.316     2.36     4.726421     20.41326     328.9341        23     1.036     1.011 -69.68   0
       308   1003.2470    253.8710 300.4042208 +22.7505469     3073.567     72.33555      1.504     2.88      4.17768     20.41326     369.6718        30     1.241     1.105  67.98   0
       309    450.4009    243.3545 300.2353699 +22.5820204     633.5784     72.35398      1.244     2.47     4.754444     20.41326     93.06638        11     0.921     0.737  15.71   0
       310    155.8108    237.2194 300.1457369 +22.4919946     648.7768     72.31712      1.492     3.43      4.93982     20.41326     86.80087        12     1.136     0.795  68.84   0
       311    125.0622    237.1895 300.1361900 +22.4827704     1294.323     72.28023      1.717     4.10     5.017192     20.41326     125.7161        26     1.314     1.255 -24.89   0
       312   1018.9630    234.1975 300.4155054 +22.7495876     548.8992     72.37241      1.398     3.85     4.202611     20.41326     62.53546         9     1.008     0.708 -79.09  16
       313    862.6492    231.4258 300.3676531 +22.7020174     350.4281     72.37241      1.421     3.54     4.902381     20.41326     46.05477         7     0.848     0.663  -7.84   0
       314    209.3645    229.4181 300.1649145 +22.5058027     391.3659     72.35398      1.279     3.35     4.982383     20.41326     56.81069         9     0.972     0.706 -46.88   0
       315     65.2280    226.0916 300.1211966 +22.4616491      352.831     72.33555      1.652     4.89     5.197447     20.41326     34.59021         6     1.271     0.534 -61.07   0
       316    885.4238    222.7721 300.3775608 +22.7063435     316.4778     72.33555      1.401     3.73     4.888971     20.41326     45.81366         6     1.037     0.385 -71.24   0
       317    813.6246    220.8516 300.3557997 +22.6843035     592.0667     72.37241      1.288     2.34     4.854082     20.41326      99.5518        10     0.833     0.743 -74.61   0
       318    403.9818    220.3414 300.2283888 +22.5615023     349.1629     72.29868      1.237     4.24     4.806893     20.41326     58.09922         9     1.149     0.623  36.06   0
       319    911.7279    209.9609 300.3899182 +22.7105288      2087.49     72.31712      1.375     2.67     4.842291     20.41326     253.1783        23     1.178     0.932  71.23   0
       320    330.3763    207.2398 300.2097386 +22.5356881      2196.43     72.39083      1.358     3.46     4.991447     20.41326     246.0807        21     1.177     0.963 -87.78   0
       321    408.3486    202.3352 300.2355871 +22.5576353     1084.097     72.39083      1.410     3.06      4.87315     20.41326     119.2374        17     1.149     0.826 -18.81   0
       322    160.2146    202.9997 300.1582033 +22.4834851     444.4621      72.2064      1.447     3.36     4.929941     20.41326     50.33318         9     0.884     0.704 -20.36   0
       323    809.8747    201.6811 300.3608483 +22.6776666      604.349     72.46447      1.313     3.01     4.845128     20.41326     84.96027         9     0.849     0.794 -14.65   0
       324    917.1680    198.8362 300.3952227 +22.7089557     497.9257     72.39083      1.465     2.61     4.835524     20.41326     68.33897         6     0.882     0.538  23.93   0
       325    225.0132    194.2624 300.1811806 +22.5003921     947.4155     72.33555      1.538     4.45      5.00073     20.41326     101.9993        17     1.378     0.885  60.53   0
       326    762.7426    191.3539 300.3495076 +22.6605896     1850.495     72.40925      1.388     2.30     4.835827     20.41326     260.4514        21     1.155     0.915  46.71   0
       327    827.7799    191.0762 300.3698689 +22.6799745     502.3785     72.35398      1.245     2.62     4.870008     20.41326     75.11599        10     0.851     0.744   0.72   0
       328    246.5214    187.7379 300.1899838 +22.5049620     563.0875     72.42766      1.334     2.98     4.990087     20.41326     70.96909         9     0.946     0.636  54.29   0
       329    536.4046    183.5996 300.2815202 +22.5906002     362.2158     72.16945      1.324     2.79     4.947905     20.41326     52.55616         6     0.891     0.619 -66.06   0
       330    766.9559    182.9323 300.3535517 +22.6594283     811.6857     72.33555      1.360     2.80      4.83396     20.41326     94.41717        10     0.856     0.747 -76.03   0
       331    687.4029    182.0588 300.3290467 +22.6353650     1195.576     72.31712      1.296     2.58      4.84675     20.41326     146.6829        17     1.064     0.859  64.11   0
       332    882.8445    173.6685 300.3926814 +22.6914440     1442.909     72.31712      1.360     2.35      4.89575     20.41326     220.2698        19     1.084     0.944  57.79   0
       333    613.6639    173.9762 300.3086985 +22.6109657     953.2817     72.33555      1.318     2.45     4.886889     20.41326     148.4134        15     1.110     0.784  40.11   0
       334    894.8152    172.8349 300.3966844 +22.6947860     726.5162     72.35398      1.291     2.44     4.876245     20.41326     115.0375        12     0.917     0.768  56.91   0
       335    941.6540    171.3317 300.4117786 +22.7083676     263.8211     72.39083      1.179     4.04      4.74787     20.41326     58.30376         5     1.300     0.436 -81.03   0
       336   1011.5842    163.0091 300.4362909 +22.7268928     1164.096     72.28023      1.471     2.91     4.360419     20.41326     129.9014        17     1.126     0.896  59.68   0
       337     35.6298    159.8065 300.1334948 +22.4337413     481.6829     72.35398      1.617     3.74     5.588807     20.41326     58.94188         7     0.973     0.600 -37.55   0
       338    245.7420    155.8604 300.2000775 +22.4955692     737.6495     72.42766      1.400     3.06     5.028454     20.41326     99.23868        12     0.948     0.851  73.77   0
       339    107.5719    150.5898 300.1588360 +22.4526547     2224.332     72.35398      1.597     2.86     5.098573     20.41326     279.7794        26     1.270     1.077  49.00   0
       340    930.6719    147.9622 300.4159314 +22.6983570     707.3719     72.31712      1.303     2.56     4.834659     20.41326     105.2201        10     0.817     0.783  66.11   0
       341     57.2385    147.5970 300.1441665 +22.4367109     556.2695     72.39083      1.803     3.37     5.399484     20.41326     50.66951         7     0.828     0.634 -63.77   0
       342    265.0065    144.0420 300.2098997 +22.4979446     5716.482     72.39083      1.426     2.67     5.096914     20.41326     674.9242        35     1.247     1.097  70.96   0
       343    247.4524    145.2702 300.2040429 +22.4930387      339.683     72.33555      1.249     2.38     5.089542     20.41326     46.52622         5     0.713     0.463 -70.36   0
       344     49.1493    138.3836 300.1446402 +22.4316403     1376.687     72.37241      1.652     3.09     5.420671     20.41326     146.4052        19     1.122     1.002  74.64   0
       345    248.4401    135.0144 300.2076749 +22.4903876     551.8993     72.37241      1.210     2.69     5.145204     20.41326     82.98207         9     0.949     0.615  47.11   0
       346    909.0725    125.6441 300.4164316 +22.6854725     3612.385     72.33555      1.402     2.75     4.893511     20.41326     503.1702        26     1.158     1.028  76.37   0
       347   1012.8335    124.4596 300.4491800 +22.7161709     2882.611     72.39083      1.535     2.62     4.604797     20.41326     358.9683        30     1.216     1.194 -46.41   0
       348    458.4581    120.9231 300.2775782 +22.5492405     548.6375     72.39083      1.284     2.52     5.171269     20.41326     95.08003        11     0.955     0.703  60.09   0
       349    211.5195    121.5514 300.2005599 +22.4754582     333.8773     72.39083      1.131     3.30     5.150634     20.41326     50.90482         6     0.893     0.435 -18.05   0
       350    572.9106    118.8438 300.3138827 +22.5829110      274.223     72.37241      1.151     2.72     5.024932     20.41326     54.45669         6     0.903     0.543 -28.22   0
       351    382.7200    112.7745 300.2566513 +22.5242171     957.1981     72.33555      2.168     2.58     5.183826     20.41326     86.71345        12     0.919     0.801  80.23   0
       352    148.7931    109.8789 300.1848447 +22.4533112     788.4783     72.28023      1.903     3.85     4.969197     20.41326     83.86216        14     1.184     0.975  85.36   0
       353    509.7812    107.9581 300.2977564 +22.5608804     1600.624     72.37241      1.357     3.15     5.212306     20.41326     211.4516        20     1.213     0.903  77.03   0
       354    437.8918    108.3516 300.2752528 +22.5394678     534.7591     72.39083      1.455     3.56     5.135258     20.41326     72.39411         9     1.107     0.618  72.50   0
       355     46.5570    108.3457 300.1535721 +22.4222356     311.7844     72.35398      1.594     4.85     5.333752     20.41326     36.19691         6     0.971     0.685  16.63   0
       356    571.2687    107.1499 300.3171624 +22.5790567     457.4502     72.35398      1.327     4.21     5.055096     20.41326     58.44385         6     1.085     0.468  53.05   0
       357    333.9867    104.4871 300.2441768 +22.5072394     281.4916     72.29868      1.304     2.49     5.335872     20.41326     52.57967         5     0.726     0.575  88.11   0
       358    253.4355    103.2560 300.2195235 +22.4827579     491.6207     72.37241      1.629     3.57     5.324744     20.41326     54.03269        10     1.014     0.726  13.40   0
       359    798.0753     97.9820 300.3907939 +22.6443023     285.4463     72.35398      1.254     2.38     4.837653     20.41326     58.65024         7     0.824     0.527 -43.23   0
       360    382.8713     93.0121 300.2631045 +22.5185816     207.9969     72.37241      1.342     4.20     5.199584     20.41326     35.53996         7     0.846     0.693 -30.14   0
       361    944.6630     92.5206 300.4382694 +22.6865867     268.3135     72.44607      1.073     2.58     4.930258     20.41326     45.77509         5     0.684     0.474  18.68   0
       362    790.1724     88.7919 300.3913098 +22.6392934     374.6566     72.33555      1.350     2.19     4.896458     20.41326       51.506         6     0.720     0.541 -45.07   0
       363    695.2111     89.0193 300.3616442 +22.6109412     338.3133     72.31712      1.554     4.29     4.964364     20.41326     40.46286         6     1.163     0.450  63.54   0
       364    283.9724     87.9056 300.2339955 +22.4874935     6092.398     72.26177      1.418     2.79     5.366914     20.41326     771.9707        32     1.257     1.042  66.73   0
       365    134.8787     87.6105 300.1877380 +22.4427443     935.4645     72.33555      2.157     3.60      5.09428     20.41326     80.00394        17     1.215     0.889  -6.11   0
       366    774.3932     86.6009 300.3871021 +22.6339414     191.5415     72.16945      1.124     3.39     4.915258     20.41326     27.77713         5     1.064     0.313  21.74   0
       367    912.8649     85.1376 300.4307458 +22.6749498     540.7543     72.39083      1.921     4.87     5.009557     20.41326       50.061         7     1.067     0.629  89.01   0
       368    255.8111     82.1458 300.2271047 +22.4774028     346.6021     72.35398      1.332     3.38     5.356638     20.41326     52.95293         5     0.939     0.351   2.09   0
       369    299.2314     79.3186 300.2415245 +22.4895959     331.9747     72.35398      1.469     3.27     5.343779     20.41326     41.94577         6     0.734     0.628 -39.80   0
       370     45.9078     78.0038 300.1632050 +22.4133254     436.2766     72.24332      1.336     3.59     5.295422     20.41326     50.17587         9     0.988     0.749  37.83   0
       371    530.0809     73.2648 300.3153219 +22.5569819     6288.481     72.46447      1.330     2.42     5.150304     20.41326     894.4164        35     1.191     1.043  73.99   0
       372    415.3658     73.1553 300.2796515 +22.5226039     715.4215     72.40925      1.418     3.74     4.953288     20.41326      81.3261        11     1.022     0.758  41.75   0
       373    586.9186     68.1087 300.3346908 +22.5725137     259.7057     72.48287      1.312     2.45     5.126277     20.41326     48.16454         6     0.760     0.620  85.25   0
       374    550.3077     67.5966 300.3234566 +22.5614071      222.297     72.24332      1.066     3.42     5.144787     20.41326     38.46519         5     0.725     0.466 -15.93   0
       375    724.1216     64.9335 300.3784591 +22.6126642     313.3716     72.46447      1.286     4.80     5.082392     20.41326     45.72986         8     0.971     0.709  54.36   0
       376    782.6403     63.0343 300.3973112 +22.6296285     794.6962     72.39083      1.438     2.56     5.078743     20.41326     91.19781        12     0.909     0.788  37.17   0
       377    874.9921     61.9222 300.4264612 +22.6569388     570.0963     72.31712      1.466     2.73     5.132831     20.41326     80.57516        10     0.929     0.694  56.36   0
       378    223.2924     57.1024 300.2251100 +22.4604650     414.8019     72.53804      1.197     2.88     5.342326     20.41326     61.70588         9     0.927     0.621 -35.70   0
       379    581.4608     55.5921 300.3370479 +22.5672801     409.5079     72.33555      1.393     3.35     5.162376     20.41326     71.83078         8     1.017     0.615  74.10   0
       380    658.4278     53.3749 300.3617384 +22.5896791     6393.678     72.33555      1.336     2.34     5.183044     20.41326     874.5441        35     1.226     1.053  79.98   0
       381    433.3012     52.2650 300.2920036 +22.5219681     1446.367     72.44607      1.342     2.45     4.886039     20.41326     181.6705        19     1.074     0.918  68.02   0
       382    699.5634     50.9338 300.3753447 +22.6012875     963.4631     72.35398      1.381     2.84      5.18126     20.41326      127.627        15     1.052     0.848  27.33   0
       383    769.1332     48.0971 300.3979428 +22.6212890     381.8681     72.44607      1.334     3.75     5.183897     20.41326     44.45319         7     0.887     0.515  44.41   0
       384    715.5720     46.8919 300.3816425 +22.6049153     556.2828     72.31712      1.083     2.24     5.199858     20.41326     94.01714         8     0.810     0.620  71.73   0
       385    985.1462     44.6485 300.4664140 +22.6849158     616.2558     72.39083      1.412     2.84     5.297494     20.41326     72.09617        10     0.863     0.740 -78.82   0
       386    182.1172     44.8476 300.2162805 +22.4446091     624.2544     72.37241      1.321     3.34     5.290963     20.41326     84.05136        12     1.123     0.810 -32.54   0
       387    754.1044     42.5390 300.3950605 +22.6151930     422.8082     72.44607      1.098     2.00     5.219085     20.41326     81.89734         8     0.729     0.648 -89.97   0
       388    702.7703     38.3423 300.3804247 +22.5986247     2807.985     72.37241      1.339     2.23     5.257219     20.41326     402.0698        24     1.158     0.968  86.17   0
       389    717.7623     37.2347 300.3854549 +22.6027923     849.9646     72.42766      1.690     4.22     5.261847     20.41326      99.6467        19     1.419     0.916  45.02   0
       390    343.7079     39.1763 300.2683689 +22.4913774     326.2901     72.28023      1.050     2.85     4.971642     20.41326     58.29597         6     0.846     0.464 -55.59   0
       391    789.0452     29.9319 300.4100359 +22.6220198     1509.753     72.33555      1.353     2.61     5.307353     20.41326     214.1791        23     1.154     0.975  62.65   0
       392    949.4514     28.6075 300.4604787 +22.6696224     205.6127     72.35398      1.493     3.87     5.436915     20.41326     28.67455         5     1.032     0.415 -15.76   0
       393    867.1716     24.2692 300.4362260 +22.6437627     312.3547     72.35398      1.462     3.23       5.3414     20.41326      47.3429         6     0.929     0.564 -65.82   0
       394    727.0781     23.0851 300.3929431 +22.6015088     851.0391     72.46447      1.359     2.72     5.351444     20.41326     115.1499        13     0.974     0.837  46.45   0
       395    769.2427   1020.6901 300.0821126 +22.9008622     501.6609     69.87897      1.913     4.77      2.42557     20.41326     35.13823         8     0.997     0.645 -17.19  16
       396    331.5846   1018.8981 299.9464497 +22.7690707     1024.189     72.26177      1.960     5.18     13.14066     20.41326     73.24915        25     1.489     1.250  46.44  16
       397    818.5302     19.4021 300.4226389 +22.6278109     429.4767     72.29868      1.224     3.31     5.379292     20.41326     54.85835         9     0.984     0.619  -4.88   0
       398    166.7081   1014.7869 299.8965284 +22.7184068     1704.986     72.29868      3.464    12.32      88.5876     20.41326     56.83459        45     2.653     1.593 -44.35  18
       399    237.4037    992.6313 299.9257114 +22.7332731     4585.163     72.31712      9.089    39.79     61.13986     20.41326     91.41566       450     9.687     4.536 -86.49  19
       400    275.1732    980.8037 299.9413022 +22.7412160     8904.646     72.31712     11.463    41.92     29.91025     20.41326     197.9899      1086    13.593     6.003  73.29  19
       401    105.7010     22.1113 300.1998970 +22.4151834     570.5656     72.51965      1.669     4.48     5.307825     20.41326     64.12306        10     1.007     0.866 -50.14   0
       402    208.6020   1004.2733 299.9129703 +22.7279672     2935.552     72.26177      6.081    25.91     78.84906     20.41326     72.63395       161     5.375     3.467  78.00  18
       403    185.0584   1012.2717 299.9030500 +22.7231939     311.7076     72.39083      1.443     5.08     85.83737     20.41326     37.10363         7     1.338     0.546 -19.07   0
