#   1 NUMBER                 Running object number                                     
#   2 X_IMAGE                Object position along x                                    [pixel]
#   3 Y_IMAGE                Object position along y                                    [pixel]
#   4 ALPHA_J2000            Right ascension of barycenter (J2000)                      [deg]
#   5 DELTA_J2000            Declination of barycenter (J2000)                          [deg]
#   6 FLUX_APER              Flux vector within fixed circular aperture(s)              [count]
#   7 FLUXERR_APER           RMS error vector for aperture flux(es)                     [count]
#   8 FLUX_RADIUS            Fraction-of-light radii                                    [pixel]
#   9 FWHM_IMAGE             FWHM assuming a gaussian core                              [pixel]
#  10 BACKGROUND             Background at centroid position                            [count]
#  11 THRESHOLD              Detection threshold above background                       [count]
#  12 FLUX_MAX               Peak flux above background                                 [count]
#  13 ISOAREA_IMAGE          Isophotal area above Analysis threshold                    [pixel**2]
#  14 A_IMAGE                Profile RMS along major axis                               [pixel]
#  15 B_IMAGE                Profile RMS along minor axis                               [pixel]
#  16 THETA_IMAGE            Position angle (CCW/x)                                     [deg]
#  17 FLAGS                  Extraction flags                                          
         1    670.5090     16.7786 300.3928194 +22.6016218     778.2372     72.23555      1.537     3.23     6.919536     20.40064     84.92442        13     1.040     0.909  62.52   0
         2    476.1558     15.7701 300.3325889 +22.5431926     1016.263     72.34608      1.555     3.73     6.746135     20.40064     88.95019        18     1.259     0.916 -30.36   0
         3    380.1688     13.9275 300.3032966 +22.5139407     1011.704     72.30926      2.137     4.40     7.061144     20.40064     75.94006        18     1.325     0.997  -2.55   0
         4    761.8762     13.2749 300.4224402 +22.6279370     486.3544     72.40129      1.578     3.59     6.814518     20.40064     43.51413         9     0.879     0.726  73.60   0
         5   1022.6325     11.0455 300.5045216 +22.7052465     1994.969     61.91048      1.597     3.54     6.807264     20.40064     222.7404        25     1.442     1.016  84.74  24
         6    719.1848      4.9197 300.4118344 +22.6127656     486.7018     71.41972      1.334     2.50     6.865959     20.40064     70.85069         7     0.848     0.498 -45.35  16
         7    151.2846      3.6551 300.2354017 +22.4424773     3852.815     67.66618      1.811     3.36     6.930884     20.40064      366.477        38     1.421     1.328  10.46  24
         8    477.0929      1.3416 300.3375532 +22.5393220     191.6555     56.37077      0.912     2.39     6.693295     20.40064     53.21588         5     0.721     0.437  18.71  24
         9    141.1789    996.9833 299.9099439 +22.7247034     656.9073     72.29084      2.249     8.15     81.00534     20.40064      39.6759        14     1.863     1.161  31.85   3
        10     66.2698   1009.6228 299.8825461 +22.7058527     5060.922     72.32767     14.815    93.79     76.56424     20.40064      163.166      2057    16.382    14.897  42.44  27
        11     58.0262    945.9869 299.9006730 +22.6851282     5732.696     72.30926     28.435   123.16     27.24051     20.40064     1206.869      4880    21.455    19.616 -42.07  19
        12    147.3450    976.8775 299.9183983 +22.7207859     1943.428     72.34608      4.760    14.32     62.77418     20.40064     56.18991        48     2.764     2.181 -12.81   2
        13    145.5650    972.5685 299.9192458 +22.7190159     1418.013     72.32767      8.608    10.93     59.12794     20.40064     47.95195        20     2.467     1.350  70.16   3
        14    335.6763    998.4081 299.9699828 +22.7834532     773.9816     72.27242      3.207     5.80     5.314186     20.40064     35.46828        10     1.078     0.879  88.86   0
        15    904.2524    970.5446 300.1562080 +22.9458657     881.3377     72.34608      2.182     6.05     5.216337     20.40064     54.03864        12     1.284     0.801  85.54   2
        16    104.0923    964.7256 299.9089011 +22.7043241     849.5863     72.47483      3.634     3.82     51.83548     20.40064     35.57452         5     1.184     0.353  13.99   1
        17    631.3821    953.9374 300.0765273 +22.8593390     6820.568     72.27242      2.118     4.84     5.219227     20.40064     322.3253        52     1.615     1.587  58.41   0
        18    141.9191    948.0221 299.9260922 +22.7108806      1154.12     72.27242      5.749     7.18     36.33899     20.40064     46.83664        11     1.618     0.893  62.50   2
        19    210.7893    999.8631 299.9306552 +22.7464123     1321.986     72.25398      3.126    11.60     67.49675     20.40064     69.76176        30     2.553     1.595  11.56   1
        20    539.8295    944.6488 300.0510240 +22.8292317     1671.628     72.32767      2.058     5.60     5.107351     20.40064     93.67885        32     1.627     1.370 -29.76   0
        21    222.5792    997.7435 299.9350115 +22.7493409     1060.682     72.32767      3.033     3.34     62.10038     20.40064     35.91869         5     0.770     0.419  66.18   0
        22    125.6091    943.7216 299.9224190 +22.7047541     868.8132     72.27242      6.011     5.53     32.69276     20.40064      36.3816         5     1.202     0.717   8.03   1
        23    434.6207    941.0973 300.0194150 +22.7966732      1163.24     72.23555      2.350     5.79     5.000989     20.40064     63.06946        19     1.593     1.080 -77.87   2
        24    364.2053    938.9867 299.9981813 +22.7749550     6477.446     72.18021      2.150     4.99     5.356154     20.40064     356.0765        53     1.627     1.593 -27.88   0
        25    527.4896    991.9999 300.0317847 +22.8391274     1572.915     72.21711      1.741     4.25     5.137197     20.40064     115.2083        23     1.465     0.966  82.48   3
        26    525.0000    992.0519 300.0309924 +22.8383960     1224.996     72.25398      1.915     5.90     5.137197     20.40064     83.90434        16     1.927     0.662  88.05   3
        27    614.0000    987.0764 300.0603359 +22.8636456     10946.71     72.18021      2.577     6.82     5.233384     20.40064     434.1121        50     1.916     1.743  14.72   3
        28    560.8530    915.6125 300.0670122 +22.8271955     270.9549     72.32767      1.573     5.25     5.162923     20.40064     41.93505         6     1.072     0.727  14.11   0
        29    619.5288    984.5702 300.0628736 +22.8645831     6763.292     72.30926      1.864     4.88     5.232664     20.40064      441.075        39     1.672     1.113  87.57   3
        30    699.8080    906.6264 300.1132335 +22.8662551     743.1582     72.30926      2.160     7.59     5.267395     20.40064     51.85501        17     1.785     0.932  44.14   0
        31    910.6412    918.0935 300.1752546 +22.9327072     2126.017     72.32767      2.116     5.53     5.352428     20.40064     128.6475        40     1.727     1.486   3.84   0
        32    103.7822    904.0754 299.9285199 +22.6868329     706.5844     72.30926      5.460     5.03     15.79601     20.40064     33.81718         5     1.617     0.442 -65.41   1
        33    617.0000    984.9969 300.0619469 +22.8639477      4274.32     72.06943      1.563     4.56     5.232366     20.40064     371.2178        19     1.889     0.645 -87.30   3
        34    714.4250    988.0184 300.0913275 +22.8940130     459.1611     72.32767      2.307     4.78     5.237931     20.40064     39.36971         5     1.345     0.482  84.95   0
        35    732.7725    900.9502 300.1253547 +22.8745010     646.5573     72.32767      1.763     4.79     5.275431     20.40064     52.93546         9     1.091     0.744  83.08   3
        36    756.5149    894.7476 300.1347731 +22.8798321     11332.26     72.32767      2.025     4.64     5.318151     20.40064     557.8728        62     1.622     1.596 -86.65   0
        37    196.8244    897.3127 299.9596499 +22.7128006     704.4175     72.27242      4.232     3.59     11.09477     20.40064     40.78517         5     1.083     0.458 -56.25   0
        38    153.1141    997.4951 299.9134887 +22.7284309     3178.454      72.4932      6.880    27.66     81.00534     20.40064     66.09159       223     5.494     3.867  70.28  18
        39    801.9088    895.7396 300.1486053 +22.8937156     453.6352     72.40129      1.699     5.16     5.392768     20.40064     29.60041         8     1.260     0.598 -10.88   0
        40    946.8269    895.4758 300.1938979 +22.9370440     377.0682     72.30926      1.902     4.32     5.426454     20.40064      33.8375         5     0.900     0.591 -42.75   1
        41    735.3137    901.2833 300.1260387 +22.8753581      647.959     72.41969      1.782     3.58     5.275431     20.40064     56.74451         9     1.013     0.645 -79.70   3
        42     67.7757    885.7632 299.9232783 +22.6707782     998.7434     72.32767      7.978     9.61     11.46085     20.40064     43.50482        22     1.773     1.717  66.93   0
        43    462.5430    883.3181 300.0468906 +22.7884558     431.7856     72.36449      1.711     4.08     5.296931     20.40064     31.12963         7     0.987     0.481  81.35   0
        44    765.0832    876.8403 300.1432652 +22.8772541     1276.228     72.27242      1.924     5.00     5.366642     20.40064     88.95184        24     1.311     1.292   5.22   0
        45    617.2072    873.3840 300.0982959 +22.8319563     510.2289     72.23555      2.142     5.68     5.206744     20.40064      45.0748        11     1.566     1.093 -60.57   0
        46    803.2931    870.3575 300.1572872 +22.8868372     836.8065     72.32767      1.859     4.16     5.464823     20.40064      60.9078        17     1.246     1.014  56.78   0
        47    851.7609    862.0234 300.1751123 +22.8989594      427.892     72.34608      1.750     5.33     5.575899     20.40064     39.50606         8     1.242     0.646  -9.38   0
        48    702.7775    860.6417 300.1291058 +22.8539349     651.8309     72.34608      1.798     6.86     5.335102     20.40064     44.08403        17     1.242     1.064  37.01   0
        49    714.1265    857.4108 300.1336936 +22.8564067      709.323     72.32767      2.183     7.58     5.348039     20.40064       39.628        15     1.487     1.082  71.99   0
        50    415.5392    856.7597 300.0408873 +22.7667408     4184.173     72.30926      1.946     4.23      5.44622     20.40064     269.0969        40     1.509     1.393  26.23   0
        51    458.5929    844.9166 300.0581409 +22.7762456     415.4362     72.23555      1.773     5.22     5.421446     20.40064     37.28517         6     1.113     0.825  57.79   0
        52    141.3240    842.0036 299.9603646 +22.6802844     624.3414     72.21711      1.981     6.04     8.804451     20.40064     55.00653        15     1.352     1.083  65.96   0
        53    117.8630    839.1565 299.9539950 +22.6724309     1359.791     72.30926      2.031     5.71     8.694013     20.40064     91.12772        31     1.643     1.316  41.42   0
        54    912.7366    835.2828 300.2028250 +22.9095347     1321.176     72.40129      0.722     1.20     5.642306     20.40064     582.1609         7     0.548     0.474  89.10   0
        55    989.7249    829.2026 300.2288256 +22.9308388     2084.929     72.21711      2.059     5.40     5.652676     20.40064     115.2606        31     1.495     1.428  38.79   0
        56    944.0729    827.3838 300.2151697 +22.9166474     2215.588     72.30926      2.121     5.09     5.660972     20.40064     116.4842        36     1.546     1.450   8.27   0
        57    649.7913    827.5996 300.1233291 +22.8285680     274.7549     72.12484      1.846     4.88     5.385618     20.40064     40.79993         6     1.249     0.540 -27.96   0
        58    727.6197    821.1044 300.1496987 +22.8500177     644.7479     72.21711      1.793     6.33     5.468178     20.40064     48.99755        14     1.119     1.006  65.75   0
        59    595.5606    814.9017 300.1105565 +22.8086720     4846.917     72.30926      1.876     4.06     5.400849     20.40064     299.4936        40     1.446     1.397 -33.62   0
        60    397.9330    812.4398 300.0498081 +22.7487383     620.8206     72.27242      1.791     5.90      5.58088     20.40064     43.81684        12     1.276     0.796  23.99   0
        61    145.8368    808.3602 299.9726993 +22.6719836     1270.331     72.38289      2.106     4.93     6.523482     20.40064     93.09968        28     1.619     1.299   5.81   0
        62    615.9270    807.6041 300.1192736 +22.8126779     766.7123     72.25398      1.833     4.63     5.424991     20.40064     55.29121        17     1.169     1.062 -25.35   0
        63    771.6223    794.8251 300.1719570 +22.8556465     4350.352     72.27242      1.848     4.06     5.578775     20.40064     259.1113        40     1.442     1.391  38.03   0
        64    988.4767    795.0445 300.2395359 +22.9206448     1126.661     72.29084      1.978     5.89     5.702233     20.40064     64.79877        24     1.485     1.258 -43.36   0
        65    180.9357    789.2173 299.9898336 +22.6770152     441.3782     72.29084      1.631     4.42     6.050795     20.40064     50.86514         6     1.085     0.512 -32.44   0
        66    488.6820    787.4551 300.0861817 +22.7687622     565.8011     72.36449      1.749     4.24     5.448115     20.40064     49.99166        11     1.145     0.689 -12.31   0
        67    134.8807    785.1262 299.9768408 +22.6620304     1017.927     72.41969      2.137     6.21     5.911342     20.40064     63.01791        23     1.483     1.361 -29.81   0
        68    550.6661    780.5204 300.1077408 +22.7853443     634.8796     72.41969      1.834     6.31     5.439051     20.40064     61.73215        13     1.185     1.026  68.97   0
        69    284.5806    777.0416 300.0260306 +22.7045958     53944.04     72.32767      1.939     4.06     5.711509     20.40064     3396.404        98     1.631     1.597  38.96   0
        70    542.5278    776.2039 300.1066081 +22.7816659     1697.348     72.25398      1.860     3.90     5.435678     20.40064     137.8931        26     1.291     1.283 -60.02   0
        71    955.5126    775.7672 300.2355117 +22.9052338     729.7133     72.29084      1.846     5.57     5.701818     20.40064     54.56393        15     1.122     1.019 -57.11   0
        72    212.5798    775.0275 300.0042855 +22.6824308     478.5526     72.30926      1.763     5.11     5.920897     20.40064     42.07784        10     1.093     0.676  21.95   0
        73    571.4247    772.3718 300.1168550 +22.7892235     955.8911     72.29084      1.748     4.23     5.439552     20.40064     79.48064        18     1.140     1.096  -9.20   0
        74    582.1277    770.5816 300.1207711 +22.7919160     641.3304     72.30926      1.968     6.03     5.442078     20.40064     52.83628        13     1.109     1.014   0.13   0
        75    903.2573    769.0984 300.2213732 +22.8876716     281.1167     72.40129      1.328     3.80     5.703359     20.40064     30.89991         5     1.178     0.353 -76.70   0
        76    687.9703    767.0048 300.1549167 +22.8225962       415.84     72.29084      1.715     6.12     5.526295     20.40064     41.03987         9     1.274     0.828 -15.47   0
        77    482.4753    764.3659 300.0917499 +22.7602709     290.5129     72.30926      1.655     4.06     5.448763     20.40064     33.26373         5     0.960     0.507 -45.61   0
        78    725.4898    757.2379 300.1697854 +22.8310279     804.8719     72.29084      1.794     5.49      5.56953     20.40064     63.76079        18     1.282     1.161  48.82   0
        79    334.3571    754.3239 300.0489001 +22.7129951     31892.85     72.29084      1.873     3.94     5.602675     20.40064     2501.009        78     1.554     1.518  57.75   0
        80    348.5804    754.8021 300.0531714 +22.7173957     2009.019     72.23555      1.891     4.18     5.597741     20.40064     149.7614        30     1.391     1.271  38.54   2
        81    345.6682    749.1111 300.0541136 +22.7148888     701.2997     72.45645      2.269     4.57     5.583192     20.40064     50.15352        12     1.151     0.765  28.47   3
        82    857.5003    750.6059 300.2131064 +22.8686551     2835.799     72.19866      1.883     4.59     5.700247     20.40064     165.5827        34     1.414     1.343  55.33   0
        83    615.3096    746.6002 300.1389005 +22.7949674     935.7505     72.18021      1.737     4.79     5.457092     20.40064     69.52859        18     1.261     1.083  61.48   0
        84    451.8678    746.4489 300.0880390 +22.7459529     473.6781     72.30926      1.913     5.34     5.494466     20.40064     37.54729         7     1.132     0.711 -64.92   0
        85    216.7329    746.0293 300.0149971 +22.6753523     851.1859     72.29084      1.835     5.32     5.661252     20.40064     61.25097        17     1.247     1.056  30.17   0
        86    509.7926    744.1706 300.1068179 +22.7626560      209.683     72.30926      1.063     3.16     5.434787     20.40064     37.40855         5     0.721     0.692  44.94   0
        87    462.7651    741.2426 300.0931235 +22.7477232     869.9522     72.36449      1.719     4.03     5.477111     20.40064     76.64093        15     1.167     0.982  53.69   0
        88     22.4361    741.0800 299.9561930 +22.6156683     508.2105     72.25398      1.815     4.84     5.766814     20.40064     39.36334         8     1.259     0.527  69.04   0
        89    863.7862    738.1394 300.2191170 +22.8669536      552.981     72.27242      1.860     4.48     5.714372     20.40064     47.52286        11     1.173     0.802  11.63   0
        90    364.5441    737.6298 300.0637181 +22.7172496     314.4117     72.32767      1.794     5.28     5.550492     20.40064     30.14332         5     1.044     0.754 -87.65   0
        91    320.5554    737.0302 300.0502222 +22.7038926     425.8647     72.34608      2.136     5.02     5.560573     20.40064     47.99931         6     1.097     0.649 -65.86   0
        92    408.6206    736.4803 300.0778121 +22.7301296     339.7826     72.29084      1.821     4.20     5.553648     20.40064     31.00702         6     1.138     0.443 -12.71   0
        93     51.1093    734.6110 299.9672061 +22.6224115     633.3887     72.25398      2.609     4.73     5.758803     20.40064     35.91464         6     0.951     0.667 -83.14   0
        94    841.0021    732.8826 300.2137177 +22.8586205     392.7516     72.21711      1.735     5.71      5.71897     20.40064     31.14215        10     1.108     0.830  80.61   0
        95    215.3724    730.5105 300.0196145 +22.6704896     425.2516     72.29084      1.392     3.08     5.571733     20.40064     55.16937         7     0.839     0.663  71.93   0
        96    538.3333    720.8591 300.1232798 +22.7645110     383.0123     72.34608      1.503     4.11     5.448403     20.40064     49.27707         7     1.034     0.467  86.04   0
        97    507.3621    719.4614 300.1140869 +22.7548301     562.3565     72.32767      1.601     4.08     5.465715     20.40064     50.34252         9     0.984     0.647 -23.69   0
        98    923.9416    715.8992 300.2451089 +22.8785697     4603.507     72.40129      1.916     4.20      5.76651     20.40064     287.2703        44     1.534     1.413 -74.93   0
        99    529.4130    716.8913 300.1217899 +22.7606986     1351.721     72.25398      1.708     4.24     5.459907     20.40064     106.9754        23     1.333     1.117 -12.25   0
       100    912.1986    707.3347 300.2442267 +22.8725918     1808.795     72.29084      2.031     4.95     5.806638     20.40064     112.4241        28     1.578     1.393 -42.08   0
       101    275.2920    700.6716 300.0479464 +22.6798856     917.2616     72.45645      1.826     4.71     5.520906     20.40064     66.99728        16     1.192     1.017  66.55   0
       102    738.6954    698.4457 300.1929996 +22.8180865     2551.623     72.32767      1.801     4.01     5.839977     20.40064     176.7979        27     1.294     1.197  20.45   0
       103    344.2674    700.0353 300.0696174 +22.7003768     2677.464     72.30926      0.537     0.86     5.523137     20.40064     1752.826         8     0.538     0.295   7.01   0
       104    943.5814    697.4850 300.2572183 +22.8791543     1653.235     72.25398      1.871     4.37     5.784393     20.40064     99.98761        28     1.404     1.260  -8.39   0
       105    821.4503    685.0565 300.2231536 +22.8390179     488.7448     72.34608      1.665     5.70     5.945062     20.40064     51.65751        13     1.410     0.936  15.38   0
       106    124.3862    684.8035 300.0061621 +22.6300901     663.6981     72.16177      1.955     4.62     5.751377     20.40064     59.08487        12     1.265     1.025 -22.00   0
       107    857.2792    675.4822 300.2374385 +22.8469924     148852.9     72.43807      1.832     3.92     6.014322     20.40064     10162.05       147     1.639     1.546 -70.21   0
       108    619.6785    679.4529 300.1620712 +22.7769828     390.7012     72.34608      1.566     5.13     5.553607     20.40064     41.36456         7     1.131     0.657   8.34   0
       109   1004.2676    677.3054 300.2827122 +22.8915157     1311.792     72.45645      2.029     5.13     5.674116     20.40064       78.187        27     1.471     1.346  43.16   0
       110    709.2606    675.6758 300.1912182 +22.8027273     826.1085     72.36449      1.778     4.71      5.84006     20.40064     51.20382        18     1.189     1.106 -85.96   0
       111    889.9356    668.2015 300.2499904 +22.8546754     448.8099     72.30926      1.904     5.80      5.96275     20.40064     36.42296         9     1.392     0.680 -19.05   0
       112    543.6185    664.2882 300.1432985 +22.7498419     1770.317     72.25398      1.759     3.44      5.60209     20.40064     144.1021        24     1.206     1.191 -67.70   0
       113    724.7708    661.5512 300.2006403 +22.8033124     9450.744     72.32767      1.715     3.68     5.952525     20.40064     741.5836        46     1.392     1.320 -69.25   0
       114    206.3421    663.5472 300.0385520 +22.6485583     282.2411     72.36449      1.758     6.21     5.549898     20.40064     34.95506         7     1.406     0.770 -17.44   0
       115    226.1379    656.3067 300.0470607 +22.6524134     5041.736     72.40129      1.840     3.51     5.492366     20.40064     444.1928        45     1.442     1.432 -60.97   0
       116    308.3422    654.6076 300.0731888 +22.6765643     1199.859     72.29084      1.752     3.89     5.567715     20.40064      101.417        20     1.226     1.124  47.95   0
       117    183.8520    652.4113 300.0351726 +22.6386193     398.4515     72.30926      1.671     5.82     5.705383     20.40064     35.19602         7     1.381     0.689 -29.33   0
       118    516.5527    650.4218 300.1393703 +22.7377498     684.1345     72.32767      1.668     3.69     5.742375     20.40064      57.9067        13     1.078     0.819 -25.29   0
       119    508.1677    642.2015 300.1394278 +22.7328761     3290.206     72.27242      1.655     3.39     5.830877     20.40064     274.4591        30     1.256     1.243 -22.52   0
       120    498.4203    636.0342 300.1383944 +22.7281841     1574.361     72.32767      1.712     3.41     5.911716     20.40064     131.9692        24     1.293     1.084  -0.31   0
       121    891.9283    634.3939 300.2615904 +22.8455509     525.1403     72.25398      1.984     6.01     5.912437     20.40064     38.35741         9     1.112     0.912 -82.05   0
       122    427.3091    634.9917 300.1165888 +22.7065799     261.2242     72.21711      1.579     4.16     5.963158     20.40064     30.13767         5     0.821     0.601  -1.05   0
       123    161.9344    632.2263 300.0349097 +22.6262539     694.9546     72.29084      1.705     6.28     5.854636     20.40064     51.66024        11     1.358     0.816  -1.67   0
       124    176.3454    630.5765 300.0399271 +22.6301003       709.64     72.32767      2.124     6.88     5.804467     20.40064     49.31828        13     1.554     0.855 -31.61   0
       125    945.0873    627.6861 300.2803552 +22.8595333     541.8873     72.43807      2.005     4.22     5.884922     20.40064     49.77567        10     1.161     0.843  14.24   0
       126    202.6023    627.0258 300.0492465 +22.6369515     525.8783     72.25398      1.840     5.32     5.720009     20.40064     46.63592        11     1.328     0.602  82.33   0
       127    423.1675    625.5903 300.1183517 +22.7026384     1618.677     72.30926      1.579     3.37     5.976329     20.40064     164.9568        25     1.224     1.170 -14.23   0
       128    522.6259    626.3391 300.1490814 +22.7326497      444.327     72.30926      1.726     4.39     5.930463     20.40064     39.06439         7     0.970     0.564 -32.04   0
       129    457.8447    625.3190 300.1292373 +22.7129499     282.3171     72.29084      1.400     3.81     6.037032     20.40064     38.13723         6     0.941     0.541 -64.78   0
       130    999.1780    623.3850 300.2986333 +22.8744844     827.0886     72.30926      1.832     5.80     5.930346     20.40064     54.92812        16     1.201     1.127 -60.25   0
       131     77.1279    620.3396 300.0123996 +22.5974170     19603.43     72.34608      1.971     3.97     6.171598     20.40064     1734.163        69     1.609     1.559  35.43   0
       132    508.3250    620.8727 300.1464019 +22.7267951     1073.063     72.36449      1.784     4.10     6.024626     20.40064     82.86454        22     1.327     1.100 -56.15   0
       133    543.4912    620.4090 300.1575063 +22.7371960     363.5146     72.23555      1.563     5.03     5.908044     20.40064     43.67126         7     1.043     0.687  44.65   0
       134    261.4767    612.8635 300.0721593 +22.6505309     300.7783     72.38289      1.338     4.48     5.717786     20.40064     48.56034         7     1.051     0.577  15.49   0
       135    926.4162    607.3597 300.2811287 +22.8480994     1139.232     72.32767      2.039     4.15     5.877057     20.40064     82.54673        21     1.222     1.164  -1.98   0
       136     23.0474    604.6663 300.0006773 +22.5767034     1570.835     72.32767      2.217     6.07     6.268862     20.40064     89.87646        35     1.839     1.372 -87.22   0
       137    793.0815    605.9103 300.2400063 +22.8077706      294.489     72.41968      1.358     2.72     5.994368     20.40064     55.62618         8     0.815     0.662  43.06   0
       138    471.5058    601.3356 300.1412777 +22.7101521     506.7335     72.41969      1.797     4.48     6.245428     20.40064     50.23368         9     1.221     0.809  58.18   0
       139    865.9616    600.3168 300.2645538 +22.8279792     1058.896     72.27242      3.092     9.36     5.871604     20.40064     61.03271        23     2.162     1.131   2.56   0
       140    428.1588    593.9410 300.1301806 +22.6950417     738.8585     72.30926      1.521     3.62      6.08711     20.40064     69.18683        15     1.114     0.919 -16.66   0
       141    575.8877    592.4744 300.1766678 +22.7388720     406.6243     72.45645      1.426     4.87     6.150193     20.40064      45.3341        13     1.089     0.962  88.96   0
       142    623.7359    591.2887 300.1919618 +22.7528611     480.9781     72.43807      1.690     5.86     6.112012     20.40064     39.56852        10     1.070     0.904  61.80   0
       143    593.7260    590.8734 300.1827455 +22.7437544     701.9745     72.36449      1.529     4.01     6.142075     20.40064     55.99806        13     1.039     0.909  23.78   0
       144    472.6311    589.8329 300.1453622 +22.7071843     1013.561     72.32767      1.854     4.38     6.294255     20.40064     92.16401        18     1.321     0.961  35.68   0
       145    906.3881    585.5803 300.2819502 +22.8358414     3340.548     72.27242      1.795     3.74     5.860701     20.40064     252.4129        36     1.401     1.343  68.61   0
       146    437.9251    585.2367 300.1360470 +22.6954668     1652.688     72.25398      1.602     3.34     6.167477     20.40064     155.0912        21     1.178     1.065  51.73   0
       147   1004.2773    583.9002 300.3130444 +22.8646529     669.5282     72.47483      1.817     7.18     6.009802     20.40064     51.49311        17     1.272     1.136 -29.59   0
       148    803.2247    582.9319 300.2506294 +22.8042004     295.6459     72.29084      1.352     3.76     5.924939     20.40064     38.75736         5     0.796     0.511  34.26   0
       149      1.3643    578.6074 300.0023970 +22.5627223     2062.333     56.37077      1.131     3.10     6.251874     20.40064     408.5397        14     1.240     0.544  87.03  24
       150    945.9713    575.5664 300.2975525 +22.8448078     385.5885     72.32767      1.570     5.61     5.888717     20.40064      35.9278        10     1.165     0.762   6.54   0
       151    301.3958    571.7762 300.0979178 +22.6506936     9317.047     72.27242      1.726     3.50     5.872934     20.40064     888.7338        46     1.391     1.348  85.44   0
       152    423.8770    569.0153 300.1369385 +22.6865979     9104.079     72.32767      1.612     3.19     6.177159     20.40064     793.3514        45     1.344     1.285  39.52   0
       153    920.2496    560.6290 300.2943750 +22.8328138     12665.28     72.32767      1.765     3.59     5.841229     20.40064     991.0997        54     1.453     1.398 -86.28   0
       154    835.6003    563.1041 300.2671636 +22.8081903     1954.073     72.18021      1.669     3.41     5.857537     20.40064     163.9341        27     1.365     1.138 -66.28   0
       155    484.4850    558.6080 300.1591895 +22.7017631     11693.08     72.23555      1.633     3.12     6.457477     20.40064     1188.488        46     1.331     1.260  74.20   0
       156    653.9008    554.7546 300.2132218 +22.7513929     500.5477     72.32767      1.479     3.74     6.212475     20.40064     49.88128        11     0.889     0.871 -84.33   0
       157    211.8808    553.6957 300.0759360 +22.6186755     1327.198     72.43807      1.754     4.26     6.013482     20.40064     117.5254        25     1.573     1.066  45.10   0
       158    370.2671    553.8185 300.1251815 +22.6661710     222.3045     72.29084      1.266     4.61     6.187252     20.40064     35.68917         5     0.948     0.636 -62.49   0
       159    458.5982    551.1266 300.1535561 +22.6918593     449.1728     72.21711      1.809     5.39      6.39564     20.40064     39.64687         9     1.617     0.506  25.55   0
       160    416.0997    546.6991 300.1417603 +22.6778564     4525.915     72.54829      1.667     3.24     6.243048     20.40064      434.695        37     1.367     1.241  54.79   0
       161    758.9944    546.9519 300.2485161 +22.7806143     843.4368     72.29084      1.522     3.73     5.910802     20.40064     68.86831        14     1.052     0.958  34.92   0
       162    394.5001    545.3202 300.1354833 +22.6709895      1084.25     72.43807      1.488     3.24     6.251334     20.40064     132.0494        18     1.140     0.958  84.34   0
       163    148.9991    544.1831 300.0594658 +22.5970976     562.0735     72.19866      1.598     4.95     6.078068     20.40064     62.38895        14     1.198     1.023 -87.67   0
       164    835.9278    542.4089 300.2739832 +22.8023370     1559.369     72.29084      1.740     3.72     5.826838     20.40064      108.453        24     1.216     1.179  23.64   0
       165    532.8232    534.3405 300.1821217 +22.7092673     205822.9     72.29084      1.601     3.08     6.683274     20.40064     20653.05       194     1.560     1.498 -42.12   0
       166    356.7451    539.9274 300.1254809 +22.6581292     436.1188     72.30926      1.706     6.16     6.257995     20.40064     36.78206         8     1.321     0.808 -57.20   0
       167    716.4494    539.5306 300.2376601 +22.7657438     767.9014     72.30926      1.698     3.90     6.033676     20.40064     72.13283        17     1.130     1.030 -16.49   0
       168    174.0742    537.3086 300.0694951 +22.6026389     1957.638     72.45645      0.696     1.04      6.05324     20.40064     850.1696         6     0.509     0.329  88.13   2
       169    218.9174    534.0110 300.0845134 +22.6151311     3523.617     72.27242      1.713     3.60      6.05324     20.40064     300.4559        34     1.443     1.205  88.42   0
       170    785.2915    530.7230 300.2619836 +22.7838199     579.6963     72.45645      1.762     5.41     5.850698     20.40064     49.13175         9     1.008     0.819  67.27   0
       171    397.9934    530.9839 300.1412236 +22.6679171     308.6328     72.23555      1.821     3.77     6.272179     20.40064     25.24501         5     1.045     0.390 -32.78   0
       172    423.3739    514.8501 300.1543614 +22.6708844     2780.108     72.32767      1.710     3.16     6.316065     20.40064     264.1118        35     1.616     1.159  88.40   0
       173    267.8667    517.0303 300.1052526 +22.6249220     337.9227     72.30926      1.561     4.31     5.956772     20.40064     50.30567         7     0.773     0.683   2.68   0
       174    835.2321    511.2890 300.2838663 +22.7931790     372.6497     72.27242      1.513     4.84      5.80738     20.40064     56.17945         7     0.829     0.802  38.71   0
       175    740.8417    503.4447 300.2569763 +22.7626704     370.6629     72.38289      1.266     4.13     5.870306     20.40064     47.65615         7     0.894     0.601 -82.23   0
       176    820.4265    501.0011 300.2825871 +22.7857890      1706.51     72.25398      1.606     3.69     5.810289     20.40064     150.7334        23     1.251     1.117 -83.55   0
       177    691.6899    498.5817 300.2432311 +22.7465581     2562.144     72.23555      1.547     3.11     6.165531     20.40064     272.8039        26     1.272     1.036  69.09   0
       178    935.0992    492.6539 300.3210707 +22.8177047     1044.084     72.40129      2.651     5.96     5.776603     20.40064     60.19841        18     1.561     1.029  85.15   2
       179    900.6210    496.0402 300.3092136 +22.8083619     339.3992     72.34608      1.273     3.32     5.777456     20.40064      46.5402         5     0.924     0.349  44.42   0
       180    597.0304    495.0811 300.2148659 +22.7172107     372.2267     72.30926      1.461     4.33     6.536047     20.40064     49.56538         8     0.868     0.748  86.21   0
       181    479.1966    494.5058 300.1783460 +22.6817584     666.2939     72.21711      1.529     3.69     6.502894     20.40064     80.94724        14     1.265     0.788  -6.38   0
       182    949.1092    492.6416 300.3254467 +22.8218932      1418.99     72.30926      1.827     4.02     5.781942     20.40064     103.8099        25     1.328     1.163 -81.30   0
       183    820.8244    491.0399 300.2859437 +22.7830433      2346.95     72.34608      1.951     4.31     5.805336     20.40064     189.6751        32     1.631     1.173  76.43   0
       184    574.0349    489.4957 300.2095135 +22.7087195     824.9575     72.30926      2.288     4.23     6.628392     20.40064     55.76904         9     1.010     0.689  71.15   2
       185    359.8966    489.1685 300.1429338 +22.6444904      309.138     72.27242      1.504     4.56     6.334413     20.40064     30.02121         7     0.958     0.618  17.40   0
       186    858.9293    486.1525 300.2994155 +22.7930415     4307.913     72.29084      1.665     3.19     5.771918     20.40064     389.0539        39     1.344     1.315  64.38   0
       187    411.9893    487.7287 300.1596177 +22.6596812      327.306     72.30926      1.537     5.92     6.336034     20.40064     37.50318        10     1.253     0.787  73.68   0
       188    519.3949    482.2214 300.1948522 +22.6902665     358.8682     72.29084      1.258     2.77     6.636249     20.40064     50.47342         5     0.881     0.400  -8.24   0
       189    950.4645    476.8229 300.3310028 +22.8177478     741.3007     72.29084      1.740     4.74     5.763196     20.40064     57.66262        12     1.233     0.743  52.43   0
       190     91.0990    476.2081 300.0635197 +22.5602247     951.8989     72.18021      1.897     4.32     6.085763     20.40064     83.20669        18     1.187     1.080 -88.41   0
       191    752.1833    470.3443 300.2712535 +22.7565470     288.1486     72.29084      1.350     4.22     5.836116     20.40064     28.03811         6     0.764     0.664 -75.19   0
       192    947.1329    465.9565 300.3334891 +22.8136248     165.7958     72.29084      1.450     4.88     5.774427     20.40064     37.32919         6     1.181     0.572  57.48   0
       193     84.3347    465.7865 300.0647978 +22.5552047     566.6824     72.27242      2.315     5.00     6.103455     20.40064     51.43396         7     1.685     0.420 -41.77   0
       194    690.7921    460.9476 300.2551629 +22.7354684     335.7961     72.30926      1.239     4.65     6.190156     20.40064     46.98116         8     1.005     0.610  18.13   0
       195    300.2673    458.7776 300.1342359 +22.6178955       179.41     72.30926      1.181     3.54     6.146849     20.40064     33.38643         5     0.732     0.689  17.58   0
       196    632.4402    456.7358 300.2383423 +22.7167889     756.9382     72.27242      1.519     3.06     6.419711     20.40064     87.03427        12     0.999     0.834 -31.35   0
       197    611.1236    455.3684 300.2321431 +22.7100138     186.4469     72.30926      1.044     3.47     6.459311     20.40064     32.42414         5     0.827     0.421  19.35   0
       198    946.9072    448.9319 300.3389426 +22.8086592      677.915     72.43807      1.928     4.34     5.790912     20.40064      64.9637        14     1.168     0.980  80.07   0
       199    693.1219    448.8610 300.2598107 +22.7326904     787.4695     72.36449      1.435     3.30     6.178545     20.40064     84.75173        13     1.036     0.835  51.95   0
       200    850.3500    445.4347 300.3099510 +22.7787620     1008.453     72.32767      1.602     3.31     5.853212     20.40064     90.60864        16     1.243     0.761 -11.40   0
       201    834.8983    441.3916 300.3064430 +22.7729752     653.3425     72.18021      1.595     4.95     5.873374     20.40064       62.237        10     1.066     0.854 -52.92   0
       202    814.5786    441.8402 300.2999596 +22.7670234     337.8293     72.34608      1.284     3.49      5.88663     20.40064     31.76211         5     0.824     0.427  69.37   0
       203    578.9351    439.2351 300.2273476 +22.6957384     3188.818     72.30926      1.511     3.07     6.444968     20.40064     334.5963        25     1.168     1.112  84.29   0
       204    939.3713    438.6924 300.3399131 +22.8034586     598.2332     72.27242      1.727     4.32     5.808522     20.40064     44.55955        11     1.032     0.797  19.14   0
       205    349.9300    427.2382 300.1599240 +22.6237104     301.2586     72.27242      1.421     5.48     6.497982     20.40064     39.18251         7     0.972     0.870 -40.83   0
       206    419.0542    426.6664 300.1816283 +22.6442497     330.4187     72.36449      1.481     4.22     6.347182     20.40064      42.3604         7     0.857     0.631 -74.83   0
       207    990.4061    418.6100 300.3623560 +22.8129479     1250.792     72.16177      1.667     4.40     5.759344     20.40064     96.10603        19     1.182     1.123  85.14   0
       208    862.1678    418.4048 300.3224068 +22.7745227     553.5321     72.29084      1.467     2.94     5.903458     20.40064     63.42665        10     0.892     0.772  29.13   0
       209    948.8391    417.3352 300.3497964 +22.8001462     942.5529     72.29084      1.644     3.83     5.819037     20.40064     93.90524        19     1.217     1.088  88.57   0
       210    598.9410    415.6381 300.2412362 +22.6949439     294.4031     72.32767      1.296     3.81     6.349986     20.40064      32.2194         5     0.877     0.475  -5.45   0
       211    689.5628    413.2598 300.2702509 +22.7213876     1037.125     72.32767      1.562     2.97     6.221331     20.40064     118.0249        18     1.072     0.994 -74.78   0
       212    485.5104    413.4302 300.2066163 +22.6603469      429.891     72.27242      1.554     4.38     6.340662     20.40064     46.44398         7     0.982     0.555 -27.36   0
       213    193.4163    411.3711 300.1163712 +22.5722641     726.0477     72.30926      1.681     4.54      6.28428     20.40064     75.37839        16     1.330     0.998  77.33   0
       214    989.0829    405.8668 300.3660770 +22.8088851     4536.288     72.41968      1.746     3.53     5.776529     20.40064     328.6497        40     1.421     1.353 -86.97   0
       215    255.8761    406.9402 300.1372390 +22.5897040      3882.63     72.36449      1.608     3.20     6.453004     20.40064     368.1585        31     1.284     1.202  58.68   0
       216    203.0194    401.6084 300.1225249 +22.5723368     7665.015     72.27242      1.727     3.34     6.343711     20.40064     718.2123        42     1.390     1.313  65.12   0
       217    969.1178    396.9512 300.3627377 +22.8003473     1840.458     72.30926      1.723     3.41     5.814941     20.40064     148.6973        28     1.324     1.222 -51.59   0
       218    343.8661    395.9949 300.1681710 +22.6129162     4732.269     72.30926      1.556     3.04     6.538883     20.40064     456.9597        33     1.249     1.185  39.54   0
       219    588.1334    392.8286 300.2452675 +22.6851503     18717.57     72.30926      1.540     2.99     6.347249     20.40064     1861.555        55     1.356     1.245  74.17   0
       220    605.7142    393.0871 300.2506618 +22.6904877     912.8765     72.43807      2.038     7.08     6.359075     20.40064     57.30058        19     1.765     0.861 -33.49   0
       221    785.2119    383.1827 300.3098293 +22.7413631     348.0851     72.27242      1.437     4.73      6.00889     20.40064     48.82905         6     1.082     0.587 -25.28   0
       222    207.8122    379.8636 300.1310683 +22.5675259     361.1512     72.27242      1.434     5.02     6.391237     20.40064     40.03069         8     0.974     0.730 -13.54   0
       223    921.6069    375.8151 300.3547669 +22.7800527     703.9829     72.21711      1.552     3.86     5.887453     20.40064     63.83725        14     1.035     0.956 -18.06   0
       224    458.4134    373.7505 300.2110479 +22.6408272     314.1605     72.34608      1.845     6.62     6.281165     20.40064     30.97176        10     1.655     0.742  64.17   0
       225    142.7190    372.7270 300.1131373 +22.5459735      1964.11     72.43807      1.747     3.76     6.191516     20.40064     180.4113        29     1.347     1.245  45.23   0
       226    942.5561    363.0309 300.3654506 +22.7826408     1098.997     72.34608      1.614     3.98      5.88317     20.40064     118.7099        20     1.176     1.133  76.20   0
       227    528.7858    362.2072 300.2367097 +22.6585790     6736.604     72.19866      1.558     2.96     6.275154     20.40064     719.0147        42     1.377     1.175  86.58   0
       228    243.8811    361.7070 300.1481775 +22.5731146     583.2474     72.45645      1.507     3.30     6.506879     20.40064     76.52745        11     1.144     0.739 -26.05   0
       229    101.3993    354.6641 300.1061466 +22.5284044     566.6087     72.30926      1.787     6.05     6.338846     20.40064     49.72305        11     1.187     1.115 -16.60   0
       230    788.5275    354.6842 300.3201064 +22.7341573     347.2478     72.41969      1.521     4.27     6.069331     20.40064      42.2699         7     0.970     0.535  28.12   0
       231    733.1047    351.7158 300.3037871 +22.7167188     1187.981      72.4932      1.632     3.90     6.261846     20.40064     116.1553        18     1.230     1.019  67.20   0
       232    642.7188    353.2461 300.2751155 +22.6901079     536.4279     72.29084      1.592     3.55     6.380277     20.40064     51.21095         9     0.977     0.823  31.73   0
       233    435.4089    348.4711 300.2120828 +22.6266722      6176.96     72.29084      1.533     2.68      6.24837     20.40064      680.647        38     1.276     1.189  68.43   0
       234    827.4062    343.2249 300.3359485 +22.7424935     1435.396     72.29084      1.588     3.11     6.009665     20.40064     130.1469        22     1.278     1.045  65.12   0
       235    924.6272    343.4320 300.3662122 +22.7716379     722.5514     72.30926      1.575     3.89     5.925853     20.40064     68.26679        13     1.061     0.872 -23.75   0
       236    420.2826    337.0325 300.2110822 +22.6188548     624.6917     72.29084      1.882     5.38     6.248808     20.40064     51.04005        11     1.254     0.877  61.50   0
       237    502.8105    335.0207 300.2374351 +22.6429862     492.7919     72.29084      1.756     4.14     6.236371     20.40064     50.34868         6     1.040     0.471 -65.69   0
       238    780.7303    334.5132 300.3242164 +22.7260216      301.861     72.41969      1.434     3.96     6.144512     20.40064     39.75443         5     0.982     0.501  43.01   0
       239    800.1561    330.9760 300.3314216 +22.7308163     485.7846     72.34608      1.412     3.48     6.110848     20.40064     55.47373        11     0.969     0.862   9.58   0
       240    323.0214    327.5817 300.1838700 +22.5870125     2540.528     72.30926      1.603     2.94     6.542496     20.40064     269.1057        25     1.165     1.148 -20.76   0
       241     41.5572    324.8513 300.0972095 +22.5019101     1093.628     72.34608      2.013     3.63     6.421741     20.40064     108.5321        19     1.279     1.014 -46.22   0
       242    292.2719    316.9873 300.1777357 +22.5747586     29883.58     72.32767      1.632     3.08     6.486072     20.40064     2728.432        71     1.454     1.342  70.41   0
       243    827.1609    314.8618 300.3450697 +22.7342596     1453.031     72.30926      1.636     3.51     6.089688     20.40064     140.4879        21     1.202     1.067 -12.48   0
       244    782.5928    312.4364 300.3319561 +22.7202276     297.8951     72.30926      1.575     6.25     6.196794     20.40064     34.59014         9     1.242     0.884  52.79   0
       245    742.3044    303.7577 300.3222073 +22.7056762     484.8432     72.32767      1.325     3.91     6.249995     20.40064     64.71722         9     0.981     0.720  70.28   0
       246    166.6121    303.6502 300.1429670 +22.5332871     546.1683     72.34608      1.861     3.37     6.520974     20.40064     47.63891         7     0.833     0.683  15.01   0
       247    390.9220    302.6968 300.2130744 +22.6001934     565.6331     72.43807      1.617     3.58     6.384542     20.40064     51.80658         9     0.890     0.783  39.91   0
       248    702.7736    297.0982 300.3120420 +22.6919317     1901.391     72.25398      1.525     3.22     6.262464     20.40064     193.3336        23     1.234     1.004  65.36   0
       249    918.0470    289.7881 300.3815540 +22.7542320     565.7358     72.30926      1.610     4.51     6.030399     20.40064     62.79015        14     1.179     0.974  -0.97   0
       250    771.5839    283.2746 300.3379784 +22.7085440      208.321     72.30926      1.197     3.49     6.258893     20.40064     27.58959         5     0.777     0.452 -71.87   0
       251    364.5267    281.3979 300.2117628 +22.5861674      2165.92     72.21711      1.723     3.77      6.50483     20.40064     210.1457        25     1.346     1.059  76.14   0
       252    576.9452    280.6758 300.2781507 +22.6495514      316.291     72.34608      1.377     5.20     6.165554     20.40064     47.17276         8     1.019     0.748  59.54   0
       253    803.5184    274.8144 300.3506805 +22.7156638     620.8671     72.29084      1.653     3.56      6.25868     20.40064     72.70431        14     1.125     0.891 -52.99   0
       254    686.0056    272.2717 300.3148640 +22.6797726     420.0949     72.25398      1.334     2.78     6.256407     20.40064     54.98793         8     0.790     0.732 -15.18   0
       255    654.1251    271.4674 300.3051875 +22.6700012     300.9946     72.38289      1.251     3.35     6.235424     20.40064     40.46729         6     0.749     0.645 -54.25   0
       256    440.4773    261.0303 300.2420121 +22.6030520     1088.897     72.29084      1.473     2.83     6.243738     20.40064     129.0178        16     1.120     0.844  16.58   0
       257    686.0161    252.4874 300.3212811 +22.6740845     3225.216     72.25398      1.861     7.83     6.259173     20.40064     272.7833        29     1.586     1.082 -35.87   0
       258    946.6968    247.4268 300.4042282 +22.7506083     3214.753     72.25398      1.736     3.30     6.261182     20.40064     302.5886        33     1.353     1.242  84.84   0
       259   1007.8798    242.6196 300.4248829 +22.7675205     390.1479     72.30926      1.429     3.57     6.322134     20.40064     45.92932         5     0.853     0.431  17.70   0
       260    393.5319    236.8094 300.2352465 +22.5820337     623.6032     72.30926      1.297     2.90     6.329166     20.40064     73.48572         9     0.976     0.614 -21.04   0
       261   1015.9763    235.1922 300.4298181 +22.7678032     1780.922     72.30926      1.868     3.63     6.363105     20.40064      151.507        25     1.435     1.101  66.59  16
       262     68.3550    230.5281 300.1361172 +22.4828439     1426.822     72.29084      1.903     4.48     7.010668     20.40064     102.4893        28     1.376     1.360  36.67   0
       263     99.2870    230.7884 300.1456498 +22.4921849     471.3731     72.25398      1.289     3.77     6.842134     20.40064     73.79309        11     1.224     0.619 -24.78   0
       264    962.0888    228.7061 300.4151004 +22.7498225     501.4094      72.4932      1.636     5.60     6.359613     20.40064     43.92147        10     1.229     0.720  29.35   0
       265    806.5911    225.7165 300.3675552 +22.7024551     375.0802     72.25398      1.860     4.84     6.311077     20.40064     29.61511         5     1.047     0.634  27.69   0
       266    152.6738    222.6089 300.1649024 +22.5058261     472.2274     72.30926      1.566     4.93     6.781278     20.40064     45.24623         9     1.113     0.617 -35.70   0
       267    828.4797    216.9169 300.3772346 +22.7064701     290.2698     72.45645      1.400     5.32     6.318311     20.40064     35.32381         8     0.963     0.829  71.79   0
       268    756.8789    214.4998 300.3556878 +22.6843565     605.0341     72.43807      1.405     2.79     6.308947     20.40064     84.77303        11     0.978     0.752  43.22   0
       269    347.5963    213.9594 300.2283530 +22.5617117     389.7397     72.32767      1.744     3.81     6.532318     20.40064     39.35234         7     1.086     0.621   6.80   0
       270    847.4224    207.6058 300.3861614 +22.7094563     308.4286     72.29084      1.441     3.56      6.32479     20.40064     45.05445         7     1.051     0.572  42.66   0
       271    855.2695    203.3336 300.3899939 +22.7105737     2079.855     72.36449      1.675     3.16     6.328314     20.40064     233.8858        28     1.370     1.166 -65.00   0
       272    273.6799    200.3471 300.2097605 +22.5356667     2179.744     72.32767      1.699     3.35     6.674717     20.40064     225.3949        25     1.272     1.123  75.22   0
       273    753.4669    194.9623 300.3609562 +22.6777139     567.5898     72.29084      1.535     5.93     6.319192     20.40064     58.38675        11     1.315     0.753  87.20   0
       274    351.4759    195.7453 300.2354636 +22.5576368     1010.548     72.34608      1.437     3.06     6.677938     20.40064     114.0193        17     1.187     0.867   4.78   0
       275    860.2351    192.6519 300.3950050 +22.7089845     291.8335     72.32767      1.262     2.56     6.335454     20.40064     46.67273         5     0.720     0.447 -16.99   0
       276    168.3931    187.6165 300.1811317 +22.5004782      767.908     72.23555      1.813     4.76     6.927156     20.40064     66.63164        15     1.234     0.976  44.97   0
       277    286.6741    187.3740 300.2180082 +22.5358283     171.9231     72.32767      1.259     4.45     6.640209     20.40064     29.30423         6     1.064     0.530 -30.81   0
       278    706.2335    184.8305 300.3495130 +22.6606684     1798.045     72.32767      1.631     3.29     6.300379     20.40064     169.1646        22     1.193     0.995  51.76   0
       279    771.2009    184.6592 300.3698253 +22.6800539     484.8934     72.27242      1.318     3.67     6.331924     20.40064     55.23018        10     0.916     0.790   0.14   0
       280    190.3218    181.3557 300.1899813 +22.5052461     514.1987     72.30926      1.551     3.05     6.959043     20.40064     55.30562         8     0.928     0.580 -25.05   0
       281    977.7314    177.4839 300.4365846 +22.7397538     834.2748     72.41969      1.892     5.62      6.55205     20.40064     80.87466        16     1.326     1.191 -78.10   0
       282    710.1643    176.1479 300.3535523 +22.6593461     830.8162     72.32767      2.019     4.33     6.308096     20.40064     77.71069        16     1.227     0.999  53.61   0
       283    630.8275    175.4054 300.3290631 +22.6353963     1258.891     72.29084      1.504     2.82     6.263606     20.40064     145.9247        19     1.149     1.029  26.42   0
       284    451.8495    171.4160 300.2745984 +22.5806880     451.4285     72.34608      1.906     3.97     6.874403     20.40064     41.69894         6     0.982     0.706 -12.68   0
       285    826.4725    167.0934 300.3927561 +22.6915306     1484.781     72.43807      1.623     3.45     6.355903     20.40064     140.7728        21     1.205     1.065 -60.63   0
       286    556.8549    167.2645 300.3086511 +22.6109199     937.8157     72.36449      1.532     2.94     6.240594     20.40064     110.2552        16     1.023     0.925  65.73   0
       287    838.5760    166.4525 300.3967392 +22.6949660     863.0881     72.32767      1.687     3.60     6.356014     20.40064     72.68247        17     1.200     0.911  46.23   0
       288    885.1441    165.8115 300.4114746 +22.7087081     288.5334     72.29084      1.198     3.46     6.422441     20.40064     35.35206         6     0.741     0.581 -46.12   0
       289    999.2148    157.2576 300.4498452 +22.7403535      1668.02     72.27242      1.686     3.25     6.625329     20.40064     163.1164        23     1.294     1.079  81.37   0
       290    954.9255    156.6595 300.4362153 +22.7269395     1051.753     72.36449      1.562     3.46     6.610418     20.40064     103.7964        18     1.193     0.984   2.19   0
       291    189.3681    148.9030 300.2002002 +22.4956331     672.1646     72.27242      1.643     3.77     7.054043     20.40064     68.62988        12     1.050     0.811 -56.39   0
       292     50.9070    143.6939 300.1588317 +22.4526681     2290.708     72.47483      1.892     3.80     7.205883     20.40064     174.4718        34     1.475     1.353  35.53   0
       293    873.8843    141.4631 300.4158516 +22.6983321     529.9827     72.40129      1.390     3.76     6.501591     20.40064     85.10036        12     1.137     0.754  59.69   0
       294    208.3385    137.2300 300.2098833 +22.4979584     5770.012     72.32767      1.723     3.30     7.059248     20.40064     562.0006        42     1.449     1.253  59.26   0
       295   1007.3464    125.1638 300.4627830 +22.7335433     18461.02     72.32767      1.799     3.55     6.713501     20.40064     1782.057        62     1.567     1.413 -82.18   0
       296    191.8936    128.4574 300.2076100 +22.4905126     543.4329     72.36449      1.635     3.69     7.061144     20.40064     68.56585         8     1.035     0.545 -24.03   0
       297    852.5755    119.1302 300.4164401 +22.6855312     3609.293     72.30926      1.669     3.16     6.577926     20.40064     370.3872        37     1.413     1.264 -89.99   0
       298    956.3477    117.9553 300.4492003 +22.7162212      2882.46     72.32767      1.773     3.63     6.726148     20.40064     282.9661        34     1.483     1.257 -51.08   0
       299    402.1382    114.1364 300.2776786 +22.5493365     491.7963     72.34608      1.509     3.74     7.004892     20.40064     61.31349        13     1.132     0.870 -88.39   0
       300    155.2852    114.6384 300.2007004 +22.4755784     366.4407     72.29084      1.401     3.32     7.066434     20.40064     43.82557         5     0.724     0.468 -11.54   0
       301    326.0602    105.8934 300.2566663 +22.5241941     835.3935     72.40129      2.753     5.44     7.037038     20.40064     48.35197        10     1.055     0.792 -42.49   0
       302     92.2633    103.1715 300.1848171 +22.4534097     609.0754     72.30926      1.626     3.65     7.116884     20.40064     56.24113        11     1.058     0.713  -3.80   0
       303    453.2093    101.2921 300.2977423 +22.5609273     1791.638     72.23555      1.614     3.27      6.99794     20.40064     188.3674        25     1.349     1.104  62.01   0
       304    381.4830    101.9957 300.2751811 +22.5396628     493.6577     72.23555      1.534     3.16     7.033116     20.40064     50.18269         8     0.819     0.680  -5.27   0
       305    515.0646    101.3209 300.3169983 +22.5794457     350.8735     72.41969      1.081     3.33     6.966471     20.40064     51.20324         5     0.768     0.419  18.62   0
       306    196.2799     96.8252 300.2192219 +22.4827332     400.0637     72.29084      1.769     4.38     7.072209     20.40064       31.817         7     1.084     0.504  21.03   0
       307   1017.9048     82.4506 300.4799173 +22.7243992     3716.304     72.38289      1.892     3.80     6.791592     20.40064     315.5515        40     1.565     1.365 -75.08  16
       308    733.8098     82.5970 300.3912355 +22.6394974     305.2134     72.12484      1.286     4.09     6.565282     20.40064     35.36016         5     0.910     0.526 -52.23   0
       309    227.3604     81.0307 300.2340070 +22.4874982     6014.213     72.30926      1.722     3.26     7.048453     20.40064     617.7566        44     1.439     1.335  83.04   0
       310     78.8665     80.7207 300.1879242 +22.4429454     723.9396     72.41969      1.823     4.61      7.10781     20.40064     69.54286        13     1.544     0.733 -39.11   0
       311    856.8277     79.1327 300.4307246 +22.6752883     304.5904     72.29084      1.404     3.75     6.727137     20.40064     35.70231         6     0.755     0.571 -35.16   0
       312    198.7943     75.6830 300.2268525 +22.4774083     259.3915     72.23555      1.428     4.81     7.035307     20.40064     38.11267         9     1.129     0.596  13.46   0
       313    242.9443     72.4271 300.2416423 +22.4896902     438.2751     72.30926      1.968     4.78     7.041593     20.40064     40.65788         8     1.066     0.608 -22.62   0
       314    473.4157     66.6141 300.3152685 +22.5569993     6301.302     72.25398      1.643     2.93     6.910766     20.40064     661.6734        40     1.403     1.183  71.73   0
       315    358.8157     66.1288 300.2797429 +22.5225637     732.9303     72.30926      1.681     5.43     7.063734     20.40064     56.16817        15     1.269     0.957  67.65   0
       316    530.2889     61.4269 300.3346638 +22.5725243     367.7046     72.29084      1.377     3.52     6.930943     20.40064     35.91521         5     0.780     0.458  17.25   0
       317    667.0593     58.1111 300.3783575 +22.6124855     329.3703     72.38289      1.463     4.68     6.919536     20.40064     38.92416         5     0.961     0.647  28.02   0
       318    725.9692     56.3710 300.3972861 +22.6296042     995.4422     72.30926      2.031     4.79     6.696918     20.40064     84.94237        15     1.272     0.994  67.04   0
       319    818.4771     55.6725 300.4263609 +22.6570671     453.7465     72.40129      1.469     3.08     6.681393     20.40064      58.7219        10     0.925     0.784 -86.55   0
       320    166.6257     50.2712 300.2250770 +22.4604716     374.5217     72.30926      1.412     3.82     6.987373     20.40064     49.64157         9     0.980     0.726   9.85   0
       321    601.8436     46.7241 300.3617203 +22.5897009      6223.82     72.29084      1.617     3.18     6.921098     20.40064     626.7639        40     1.404     1.200  82.78   0
       322    524.7188     49.2846 300.3368614 +22.5673644      449.929     72.43807      1.391     3.66     6.903934     20.40064     52.78708         8     0.975     0.575  15.94   0
       323    376.6755     45.4678 300.2919946 +22.5219669     1569.544      72.3829      1.673     3.13     7.054586     20.40064     170.1107        22     1.243     1.043  85.22   0
       324    642.9458     44.1737 300.3753558 +22.6012619      835.741     72.34608      1.568     3.29     6.919536     20.40064     88.22537        16     1.123     0.909 -78.83   0
       325    713.3268     42.1897 300.3979377 +22.6217415     500.3825     72.30926      2.116     4.14     6.784854     20.40064     33.87854         6     0.752     0.651 -13.40   0
       326    658.8892     40.3425 300.3815660 +22.6049282     708.6302     72.36449      1.830     3.44     6.919536     20.40064     78.83069        12     1.041     0.873 -84.62   0
       327    928.8360     38.3132 300.4664141 +22.6850638     616.4076     72.29084      1.968     4.56     6.801304     20.40064     64.45066         9     1.395     0.652 -37.71   0
       328    125.8307     38.1241 300.2163236 +22.4447653     673.6848     72.30926      1.625     4.27     7.023128     20.40064      73.4925        11     1.331     0.718  -4.69   0
       329    697.1390     35.9187 300.3949221 +22.6150952     433.8343     72.40129      1.557     4.53     6.847298     20.40064     49.10838         9     0.976     0.820 -49.70   0
       330    661.1163     30.7875 300.3853548 +22.6028444     939.5172     72.27242      1.835     4.56     6.919536     20.40064     80.27307        18     1.521     0.886  51.56   0
       331    646.0340     31.5356 300.3804115 +22.5985485     2841.241     72.30926      1.669     3.48     6.919536     20.40064     281.8997        32     1.450     1.150  85.86   0
       332    287.1715     32.6176 300.2682977 +22.4914829     372.4397     72.30926      1.404     3.51     7.065015     20.40064     47.33687         9     0.865     0.773  41.66   0
       333    732.6912     23.5186 300.4100223 +22.6221583     1579.093     72.41969      1.652     3.39     6.781797     20.40064     150.4218        21     1.176     1.057  29.37   0
       334    892.3715     22.5847 300.4601299 +22.6696339     190.1421     72.32767      1.122     3.39     6.795387     20.40064     30.01128         5     1.029     0.323  68.43   0
       335    608.2271   1022.1983 300.0471158 +22.8719998     1781.103     63.94225      0.634     1.05     5.256406     20.40064     933.8819         7     0.488     0.448 -60.87  16
       336    275.9866   1012.4968 299.9468284 +22.7695935     319.2811     72.19866      1.390     5.33     19.95579     20.40064     60.11095        10     1.105     0.726 -62.76   0
       337     48.8850     15.8645 300.1996077 +22.4153267     586.0883     72.40129      1.524     3.30     7.103416     20.40064     64.16573        10     1.055     0.636  15.60   0
       338    109.9511   1007.8882 299.8966889 +22.7184620     1488.437     72.30926      3.557    12.49     91.03248     20.40064     52.53256        36     2.473     1.755 -24.68   0
       339    178.8246   1003.2038 299.9196276 +22.7377817     2291.163     72.27242      3.820    25.73     80.48553     20.40064      54.2589       141     4.615     3.984  41.35  19
       340    179.5124    986.2540 299.9253527 +22.7331257      4281.17     72.32767      8.354    22.33     65.50322     20.40064     94.36768       274     5.217     4.664  66.94   3
       341    198.5077    985.1312 299.9316254 +22.7385018     4981.372     72.43807      9.951    34.60     59.21631     20.40064      103.474       502     7.702     5.406 -53.55  19
       342    217.5236    973.6465 299.9412739 +22.7409110     7390.725     72.30926      8.104    30.22     45.40802     20.40064     170.0092       723    10.335     4.953  60.40  18
