#   1 NUMBER                 Running object number                                     
#   2 X_IMAGE                Object position along x                                    [pixel]
#   3 Y_IMAGE                Object position along y                                    [pixel]
#   4 ALPHA_J2000            Right ascension of barycenter (J2000)                      [deg]
#   5 DELTA_J2000            Declination of barycenter (J2000)                          [deg]
#   6 FLUX_APER              Flux vector within fixed circular aperture(s)              [count]
#   7 FLUXERR_APER           RMS error vector for aperture flux(es)                     [count]
#   8 FLUX_RADIUS            Fraction-of-light radii                                    [pixel]
#   9 FWHM_IMAGE             FWHM assuming a gaussian core                              [pixel]
#  10 BACKGROUND             Background at centroid position                            [count]
#  11 THRESHOLD              Detection threshold above background                       [count]
#  12 FLUX_MAX               Peak flux above background                                 [count]
#  13 ISOAREA_IMAGE          Isophotal area above Analysis threshold                    [pixel**2]
#  14 A_IMAGE                Profile RMS along major axis                               [pixel]
#  15 B_IMAGE                Profile RMS along minor axis                               [pixel]
#  16 THETA_IMAGE            Position angle (CCW/x)                                     [deg]
#  17 FLAGS                  Extraction flags                                          
         1    583.6295     17.5000 300.3948839 +22.5626740     1359.939     72.36687      1.322     2.52     4.708447     20.43251     173.2183        17     0.984     0.938  63.81   0
         2    227.6035     14.6258 300.2850483 +22.4552043     442.4958     72.38532      1.211     2.53     3.992023     20.43251     70.27891        10     0.827     0.782 -55.06   0
         3    403.9305     11.4556 300.3409137 +22.5071195     2264.288     72.44067      1.350     2.33     4.302664     20.43251       326.86        22     1.064     0.990  76.01   0
         4     50.9708      9.5979 300.2317875 +22.4008247     1468.666     72.38532      1.554     2.89     4.862906     20.43251      152.209        19     1.123     0.945  13.73   0
         5    894.7058      8.9612 300.4945747 +22.6533352     355.1529     72.42223      1.241     2.07        4.611     20.43251     54.02054         7     0.694     0.636  88.04   0
         6    534.8724      6.2146 300.3833629 +22.5448299       559.05     72.42223      1.373     3.01     3.669015     20.43251     67.66819         6     0.700     0.566 -18.13   0
         7    193.6450      3.0214 300.2782537 +22.4416955     235.6455     65.13838      1.266     4.43     4.520393     20.43251     37.71746         7     0.905     0.616 -65.89  16
         8    103.5245   1022.8991 299.9189541 +22.7072311     1429.998     60.70072     13.530    15.00     31.36775     20.43251     51.59401        47     3.665     1.707   0.65  27
         9    610.0687   1022.6485 300.0765673 +22.8592243     5770.944     61.87779      1.562     3.61     2.910084     20.43251     476.7166        33     1.339     1.106   4.51  24
        10    179.2805   1023.3582 299.9423418 +22.7301143     1264.451     58.16056     11.340    21.04     15.36577     20.43251     54.76276        62     4.728     2.599   0.77  27
        11    193.0863   1021.9815 299.9470802 +22.7338658     1758.727     65.01521      9.518    21.65      12.6468     20.43251     61.12465        88     6.781     1.920  47.97  27
        12    187.0962   1022.9796 299.9448939 +22.7323530     824.6958     60.10354      3.302     9.29     13.86033     20.43251     61.23204        18     2.494     0.965 -42.02  27
        13    122.7832   1021.1420 299.9255090 +22.7125119     1415.858      68.3998      6.771     9.16     26.71898     20.43251     52.27242        20     1.684     1.391  57.80  26
        14     85.7365   1022.2471 299.9136409 +22.7017015     1636.503     63.83321     12.663    15.23     37.15598     20.43251     56.60563        53     3.914     1.647  12.66  27
        15     57.6603   1022.9578 299.9046890 +22.6934719     954.2646     60.32541      7.045     8.33      49.1171     20.43251     40.19103        17     2.062     0.939  -0.79  27
        16     46.0734    976.2095 299.9163064 +22.6765987     1255.172     72.42223      6.098    12.16     29.88531     20.43251     42.21119        25     3.377     1.219 -55.46   3
        17     30.7622    983.8533 299.9090636 +22.6741897     1827.869     72.44067      4.957    16.53     37.53238     20.43251     51.67941        57     3.506     2.167  89.09   3
        18     49.3260    995.7996 299.9109406 +22.6831881     1375.771     72.29298     10.674    13.41     39.31865     20.43251     53.01598        37     2.760     1.814 -34.61   3
        19     39.5037    989.6941 299.9098773 +22.6784887     2244.514     72.60646      9.077    23.91     38.67527     20.43251     61.51447       149     5.412     2.933 -22.42   3
        20     41.1100    977.6611 299.9142925 +22.6755238     1258.732      72.5144      4.199     8.42     31.95208     20.43251     54.39933        22     2.057     0.963 -81.65   3
        21     40.8397   1021.3699 299.8999819 +22.6879644     2929.858     67.61401      5.155    19.23     55.10198     20.43251     82.06686       116     4.845     2.121   1.61  27
        22     36.4895   1010.7983 299.9020721 +22.6836292     3057.011     72.32993      8.547    27.85     51.51772     20.43251     63.72278       218     5.054     4.261  65.96  19
        23     54.4706   1007.0182 299.9088868 +22.6879474     1160.505     72.45911      6.817     7.33     43.12678     20.43251     42.57791        13     1.600     0.940 -59.15   3
        24     70.0584   1007.6920 299.9135089 +22.6928225     1956.112     72.47755     13.818    16.05     38.06883     20.43251     57.67992        67     2.957     2.422  -8.16  19
        25    342.9612   1008.2869 299.9981301 +22.7749406     6759.837     72.40378      1.692     3.39     2.566373     20.43251     621.0183        44     1.392     1.316 -36.31   0
        26     63.5155   1012.6265 299.9098705 +22.6922709     1067.914     72.40378      7.333     7.33     42.30486     20.43251     43.86676        10     1.656     0.909 -87.75  19
        27     59.6710   1014.1811 299.9081704 +22.6915615     1178.701     72.45911      5.010     5.35      44.2319     20.43251     37.03278        10     1.222     0.660 -67.18   3
        28    375.1048    995.3669 300.0123322 +22.7808858     669.9131     72.40378      2.069     4.09     2.744519     20.43251     52.53169         9     1.124     0.621 -43.76   0
        29    412.5356   1010.1003 300.0191790 +22.7963453     986.4827      72.5144      1.572     3.23      2.63557     20.43251     102.7928        17     1.137     0.949 -66.42   0
        30     36.1662    978.3801 299.9125232 +22.6742449     1847.134     72.44067      4.023    12.40     32.98837     20.43251     57.19956        45     2.434     1.757 -86.58   3
        31    816.7969    991.3694 300.1511425 +22.9122639     250.5186     72.38532      1.063     4.19     2.888104     20.43251     32.37953         6     0.750     0.669  58.96   0
        32    889.3340    986.8059 300.1752361 +22.9327065     2115.377     72.42223      1.727     3.66     2.948053     20.43251     144.8325        27     1.262     1.207  -8.32   0
        33    539.6684    984.4561 300.0670850 +22.8271461     403.7505     72.44067      1.709     5.19     3.207458     20.43251     44.99051         8     1.009     0.778 -29.40   0
        34    387.1490    983.4451 300.0199589 +22.7810831     395.8645     72.44067      1.573     5.05     2.886991     20.43251     35.89453         7     0.955     0.756  48.71   0
        35    678.4673    976.0397 300.1130385 +22.8663746     837.3318     72.38532      1.862     7.24     2.967392     20.43251     57.06025        17     1.627     0.902  44.48   0
        36   1004.8719    974.9615 300.2151171 +22.9639464     494.2086     72.38532      1.767     6.27     2.929901     20.43251     38.90274        14     1.249     1.081 -19.82   0
        37     55.8885    974.1838 299.9200140 +22.6789663     972.7217      72.3484      3.023     7.85     26.96725     20.43251      40.8165        10     2.236     0.770 -85.10   0
        38    712.8356    969.9465 300.1257262 +22.8749357     1043.932     72.44067      1.600     3.77      2.91723     20.43251      89.6264        18     1.145     1.038   2.58   0
        39    490.5020    970.8342 300.0562176 +22.8084856      280.207     72.40378      1.257     4.65     3.127591     20.43251     34.59346         8     1.092     0.753 -69.62   0
        40    735.1896    963.6152 300.1347503 +22.8798240     11225.14     72.32993      1.596     3.18     2.889456     20.43251     919.0521        49     1.325     1.279 -67.43   0
        41    780.4831    963.3381 300.1489516 +22.8933290     479.5186      72.5144      1.363     3.01     2.923637     20.43251     56.09878        11     0.914     0.823 -11.79   0
        42    926.1572    962.9304 300.1944876 +22.9368942     444.4776     72.38532      1.501     5.53     3.009433     20.43251     51.06354        10     1.000     0.965  57.59   0
        43    867.6819    956.9460 300.1782066 +22.9176435     445.0671     72.45911      1.930     5.18     3.042851     20.43251     34.49217         6     1.071     0.707  69.47   0
        44     46.7613    955.4666 299.9232707 +22.6708623     201.1325     72.38532      1.301     6.03      18.9643     20.43251     42.49304        10     1.072     0.953  29.77   0
        45    440.6204    951.9705 300.0468366 +22.7881067     379.5013     72.42223      1.330     3.54     3.243914     20.43251     47.72786         6     0.840     0.601  48.77   0
        46    787.1362    951.0430 300.1550264 +22.8917959     460.7673     72.42223      1.573     5.11     2.954572     20.43251     46.57127         9     0.987     0.748  -2.66   0
        47    743.7670    945.7947 300.1432226 +22.8772831     1500.735     72.40378      1.625     3.24       2.9082     20.43251     135.0352        21     1.135     1.034  69.36   0
        48    927.1351    944.9528 300.2006440 +22.9320266     503.8107     72.45911      1.723     5.94     3.056467     20.43251     34.96422        11     1.152     0.862  57.66   0
        49    596.0700    943.1899 300.0980733 +22.8322321     379.9677     72.40378      1.676     5.42     3.124575     20.43251     43.55241        10     1.298     0.638  49.67   0
        50    781.6863    939.0901 300.1572186 +22.8867313     723.5347     72.58806      1.575     4.97     2.972017     20.43251     65.44792        14     1.035     0.982 -28.78   0
        51    890.2080    935.9284 300.1920690 +22.9183648     392.7383     72.40378      1.672     6.24     3.097892     20.43251      32.7896        10     1.158     0.944 -63.93   0
        52    830.2867    930.4135 300.1751870 +22.8988150     456.2342     72.36687      1.425     3.52     3.071036     20.43251     52.65671         8     0.910     0.634  11.68   0
        53    681.6570    929.3989 300.1292121 +22.8539496     626.0808     72.36687      1.482     3.18     2.965867     20.43251     83.91016        15     1.036     0.927  84.26   0
        54    285.0803    929.2370 300.0058607 +22.7349037     231.2924     72.38532      1.337     5.05     3.616964     20.43251     41.90381         6     1.097     0.696  -1.10   0
        55    394.2060    925.9275 300.0408732 +22.7667091     4139.426     72.36687      1.486     2.93     3.482972     20.43251     443.5544        31     1.171     1.146 -80.10   0
        56    692.7935    926.5893 300.1335950 +22.8564837     581.6252     72.29298      1.462     4.19     2.970524     20.43251     66.11169        13     1.202     0.848 -30.65   0
        57    437.9315    913.9932 300.0583589 +22.7764088     417.5117     72.38532      1.508     5.34     3.535738     20.43251     44.49741         9     1.189     0.819  30.85   0
        58    119.6842    911.8101 299.9601282 +22.6802517     793.4327     72.38532      1.614     4.28     5.699575     20.43251     80.05704        15     1.294     0.834  66.06   0
        59     28.5777    909.9485 299.9324350 +22.6523591     632.1945     72.42223      2.150     4.86     4.971472     20.43251     43.23682        10     1.095     0.741  65.28   0
        60     96.5393    908.7883 299.9539212 +22.6724358     1579.348     72.38532      1.737     3.46     5.857904     20.43251     154.8773        22     1.254     1.125   1.38   0
        61    968.3232    897.4382 300.2289502 +22.9307324     2014.207     72.40378      1.671     3.71     3.241556     20.43251     150.9893        26     1.256     1.171  18.08   0
        62    922.3911    896.0773 300.2150710 +22.9165729     2134.639     72.38532      1.613     3.23     3.321279     20.43251     172.8876        25     1.280     1.132 -39.77   0
        63    627.7696    896.3796 300.1231761 +22.8283119     451.4183     72.42223      1.598     4.93     3.234205     20.43251     32.73648         8     1.286     0.536 -46.56   0
        64    399.7132    895.2310 300.0525747 +22.7595592     185.9807     72.40378      1.127     3.87     3.672405     20.43251     31.54495         5     0.914     0.469 -43.75   0
        65   1019.0104    892.0018 300.2465273 +22.9443639     255.7725     72.23753      1.255     3.77     3.164894     20.43251     28.46994         5     1.058     0.386  56.26  16
        66    129.1512    890.4498 299.9700192 +22.6769725     431.9618     72.45911      1.532     3.55     4.776955     20.43251     50.77756         6     0.910     0.561  65.53   0
        67    706.0460    889.8847 300.1496668 +22.8499259     526.7557     72.40378      1.470     4.64     3.285266     20.43251     58.18938        13     1.072     1.038 -64.81   0
        68    574.1756    883.9675 300.1105289 +22.8086741     4725.515     72.40378      1.407     2.62     3.419093     20.43251     511.6796        34     1.206     1.107 -28.68   0
        69     64.3084    884.5118 299.9518079 +22.6558003     421.0584     72.58806      1.585     3.70       4.6992     20.43251     48.72207         9     0.985     0.890   2.35   0
        70    376.5333    881.2346 300.0499186 +22.7485891     522.4376     72.42223      1.308     2.90     3.758543     20.43251     65.37267        12     0.956     0.780 -46.23   0
        71    594.6828    876.4179 300.1193695 +22.8126598    -2850.036     72.36687      1.466     3.29     3.385236     20.43251     84.46484        15     1.104     0.948  44.09   0
        72    124.3267    878.0710 299.9725476 +22.6719760      1263.87     72.49598      1.583     3.49      4.37781     20.43251       150.01        19     1.201     1.015  15.01   0
        73    144.2935    874.9052 299.9797811 +22.6770635     343.7791     72.58806      1.397     4.00     4.092108     20.43251     54.77362         5     0.969     0.472  41.11   0
        74    750.2016    863.7520 300.1719246 +22.8556676     4135.492     72.40378      1.439     2.73     3.628363     20.43251       425.97        31     1.224     1.077  77.31   0
        75    511.3044    867.0705 300.0964573 +22.7849655     256.1018     72.53282      1.219     4.21     3.597106     20.43251     37.66219         7     0.760     0.665  72.92   0
        76    967.3266    863.7989 300.2395853 +22.9207744     1012.766     72.31146      1.480     3.81     3.393169     20.43251     87.69675        19     1.139     1.107  56.74   0
        77   1005.4370    863.4423 300.2515866 +22.9320944     522.7513     72.49598      1.703     4.35      3.26985     20.43251     49.40513         6     1.070     0.503 -32.23   0
        78    481.6733    860.5205 300.0893672 +22.7741967     315.3401     72.53282      1.348     3.29      3.61966     20.43251     45.37296         7     0.940     0.492   6.06   0
        79    158.8666    858.1337 299.9897654 +22.6766313     457.8947     72.47755      1.557     4.92     3.611658     20.43251      45.8266         9     0.986     0.806 -66.22   0
        80    467.0334    856.1372 300.0862377 +22.7685470     592.4294     72.42223      1.433     3.46      3.69253     20.43251     74.21917        11     1.037     0.867  -5.79   0
        81    113.5802    854.2297 299.9769648 +22.6619160     1002.093     72.42223      1.580     3.21     3.918792     20.43251     114.8145        17     1.079     0.989 -73.83   0
        82    263.2487    846.4054 300.0260232 +22.7046025     52682.88     72.40378      1.523     2.77     3.825604     20.43251     5342.255        96     1.409     1.369  52.19   0
        83    528.7045    849.4990 300.1075892 +22.7851447     475.8518     72.60646      1.273     3.04     3.646019     20.43251     70.00864        10     0.987     0.679  47.70   0
        84    933.9666    844.6113 300.2354258 +22.9052656     898.0713     72.40378      1.485     3.28     3.578859     20.43251     92.64915        17     1.119     0.953 -42.71   0
        85    521.0408    845.2248 300.1065945 +22.7816194     1662.073     72.45911      1.416     2.61     3.661003     20.43251     192.8658        22     1.125     1.046 -76.76   0
        86    191.9199    844.2072 300.0045672 +22.6825617     536.0784      72.3484      1.513     2.80     3.701416     20.43251     64.11698         5     0.735     0.535  34.53   0
        87    550.0908    841.3359 300.1169014 +22.7892182     839.2343     72.53282      1.315     2.90     3.642314     20.43251     112.1063        14     1.001     0.839 -75.71   0
        88    560.9257    839.9019 300.1207406 +22.7920569     558.5381     72.56965      1.321     3.93     3.613934     20.43251     66.38779        11     1.026     0.789 -58.18   0
        89    881.3129    836.9668 300.2214975 +22.8872876     263.8234     72.38532      1.252     3.75     3.695552     20.43251     43.80581         6     0.956     0.636  76.73   0
        90    666.2920    835.5041 300.1549778 +22.8223976     385.1638     72.60646      1.095     2.20     3.512307     20.43251     64.96698         5     0.677     0.487  14.05   0
        91    461.6620    833.2200 300.0920216 +22.7603616     134.8587     72.38532      1.168     2.59     3.794875     20.43251     36.76114         5     0.731     0.438 -72.31   0
        92    312.9391    823.6591 300.0488715 +22.7129934     31361.19     72.47755      1.460     2.70     3.873503     20.43251     3377.606        72     1.303     1.293 -25.49   0
        93    704.0514    826.0883 300.1698012 +22.8310187     774.9053     72.44067      1.366     3.54     3.599647     20.43251     96.12358        11     1.019     0.738  10.83   0
        94    327.2099    824.0960 300.0531670 +22.7174013     1937.205      72.3484      1.431     2.81     3.886597     20.43251     200.0967        23     1.107     1.008  16.54   0
        95    836.0022    819.2700 300.2131315 +22.8686237     2722.856     72.36687      1.420     2.83     3.839802     20.43251     275.8781        26     1.148     1.033  80.13   0
        96    865.3295    817.5435 300.2228339 +22.8769196     334.2744     72.44067      1.513     3.87      3.78635     20.43251     48.48995         5     0.982     0.469 -87.75   0
        97    323.9282    817.9860 300.0541339 +22.7146643     528.4106     72.42223      1.352     4.45     3.891322     20.43251       59.715        10     0.944     0.777  62.93   0
        98    593.9100    815.4318 300.1389689 +22.7949291     996.5231     72.36687      1.376     2.66     3.607431     20.43251     122.9871        15     1.020     0.812  -7.69   0
        99    430.1728    815.6490 300.0879399 +22.7458738     356.6073     72.44067      1.277     3.07     3.954557     20.43251     55.23426        10     0.984     0.726  30.33   0
       100    195.3965    815.3985 300.0150183 +22.6753461     766.3739     72.20052      1.605     2.97     3.716536     20.43251     97.93924        14     1.005     0.873  23.76   0
       101    440.9391    810.3541 300.0930117 +22.7475851     678.8293     72.44067      1.270     2.92     3.940378     20.43251     95.31207        11     0.960     0.770  50.43   0
       102    842.1542    806.9906 300.2190432 +22.8669424     515.5461     72.44067      1.382     3.44     3.878887     20.43251     68.65343         9     0.886     0.808 -58.08   0
       103    589.0950    806.8833 300.1402504 +22.7910320     324.1683     72.60646      1.501     4.39     3.644606     20.43251     33.78798         5     0.844     0.649 -45.16   0
       104    343.3297    806.3702 300.0639454 +22.7171551     218.6955     72.42223      1.068     4.82     3.925115     20.43251     39.84381         7     0.990     0.664  86.20   0
       105    298.8857    806.3613 300.0501280 +22.7038154     278.4338     72.40378      1.281     4.43     3.881737     20.43251     36.61888         9     0.890     0.778 -79.42   0
       106     28.6357    805.0773 299.9665671 +22.6223237     571.1913     72.38532      1.821     6.20     3.754613     20.43251     44.42869        12     1.480     0.729 -40.02   0
       107    386.8971    805.1871 300.0778805 +22.7298886     433.0214     72.31146      1.447     3.54     3.983643     20.43251     46.43742        10     0.934     0.755 -19.23   0
       108    595.3467    803.8851 300.1431720 +22.7920466     357.9167     72.45911      1.264     4.70     3.643203     20.43251     42.71493         8     0.970     0.647  78.65   0
       109    820.0261    802.0540 300.2137526 +22.8588916     213.4824     72.44067      1.379     2.20     3.954293     20.43251     53.42739         6     0.726     0.637   2.04   0
       110    193.2719    799.8873 300.0194028 +22.6702613     452.3262     72.56965      1.372     3.52     3.711352     20.43251     61.30344        12     0.979     0.876   7.99   0
       111    516.0330    790.2707 300.1229112 +22.7643508      421.528     72.42223      1.399     5.83     3.848214     20.43251     62.29462        10     1.256     0.763 -38.92   0
       112    485.9408    788.0974 300.1142531 +22.7547005     731.6065     72.49598      1.345     2.99     3.900377     20.43251      83.7938        11     0.984     0.719 -81.47   0
       113    902.3649    784.6322 300.2450841 +22.8785704     4407.237     72.45911      1.426     2.59     3.866628     20.43251     489.3343        30     1.150     1.094 -37.53   0
       114    507.7752    785.8160 300.1217900 +22.7605956     1410.803     72.44067      1.278     2.27     3.878277     20.43251     209.1278        19     1.065     0.882  31.09   0
       115    395.5052    787.2399 300.0863953 +22.7273235     348.2083     72.44067      1.265     2.58     4.015105     20.43251     52.48472         5     0.714     0.461  69.17   0
       116    427.9375    785.4568 300.0970644 +22.7365423     295.3633     72.47755      1.189     2.14     4.029967     20.43251     57.52439         6     0.738     0.496   5.31   0
       117    708.4216    781.6129 300.1856290 +22.8195634     258.2339     72.40378      1.512     3.48     3.730138     20.43251     28.60975         5     1.058     0.331  68.61   0
       118    589.5134    780.7521 300.1488798 +22.7836588     320.9937     72.40378      1.155     2.55     3.739737     20.43251     56.71457         7     0.818     0.606 -11.04   0
       119    890.7886    775.9755 300.2442908 +22.8726149    -1051.719     72.42223      1.328     2.76     3.924649     20.43251      185.618        17     0.969     0.926  75.63   0
       120    269.7517    770.8664 300.0526137 +22.6848933     330.4668     72.42223      1.593     3.02     3.884297     20.43251     39.72923         5     0.709     0.682 -39.34   0
       121    253.6699    770.1571 300.0478448 +22.6798638     924.4166     72.38532      1.542     3.52     3.890291     20.43251     106.9126        14     1.068     0.917 -52.25   0
       122    717.2346    767.3563 300.1930109 +22.8181134     2499.765     72.47755      1.323     2.45     3.782767     20.43251     307.8041        24     1.216     0.930  -8.20   0
       123    922.0385    766.2950 300.2571818 +22.8792007     1567.863     72.40378      1.369     2.79      3.90094     20.43251     190.8117        19     1.096     0.891  18.68   0
       124    799.4721    753.0852 300.2232740 +22.8386706       572.75     72.53282      1.518     3.75     4.123681     20.43251     74.33538        13     1.106     0.933  26.45   0
       125    102.5260    753.9216 300.0061537 +22.6298437      577.717     72.53282      1.547     4.32     3.896767     20.43251     59.03027        12     1.054     0.948  -5.49   0
       126    382.1810    753.2317 300.0933103 +22.7135705     205.8796     72.42223      1.298     3.60     4.006908     20.43251     35.39557         5     0.871     0.449  46.53   0
       127    835.6406    744.2339 300.2374240 +22.8469706     146338.5     72.47755      1.354     2.40     4.146267     20.43251     16883.91       163     1.415     1.356  83.14   0
       128    597.8684    747.9321 300.1621543 +22.7767456     430.2058     72.47755      1.374     3.63     3.836219     20.43251     51.50867         7     0.714     0.694 -64.02   0
       129    982.5593    745.9420 300.2826729 +22.8914914     1345.049     72.42223      1.500     2.74      3.93025     20.43251       140.69        20     1.085     1.059  58.63   0
       130    688.0955    744.6395 300.1913221 +22.8028556     702.4001     72.40378      1.232     2.28     3.855314     20.43251     120.4251         9     0.809     0.684  67.22   0
       131    868.7988    737.2465 300.2500313 +22.8549024     458.5668     72.42223      1.368     4.61     4.161465     20.43251     54.55575        10     1.068     0.769  31.57   0
       132    521.9426    733.1929 300.1433122 +22.7497454       1577.4     72.42223      1.270     2.31     4.112153     20.43251     237.9688        18     0.945     0.927  60.09   0
       133    703.1157    730.4010 300.2006306 +22.8032716     9329.648     72.31146      1.287     2.27     3.886657     20.43251     1203.142        41     1.144     1.092 -54.07   0
       134    185.1553    731.9434 300.0389746 +22.6483435     241.4042     72.44067      1.420     3.15     3.943282     20.43251     40.75912         5     0.787     0.503  37.79   0
       135    204.6748    725.7219 300.0470639 +22.6524175     4870.827     72.53282      1.414     2.52     3.926971     20.43251     624.3797        35     1.201     1.122  65.98   0
       136    286.6790    723.7570 300.0731948 +22.6764619     1226.493     72.40378      1.333     2.73     3.876251     20.43251     151.9152        16     1.010     0.868  20.96   0
       137    162.6700    722.0847 300.0351924 +22.6387682     577.3867     72.53282      1.599     3.25     3.942547     20.43251     66.45262        11     1.034     0.754  47.09   0
       138    494.9537    719.1699 300.1394722 +22.7376267     800.9061     72.45911      1.409     2.28     4.140594     20.43251     111.1091        10     0.838     0.714 -87.72   0
       139    486.5407    711.3419 300.1393993 +22.7328571     3133.306     72.49598      1.237     2.24     4.154694     20.43251      450.782        20     1.008     0.905  62.35   0
       140    476.8325    705.0934 300.1384098 +22.7281524     1428.997     72.36687      1.257     2.22     4.158113     20.43251     218.6446        17     0.963     0.875  36.54   0
       141    405.1820    704.6128 300.1162734 +22.7065228     287.1222     72.38532      1.282     2.35     4.043868     20.43251     44.80136         5     0.690     0.468 -15.63   0
       142    870.4064    702.8411 300.2617199 +22.8455034     372.7675     72.45911      1.049     2.49      4.23399     20.43251     67.52539         7     0.795     0.599 -22.06   0
       143    387.8253    701.9802 300.1117302 +22.7005608     248.6602     72.42223      1.252     3.70     4.005764     20.43251     39.95316         5     0.813     0.483  23.83   0
       144    140.2062    701.3604 300.0349497 +22.6260836       681.03     72.45911      1.452     3.32     3.931747     20.43251     79.47145        12     0.984     0.863  66.45   0
       145    154.3532    699.8198 300.0398464 +22.6298877     687.0847     72.45911      1.456     2.79     3.920466     20.43251     82.78705        12     0.927     0.828 -15.67   0
       146    923.8508    696.1017 300.2805725 +22.8595835      423.436     72.49598      1.257     3.16     4.139292     20.43251     72.63226        10     0.926     0.820 -48.95   0
       147    401.5836    694.9200 300.1183052 +22.7026624     1870.732     72.44067      1.312     2.12     4.029092     20.43251     280.2679        19     1.030     0.864 -83.80   0
       148    179.8920    696.3961 300.0488958 +22.6365703     492.6936     72.31146      1.384     3.52     3.905578     20.43251       62.291        10     1.007     0.686  48.02   0
       149    500.8959    695.8137 300.1489152 +22.7327065     395.5547      72.3484      1.313     1.99     4.193554     20.43251     63.28008         8     0.759     0.623 -45.11   0
       150    211.3358    696.4533 300.0586498 +22.6460228     335.1404     72.45911      1.190     3.42      3.89815     20.43251     43.69225         5     0.745     0.455  20.11   0
       151    435.6333    693.9087 300.1292269 +22.7125857     301.3527     72.38532      1.117     3.02     4.095891     20.43251     47.52436         7     0.848     0.592  15.25   0
       152     55.5475    689.9515 300.0123583 +22.5974022     19638.46     72.45911      1.551     2.81     4.152955     20.43251     2382.969        66     1.364     1.325  72.78   0
       153    977.3201    691.8713 300.2986211 +22.8743895     684.6074     72.53282      1.333     2.93     4.037773     20.43251     86.13036        12     0.907     0.830 -34.60   0
       154    486.5582    690.1733 300.1462870 +22.7267879     1091.125     72.45911      1.295     2.35     4.197268     20.43251      154.926        15     0.925     0.880 -77.30   0
       155    521.7764    689.0859 300.1576010 +22.7370379     360.2555     72.36687      1.237     3.14     4.224029     20.43251       55.124         7     0.881     0.611  15.47   0
       156    240.3448    681.8256 300.0724221 +22.6505322     387.2176     72.42223      1.572     2.71     3.880135     20.43251     52.86542         5     0.842     0.498  35.02   0
       157    570.1460    677.6839 300.1763640 +22.7482703     355.6236     72.45911      1.397     2.84     4.237875     20.43251     51.56854         5     0.872     0.509  50.97   0
       158    904.4706    676.1801 300.2810072 +22.8480539     1004.637     72.44067      1.254     2.47     4.239814     20.43251     135.6548        15     0.969     0.891 -21.96   0
       159      1.9139    674.1589 300.0008350 +22.5767749     1266.973     59.61253      1.777     5.32     4.484139     20.43251     100.2757        20     1.654     0.757  87.16  24
       160    771.3696    674.2169 300.2401613 +22.8076007     384.6518     72.40378      1.173     2.59     4.061938     20.43251      79.7067        10     0.919     0.698  42.32   0
       161     67.7461    674.5434 300.0211560 +22.5966462     417.1569     72.47755      1.475     5.21      4.12034     20.43251     45.49562         8     0.953     0.804   5.05   0
       162    449.8973    670.8613 300.1411573 +22.7102507     478.0286      72.5144      1.220     2.90     4.135172     20.43251      72.1804         8     0.975     0.521  38.73   0
       163    844.6194    669.0171 300.2646788 +22.8280610     700.0184     72.40378      1.371     2.44     4.267355     20.43251     95.62604         8     0.752     0.695   0.12   0
       164    840.7687    668.5209 300.2636399 +22.8267645     324.7583     72.42223      1.437     4.37     4.260402     20.43251     43.05403         6     0.955     0.569 -62.20   0
       165    406.5748    663.1110 300.1301984 +22.6950328      798.476     72.36687      1.393     2.54     4.018028     20.43251     111.2472        13     0.966     0.850  51.19   0
       166    554.7125    661.5328 300.1768099 +22.7390066     555.2579      72.5144      1.167     2.38     4.287004     20.43251     81.11137         8     0.808     0.615  59.52   0
       167    601.9377    660.1415 300.1919644 +22.7527674     425.8375     72.47755      1.306     2.34     4.237154     20.43251     75.66815         7     0.705     0.663 -61.88   0
       168    572.3717    659.7912 300.1828734 +22.7438018     593.7751     72.42223      1.256     2.54     4.270342     20.43251     79.37405        10     0.884     0.680  -7.12   0
       169    451.2530    659.0594 300.1454155 +22.7072706      944.623     72.47755      1.526     2.11     4.143328     20.43251     148.7201        13     1.232     0.708   8.93   0
       170    884.6801    654.2361 300.2819712 +22.8358205     3187.111     72.36687      1.281     2.29     4.257819     20.43251     401.0547        25     1.060     1.004  78.25   0
       171    416.3154    654.3450 300.1360781 +22.6954391     1789.853     72.49598      1.274     2.39     4.032146     20.43251     214.7631        19     1.019     0.905 -21.55   0
       172    982.9113    652.1055 300.3132929 +22.8646403     764.6595     72.60646      1.507     5.10     4.034405     20.43251     73.40282        12     1.218     0.815 -29.16   0
       173    781.2921    651.8019 300.2505398 +22.8041379     296.9048     72.32993      1.282     4.45     4.040278     20.43251     39.25455         7     0.855     0.657  62.28   0
       174    766.3776    650.0521 300.2464614 +22.7991653     235.5426     72.42223      1.080     2.72     3.985933     20.43251     52.33397         5     0.968     0.518  49.60   0
       175    391.8812    649.2356 300.1301378 +22.6866442     309.4108     72.36687      1.282     3.05        3.991     20.43251     46.90419         6     0.727     0.594 -43.79   0
       176    445.2138    645.1918 300.1480441 +22.7014798     389.5071     72.31146      1.436     2.33     4.128728     20.43251     62.77866         7     0.754     0.654  -7.37   0
       177    279.7396    641.1609 300.0978873 +22.6506876      9126.83     72.42223      1.339     2.38     3.895825     20.43251     1267.281        41     1.178     1.100  44.54   0
       178    402.2433    638.1859 300.1369526 +22.6865815      9046.38     72.44067      1.265     2.21     4.006573     20.43251     1262.356        40     1.137     1.076  87.43   0
       179   1006.6653    633.2343 300.3268358 +22.8663344     954.4459     72.42223      1.450     2.88     3.946325     20.43251     109.5508        14     0.999     0.855  37.88   0
       180    813.8826    632.0204 300.2671257 +22.8082240     1934.717     72.38532      1.308     2.13     4.056136     20.43251     298.3888        21     1.056     0.939  88.07   0
       181    648.6221    634.1979 300.2149342 +22.7593156     285.9219     72.36687      1.195     2.22     4.152888     20.43251     45.15442         5     0.689     0.462 -73.16   0
       182    898.5062    629.2646 300.2943987 +22.8327902     12378.69     72.53282      1.264     2.27      4.22495     20.43251     1472.436        42     1.156     1.075 -81.06   0
       183    462.8128    627.7631 300.1591849 +22.7017560     11514.18     72.40378      1.260     2.09      4.20139     20.43251     1839.325        43     1.138     1.052  87.84   0
       184    190.2606    623.2219 300.0759027 +22.6186955     1455.199     72.38532      1.370     2.59     3.931412     20.43251     163.7497        17     1.081     0.845  60.15   0
       185    632.4965    623.3441 300.2134404 +22.7513652     480.0339      72.5144      1.119     2.31     4.225445     20.43251     75.80197         8     0.734     0.716 -36.54   0
       186    348.4175    622.2791 300.1253803 +22.6658725     316.0753     72.42223      1.107     1.85     3.924372     20.43251     66.18694         5     0.674     0.469 -71.77   0
       187    437.2073    620.7000 300.1535133 +22.6920500     510.8491     72.32993      1.453     2.98     4.105823     20.43251     68.10371         8     0.922     0.638   5.32   0
       188    394.5113    615.9743 300.1417664 +22.6778888     4364.729     72.36687      1.263     2.15     3.992802     20.43251     633.0093        25     0.999     0.971   9.29   0
       189    737.2665    615.6761 300.2485651 +22.7805683     788.6155      72.5144      1.192     2.26     3.894017     20.43251     126.0463        12     0.954     0.755  89.70   0
       190    372.7131    614.4042 300.1354962 +22.6709003     1311.731      72.3484      1.320     2.53      3.95737     20.43251      167.904        17     0.962     0.929 -84.49   0
       191    127.2362    613.8292 300.0593703 +22.5970902     619.8781     72.44067      1.281     3.15     3.971612     20.43251     89.13319        11     0.937     0.815  -6.14   0
       192    814.3191    611.2230 300.2740214 +22.8023814     1522.084     72.36687      1.356     2.63     3.966839     20.43251     198.1126        20     1.120     0.975 -62.55   0
       193    511.0991    603.4545 300.1821118 +22.7092586     200037.3      72.5144      1.243     2.13     4.317382     20.43251     29019.69       206     1.397     1.384 -59.98   0
       194     60.8428    610.9484 300.0396805 +22.5763394     358.2628     72.45911      1.656     4.80     4.172362     20.43251      43.1582         6     1.332     0.632  39.54   0
       195    334.7560    609.7657 300.1251983 +22.6581843     300.2563     72.47755      1.087     3.85     3.925071     20.43251     53.25798         9     0.962     0.682  80.67   0
       196    694.6830    608.3958 300.2376661 +22.7657143     871.9446      72.3484      1.205     2.22     4.107092     20.43251     133.7781        12     0.901     0.734  50.95   0
       197    788.2451    606.6761 300.2673738 +22.7932618     257.7443     72.40378      1.120     2.41     3.900665     20.43251     43.60039         5     0.714     0.446 -14.78   0
       198    899.1477    604.8116 300.3025465 +22.8259577     243.7419     72.42223      1.259     4.64     4.201648     20.43251     32.78008         7     1.069     0.572  15.12   0
       199    197.1395    603.4688 300.0844600 +22.6150936     3564.667     72.45911      1.336     2.41      3.94391     20.43251     404.0047        25     1.056     1.016   1.53   0
       200    762.8515    599.6525 300.2617441 +22.7836345     518.0599     72.45911      1.435     2.87     3.934827     20.43251     61.99324         9     0.864     0.755  56.61   0
       201    542.5759    589.9619 300.1962938 +22.7148233     323.2507     72.44067      1.323     3.72     4.344159     20.43251     42.91082         6     0.808     0.493 -87.47   0
       202    401.7143    584.0210 300.1543910 +22.6708794     2797.927      72.3484      1.403     2.39      4.03564     20.43251     419.1511        26     1.361     0.936 -84.43   0
       203    245.7211    585.9130 300.1052658 +22.6246326     508.5919     72.56965      1.596     2.90     3.939093     20.43251     47.79945         7     0.715     0.672  83.87   0
       204    851.5161    583.8615 300.2945070 +22.8056679     343.8414     72.53282      1.157     3.18     4.115146     20.43251     44.14502         6     0.776     0.499 -88.50   0
       205    813.2206    579.9865 300.2838307 +22.7930800     446.1334     72.38532      1.252     2.54     4.004632     20.43251     71.96158        10     0.891     0.724 -29.00   0
       206    632.5210    579.2825 300.2277676 +22.7387217      206.203     72.55124      1.216     4.55     4.268343     20.43251      34.1604         6     0.951     0.619  23.42   0
       207    718.8819    572.2305 300.2569570 +22.7625815     339.8086     72.42223      1.104     2.00     4.146441     20.43251     72.88199         8     0.730     0.651  56.22   0
       208    798.5956    569.7633 300.2825952 +22.7857611     1662.303     72.45911      1.180     2.04     4.002888     20.43251     282.3362        16     0.879     0.854  60.18   0
       209    669.8358    567.5942 300.2431865 +22.7465503     2591.595     72.44067      1.205     1.97     4.248708     20.43251     404.0052        20     0.985     0.897  -2.93   0
       210     29.7786    568.2112 300.0439189 +22.5547615     219.0223     72.40378      1.249     3.15     4.421898     20.43251     37.25181         6     0.732     0.606 -40.89   0
       211    914.3491    564.7741 300.3202974 +22.8190091     566.1832     72.44067      1.470     2.73     4.111537     20.43251     66.58843        10     0.921     0.688  -0.38   0
       212    457.1430    563.5692 300.1782818 +22.6816313     714.8899     72.44067      1.148     2.65     4.218388     20.43251     110.7592        11     0.904     0.755 -82.63   0
       213    879.2296    564.5129 300.3094334 +22.8084127     355.2323     72.42223      1.356     2.44     4.111537     20.43251     42.53267         5     0.711     0.460  21.14   0
       214    574.8598    564.2515 300.2146984 +22.7171209     480.5759     72.47755      1.186     2.62     4.311843     20.43251     62.13012         7     0.694     0.672 -37.03   0
       215    927.3173    561.3898 300.3254405 +22.8219216     1202.785     72.38532      1.202     2.16     4.102525     20.43251     203.5777        16     0.976     0.862 -86.46   0
       216    912.9457    560.5574 300.3212300 +22.8173771     641.8556     72.42223      1.232     2.73     4.102525     20.43251     100.1189        11     0.944     0.710  81.37   1
       217    798.9113    559.6713 300.2859729 +22.7829568     2253.321     72.58806      1.505     3.20     4.030804     20.43251     335.6042        25     1.664     0.846  75.48   0
       218    735.4117    560.4075 300.2659483 +22.7641398     205.9922     72.31146      1.037     3.76     4.180239     20.43251     38.10449         5     0.938     0.450  75.97   0
       219    552.2175    557.9585 300.2096945 +22.7085262     578.9213     72.44067      1.354     3.15     4.326674     20.43251     80.73421         8     0.921     0.598  55.67   0
       220    338.3445    558.1485 300.1430872 +22.6444494     257.8499     72.45911      1.230     1.98     3.950408     20.43251     67.29491         5     0.726     0.403  65.41   0
       221    390.5354    557.1175 300.1596554 +22.6598059     357.6397     72.53282      1.100     2.09     4.043372     20.43251     80.26031         8     0.788     0.642  32.16   0
       222    837.0712    554.9714 300.2993928 +22.7930406     4409.388     72.42223      1.240     2.08     4.067363     20.43251     730.7604        26     1.027     0.920  52.48   0
       223    478.4740    554.6958 300.1878026 +22.6854802     242.0203     72.56965      1.060     3.84     4.283734     20.43251     35.73071         6     0.921     0.460  -1.48   0
       224    497.7321    550.8547 300.1950439 +22.6901517     422.9799     72.45911      1.506     3.28     4.302182     20.43251     50.86091         8     0.913     0.614 -82.21   0
       225     69.1036    545.7122 300.0634432 +22.5601103     1039.666     72.60646      1.430     2.94     4.188509     20.43251     120.2066        17     1.081     0.963  61.58   0
       226    928.9879    545.4249 300.3311490 +22.8178348     779.7586     72.42223      1.391     2.32     4.066481     20.43251     98.10417         9     0.828     0.667 -70.19   0
       227    868.3077    543.0652 300.3129979 +22.7989787     368.9673     72.53282      1.503     2.70      4.05374     20.43251     45.54365         7     0.732     0.639 -72.38   0
       228    698.5789    542.2729 300.2603667 +22.7478931     243.3585     72.42223      1.115     3.44     4.266416     20.43251     33.33679         5     0.769     0.445 -70.06   0
       229    729.8382    539.5584 300.2709864 +22.7564814     225.9518      72.5144      1.103     2.32     4.265054     20.43251     67.24637         6     0.721     0.602 -73.64   0
       230    335.6994    538.5432 300.1486343 +22.6380300     254.8679      72.5144      1.092     3.43      3.99294     20.43251     40.42323         5     1.020     0.334 -70.95   0
       231    117.2018    537.3723 300.0810951 +22.5721503      279.414     72.36687      1.110     3.37     3.980355     20.43251     55.18868         5     0.851     0.475  49.19   0
       232     61.5393    535.5430 300.0643972 +22.5549239     491.2171     72.49598      1.489     4.40     4.208549     20.43251     47.70713         9     0.903     0.804 -34.27   0
       233    558.3311    527.3011 300.2215584 +22.7015570      392.955      72.5144      1.299     3.26     4.327067     20.43251     49.70498         7     0.889     0.572  30.55   0
       234    610.5986    525.6428 300.2383700 +22.7167482     871.0864     72.42223      1.200     1.99     4.297609     20.43251     125.0301        10     0.748     0.741  64.21   0
       235   1018.0810    523.0167 300.3662148 +22.8380804     1050.586     72.42223      1.371     3.01     3.883369     20.43251     127.1112        17     1.038     0.999 -89.59  16
       236    925.0962    517.6285 300.3389669 +22.8086818     484.1392     72.36687      1.106     2.70     3.952847     20.43251     104.7471         9     0.835     0.779 -54.27   0
       237    671.2518    517.6757 300.2598466 +22.7326390     802.1121     72.44067      1.120     2.20     4.290917     20.43251     132.6452        10     0.813     0.689  89.46   0
       238    828.5349    513.7726 300.3101180 +22.7786472     1010.961     72.40378      1.180     2.26     3.978535     20.43251     144.7017        14     0.886     0.813  72.13   0
       239    786.7492    511.8086 300.2977340 +22.7655636     356.0124     72.42223      1.230     2.50     4.109446     20.43251     68.25039         6     0.938     0.385 -76.52   0
       240    812.9218    510.0156 300.3064727 +22.7728901     627.7894     72.44067      1.174     2.56     4.023926     20.43251     98.99518        10     0.849     0.732  79.39   0
       241    557.0728    508.2594 300.2273528 +22.6957125      3262.13     72.45911      1.206     2.06     4.337401     20.43251     507.9462        26     1.066     0.948 -89.44   0
       242    917.4122    507.1811 300.3399652 +22.8033780     428.2173     72.38532      1.173     2.46      3.89502     20.43251     71.38394         8     0.832     0.602 -87.00   0
       243     33.2075    499.6197 300.0672665 +22.5361195     420.4222     72.38532      1.699     3.92     4.161583     20.43251     40.96786         6     1.059     0.795  32.87   0
       244    562.3761    496.2496 300.2329051 +22.6938537     400.6271     72.42223      1.414     2.62     4.340964     20.43251     42.22913         5     0.705     0.462  74.25   0
       245    328.8084    496.3267 300.1602056 +22.6238479     338.0604     72.40378      1.205     2.65     4.264787     20.43251     51.88081         5     0.751     0.422 -19.27   0
       246    397.0994    495.2432 300.1817985 +22.6440152     416.2625     72.42223      1.299     2.11     4.245072     20.43251     67.79906         6     0.685     0.562  48.95   0
       247    944.0029    493.6229 300.3526610 +22.8074464     374.9598     72.36687      1.612     3.50      3.85468     20.43251     48.65968         5     0.828     0.426  19.00   0
       248    968.3665    487.2580 300.3623263 +22.8129141     1281.241     72.44067      1.246     2.31     3.825302     20.43251     166.4402        17     1.010     0.863  81.12   0
       249    840.2047    486.8941 300.3224871 +22.7744208     443.9286     72.31146      1.145     2.22     3.837296     20.43251     101.8102         9     0.854     0.641 -76.42   0
       250    926.8134    485.8237 300.3498347 +22.8000565     920.7773     72.42223      1.264     2.44     3.822645     20.43251      139.873        13     0.889     0.840  83.89   0
       251    576.6599    484.3036 300.2412324 +22.6947048     276.4132     72.49598      1.422     3.19     4.339809     20.43251     50.47058         5     0.977     0.344  69.15   0
       252    667.6935    482.2493 300.2702467 +22.7213979     1054.406     72.45911      1.147     2.38     4.324872     20.43251     177.6854        14     0.960     0.727 -72.69   0
       253    463.4150    482.9514 300.2064240 +22.6603696     440.7619     72.45911      1.218     2.05     4.334428     20.43251     72.40252         6     0.719     0.486  81.05   0
       254    171.6523    480.5611 300.1164691 +22.5721882      687.808     72.40378      1.233     2.75     4.050387     20.43251      98.5096         9     0.848     0.715  23.77   0
       255    233.9901    476.3831 300.1372019 +22.5896877     3755.951     72.36687      1.309     2.35     4.385088     20.43251     488.7468        26     1.104     0.957  63.23   0
       256    967.1116    474.4513 300.3660952 +22.8088576     4298.224     72.44067      1.277     2.13     3.804998     20.43251     671.9157        27     1.047     1.004 -49.63   0
       257    181.2887    471.1702 300.1225140 +22.5723844     7353.255     72.40378      1.326     2.34      4.16906     20.43251     910.1553        38     1.192     1.083  53.06   0
       258    947.0507    465.5968 300.3627154 +22.8003047     1722.273     72.42223      1.187     2.10     3.799868     20.43251     289.0024        16     0.927     0.840  -3.04   0
       259    566.2177    461.9242 300.2452506 +22.6851484     18323.89     72.42223      1.228     2.02     4.355928     20.43251     3084.382        52     1.159     1.036  72.09   0
       260    413.2074    463.3078 300.1971826 +22.6396777     308.1931     72.32993      1.331     3.47     4.313612     20.43251     44.65961         5     0.938     0.398 -84.90   0
       261    583.8143    461.9546 300.2507190 +22.6904312     829.5927     72.44067      1.862     4.91      4.34721     20.43251     94.36897        17     1.719     0.702 -37.88   0
       262    965.8649    461.7582 300.3698294 +22.8048360     238.5459     72.40378      1.181     3.70     3.801656     20.43251     44.34855         7     0.929     0.630   8.21   0
       263    408.8596    461.6016 300.1963841 +22.6378843     326.7733     72.38532      1.375     3.39      4.31474     20.43251     35.31499         5     0.751     0.442  20.34   0
       264    322.0484    465.2748 300.1681891 +22.6129087     4687.924     72.42223      1.247     2.16     4.394401     20.43251     722.8226        28     1.037     0.979  56.45   0
       265    763.2471    452.3632 300.3097207 +22.7414443     358.2077     72.45911      1.128     2.09     4.191145     20.43251     60.56245         5     0.644     0.480   3.77   0
       266    899.7424    444.3355 300.3548704 +22.7800254     819.2484     72.47755      1.248     2.32     3.738495     20.43251     119.8496        13     0.979     0.762  51.13   0
       267    609.9679    442.7972 300.2650841 +22.6927675     291.0018     72.38532      1.261     3.80     4.344408     20.43251     32.18305         6     0.903     0.472  36.14   0
       268    436.6358    443.6980 300.2108405 +22.6410719     356.2007     72.42223      0.899     2.44     4.341589     20.43251     62.96329         6     0.843     0.459  -0.59   0
       269    120.8744    442.1295 300.1131716 +22.5459300     2089.452     72.49598      1.327     2.50     4.075728     20.43251     260.6068        21     1.137     0.895  47.28   0
       270    506.8508    431.3778 300.2366917 +22.6585825     6557.121     72.42223      1.198     2.06     4.366371     20.43251     1021.635        32     1.053     0.980  80.68   0
       271    920.4662    431.5099 300.3654973 +22.7825461     1256.926     72.53282      1.273     2.36     3.763995     20.43251     175.7948        14     0.907     0.836  61.75   0
       272    222.0272    430.8775 300.1482618 +22.5730415     541.9606     72.42223      1.323     2.37     4.487137     20.43251     105.3141         8     0.817     0.678   7.51   0
       273    142.3387    425.1624 300.1253508 +22.5475005     1188.796     72.44067      0.658     0.83     4.296232     20.43251     697.5583         5     0.493     0.397  28.00   0
       274     79.3001    423.8690 300.1061849 +22.5282196     440.0095      72.5144      1.412     3.70     4.136885     20.43251     55.64933        10     1.050     0.668  38.63   0
       275    766.8649    423.1443 300.3203375 +22.7341333      320.451     72.47755      1.159     2.91      4.19037     20.43251     67.67868         6     0.998     0.456 -29.21   0
       276    620.5935    421.5466 300.2752941 +22.6898482     440.8424     72.42223      1.111     2.34     4.354734     20.43251     82.82798         8     0.866     0.579  68.98   0
       277    711.1739    420.2287 300.3039336 +22.7166110     1203.143     72.40378      1.330     2.68      4.30171     20.43251     156.7241        19     1.080     1.000  71.82   0
       278    413.5115    417.7276 300.2120797 +22.6266834     5986.333     72.58806      1.182     2.13     4.364349     20.43251     853.7825        30     1.066     0.946  48.41   0
       279    805.4593    411.9236 300.3360080 +22.7424707     1396.008     72.47755      1.252     2.10     4.086145     20.43251     206.5861        16     0.928     0.828  69.26   0
       280    902.7979    412.0611 300.3663047 +22.7716648      634.692     72.40378      1.229     2.55     3.750847     20.43251     93.09859         8     0.782     0.651  50.48   0
       281    398.0500    406.2651 300.2109917 +22.6187574     408.3279     72.45911      1.288     2.68     4.365068     20.43251     56.83647         8     0.798     0.704   4.73   0
       282    480.9179    404.8988 300.2372194 +22.6432059     1530.408     72.58806      0.438     2.62     4.357135     20.43251     1179.706        10     0.472     0.432  63.50   0
       283    461.0457    401.9598 300.2319897 +22.6364055     271.5265     72.49598      1.232     4.49     4.359742     20.43251     47.34487         8     1.097     0.655  82.77   0
       284    778.2241    399.7629 300.3314698 +22.7308180     536.9562     72.44067      1.162     2.57     4.106489     20.43251     85.19773         8     0.812     0.607  37.15   0
       285    301.0152    396.8958 300.1838537 +22.5869751       2338.8      72.3484      1.277     2.26     4.469494     20.43251     357.7787        20     0.999     0.901  53.29   0
       286     19.6286    394.4559 300.0972002 +22.5018804     975.3231     72.42223      1.366     2.81     4.602479     20.43251     119.6424        16     1.067     0.891  38.92   0
       287    270.3825    386.3884 300.1777404 +22.5747740     29516.71     72.38532      1.268     2.24     4.475245     20.43251     3469.565        72     1.261     1.173  67.17   0
       288    805.0359    383.6693 300.3450508 +22.7342247     1339.712     72.42223      1.144     2.03     4.089932     20.43251     246.9947        12     0.876     0.700  86.88   0
       289    760.5233    381.2896 300.3319527 +22.7202075     338.4783     72.56965      1.130     3.30     3.987854     20.43251     51.02585         5     0.725     0.469 -71.84   0
       290    763.4586    373.2356 300.3354824 +22.7187725     147.7769     72.42223      1.065     4.31     3.947736     20.43251      39.3674         5     0.872     0.607  46.88   0
       291    720.3849    372.7329 300.3222256 +22.7057248     551.1134     72.42223      1.211     2.65      3.86418     20.43251     94.52753        10     0.913     0.746  84.64   0
       292    144.6316    372.5053 300.1431603 +22.5330786     459.1764     72.38532      1.189     3.12     4.370119     20.43251     68.87197         9     0.963     0.640 -89.08   0
       293    368.7363    371.7505 300.2130795 +22.6000603     557.5344     72.47755      1.328     2.39     4.361248     20.43251     91.45005         8     0.890     0.587 -19.97   0
       294    680.8148    366.0135 300.3120810 +22.6919396     1899.387      72.3484      1.200     1.92     3.861592     20.43251      360.143        18     0.917     0.865  36.57   0
       295    488.7077    360.5460 300.2540443 +22.6328040      273.487     72.47755      0.982     3.13     4.360909     20.43251     58.18378         6     0.942     0.467  56.72   0
       296    895.8568    358.5032 300.3815313 +22.7541922     541.5721      72.5144      1.273     2.54      3.83734     20.43251     78.61278        10     0.874     0.708  81.34   0
       297    342.5571    350.6448 300.2117887 +22.5861527     2145.601     72.47755      1.416     2.67     4.367246     20.43251     281.8893        22     1.161     0.899  64.49   0
       298    781.6910    343.5220 300.3508106 +22.7156950     565.1108     72.56965      1.101     2.10     4.013814     20.43251     106.4643         9     0.829     0.662 -81.05   0
       299    681.3187    341.3289 300.3202519 +22.6849985     304.4276     72.53282      1.358     4.34     3.815967     20.43251     40.75826         6     1.011     0.540  34.78   0
       300    663.8732    340.8203 300.3149834 +22.6796259     469.8739     72.42223      1.190     2.70     3.826067     20.43251      68.4045         9     0.892     0.633 -72.51   0
       301    418.3918    330.0484 300.2420646 +22.6029709     1213.502     72.44067      1.247     2.41     4.360209     20.43251     170.1476        17     1.084     0.864  63.82   0
       302    133.1513    331.8872 300.1527784 +22.5179794     325.7437     72.42223      1.237     3.99      4.37491     20.43251      36.3489         6     0.943     0.482  52.88   0
       303    503.3475    327.7658 300.2692420 +22.6277770     237.7186     72.44067      1.294     3.09     4.323188     20.43251     36.62383         5     0.736     0.447 -73.84   0
       304    929.7965    325.9648 300.4026770 +22.7550014     266.3154     72.42223      1.076     1.87     3.992671     20.43251     69.32163         5     0.739     0.434  38.36   0
       305    158.6866    325.7758 300.1626972 +22.5238833     85.31444     72.38532      1.063     3.29     4.519876     20.43251     33.95477         6     0.731     0.627 -34.26   0
       306    801.7495    323.1930 300.3636608 +22.7158603      414.479     72.42223      1.598     2.22     4.200769     20.43251     51.98337         6     0.697     0.606  30.38   0
       307    663.2966    321.8818 300.3209516 +22.6740119     2214.203     72.56965      1.166     1.85      3.94341     20.43251     434.7713        18     0.920     0.848  66.00   0
       308     62.8291    320.6125 300.1345898 +22.4936532     118.8943     72.42223      1.038     4.13     4.340699     20.43251     31.79655         5     1.450     0.337 -40.93   0
       309    924.5554    316.0379 300.4042653 +22.7505783     3209.633     72.47755      1.232     2.22     4.051543     20.43251     456.4591        24     1.065     0.918  74.72   0
       310    470.9922    315.1236 300.2632762 +22.6144497     225.1059     72.38532      1.229     2.56     4.270721     20.43251     50.10823         5     0.778     0.485  57.70   0
       311    985.5585    310.8121 300.4249855 +22.7673398     397.7037     72.40378      1.245     2.64     4.099198     20.43251     70.83539         9     0.831     0.732  59.77   0
       312    729.8246    309.3630 300.3457388 +22.6903434     194.1932     72.44067      0.789     3.82     4.021969     20.43251     34.71666         5     0.892     0.530  51.29   0
       313    371.4968    305.8438 300.2353326 +22.5819644      523.756     72.44067      1.184     2.55     4.361513     20.43251     87.51814         7     0.865     0.485 -80.12   0
       314    993.9222    303.9143 300.4298332 +22.7678602     1696.996     72.53282      1.295     2.24     4.130486     20.43251     261.7077        17     0.926     0.902  74.69   0
       315     46.4262    300.0801 300.1361585 +22.4828418     1436.784     72.40378      1.653     3.49     4.645455     20.43251     128.0808        22     1.319     1.052 -43.16   0
       316     77.0896    299.9452 300.1457276 +22.4919997     538.6438     72.45911      1.309     2.50      4.62245     20.43251     97.90977        10     0.884     0.690  83.31   0
       317    940.2622    296.4340 300.4155264 +22.7496449     519.2014     72.42223      1.291     2.76     4.153644     20.43251     69.09103         8     0.857     0.677  77.82   0
       318    783.9286    293.5112 300.3677419 +22.7019923     250.9528     72.58806      1.246     3.33     4.254236     20.43251     43.73985         5     0.755     0.601  79.76   0
       319    130.4227    292.0039 300.1648752 +22.5057150     513.3314     72.38532      1.396     3.24     4.618784     20.43251     68.95896         9     0.943     0.702  60.07   0
       320    925.7579    289.2292 300.4133422 +22.7432309     415.2049     72.44067      1.557     4.56     4.197511     20.43251     57.74113         8     0.995     0.659  59.09   0
       321    806.4124    285.2866 300.3774181 +22.7063617     427.0033     72.36687      1.313     2.71     4.327267     20.43251     41.66985         5     0.700     0.467  72.56   0
       322    734.8252    283.1495 300.3558050 +22.6843079     628.2631     72.44067      1.176     2.20     4.203741     20.43251     107.4442        10     0.818     0.705   4.69   0
       323    325.4405    282.8574 300.2284680 +22.5615588     256.7744     72.40378      1.153     1.91      4.43341     20.43251     55.82565         5     0.670     0.459 -67.24   0
       324    825.5072    276.0300 300.3863736 +22.7094190      405.811     72.36687      1.681     3.71     4.390363     20.43251     37.48504         6     0.792     0.500  88.63   0
       325      9.4355    276.3150 300.1323819 +22.4649279     214.2528     72.40378      1.295     4.06     4.934682     20.43251     35.98549         6     1.071     0.440  36.15   0
       326    832.9947    272.2262 300.3899419 +22.7105677     2059.707     72.40378      1.244     2.17     4.419665     20.43251     317.5995        20     1.085     0.842  63.36   0
       327    251.6268    269.8636 300.2097326 +22.5357007     2149.937     72.42223      1.345     2.35      4.69738     20.43251     285.9537        21     1.098     0.903  68.91   0
       328    329.4446    264.7636 300.2355852 +22.5575635     1039.461     72.47755      1.331     2.74     4.565205     20.43251     128.1278        16     1.050     0.895 -64.21   0
       329     81.0604    264.8070 300.1583643 +22.4831067     422.6382     72.38532      1.656     5.60     4.853752     20.43251     41.88579         9     1.280     0.692 -76.88   0
       330    771.4005    264.1573 300.3733650 +22.6898035     54.10735     72.42223      0.893     2.57     4.325584     20.43251     39.14955         5     0.705     0.465  73.13   0
       331    731.2415    263.8443 300.3609540 +22.6776864     556.2082     72.49598      1.239     2.51     4.235691     20.43251     89.34466        10     0.906     0.678  53.53   0
       332    376.3913    261.5177 300.2512407 +22.5707026     257.0577     72.36687      1.825     4.74     4.538567     20.43251     34.76343         7     1.455     0.438  65.43   0
       333    838.4225    260.7812 300.3953480 +22.7089030     362.2018     72.42223      1.132     1.89     4.483627     20.43251     55.78431         5     0.654     0.472 -71.29   0
       334    146.2652    256.9876 300.1811616 +22.5004151     732.2249     72.36687      1.381     2.36     4.704665     20.43251     96.00028        10     0.851     0.705   7.15   0
       335    684.1866    253.7133 300.3495833 +22.6606814     1702.515     72.36687      1.228     2.21     4.238163     20.43251     282.5156        16     0.964     0.801  64.06   0
       336    748.9353    253.3137 300.3698841 +22.6799589     491.2104      72.5144      1.221     2.48     4.292737     20.43251     92.58664        11     0.923     0.710 -74.97   0
       337    167.6873    250.2780 300.1899961 +22.5049123     513.0908     72.56965      1.290     2.39     4.711401     20.43251     78.89221         9     0.848     0.655  26.27   0
       338    955.6331    246.2626 300.4366030 +22.7398206     863.2521     72.42223      1.343     2.61     4.626564     20.43251      104.247        13     0.972     0.786 -84.12   0
       339    457.7459    246.3487 300.2814746 +22.5907265     507.0512     72.45911      1.564     2.63     4.505872     20.43251     62.41111         7     0.869     0.543 -54.77   0
       340    688.0377    245.0602 300.3535909 +22.6593481     691.3352     72.44067      1.146     2.08     4.260382     20.43251     131.9381        10     0.822     0.707  83.61   0
       341    608.6366    244.5103 300.3290407 +22.6354064     1322.972     72.40378      1.092     2.01     4.172658     20.43251     225.3109        12     0.804     0.767 -87.65   0
       342    429.7353    240.8065 300.2745571 +22.5807410     426.6805     72.38532      1.118     2.11     4.554728     20.43251     70.43774         5     0.718     0.421  76.79   0
       343    534.8575    236.2805 300.3087412 +22.6109390     969.5643     72.45911      1.232     2.36     4.585496     20.43251     148.5328        14     0.944     0.796  30.05   0
       344    804.1260    235.7781 300.3927727 +22.6914459     1413.865     72.42223      1.261     2.31     4.518034     20.43251     230.0372        18     1.001     0.914 -81.25   0
       345    816.0928    234.8660 300.3967982 +22.6947669     820.8782     72.56965      1.305     2.13     4.555566     20.43251     144.2644        12     0.971     0.766  68.35   0
       346    862.2907    234.2317 300.4114038 +22.7084169     155.7247     72.36687      1.021     3.67     4.690335     20.43251     42.45372         5     0.863     0.449  43.51   0
       347    977.0208    225.7530 300.4499286 +22.7403249     1678.066     72.45911      1.312     2.30     4.896124     20.43251     258.1741        17     0.986     0.885 -39.01   0
       348    932.9269    225.2325 300.4363467 +22.7269762     1092.849     72.42223      1.277     2.65      4.76645     20.43251     145.3024        16     1.014     0.846  51.33   0
       349    166.9976    218.6073 300.2000578 +22.4956140     701.0782     72.23753      1.314     2.58      4.82805     20.43251     98.24883        10     0.894     0.711 -45.37   0
       350     28.7984    213.3580 300.1588232 +22.4526687      2029.69     72.42223      1.475     2.88     5.234509     20.43251       220.97        22     1.248     0.950  59.89   0
       351    851.9125    209.8222 300.4160891 +22.6982919     682.4782      72.3484      1.201     2.60     4.752119     20.43251     110.9489        11     0.940     0.716  75.97   0
       352    186.2377    206.7515 300.2098840 +22.4979786     5566.493     72.44067      1.342     2.37     4.880926     20.43251      721.036        32     1.136     1.083 -85.93   0
       353    169.4929    197.5389 300.2076684 +22.4903138     604.8762      72.5144      1.307     3.30     4.888902     20.43251     78.67099        10     1.003     0.711   4.23   0
       354    985.0784    193.8595 300.4627903 +22.7335643     18226.79     72.45911      1.342     2.31     4.993345     20.43251      2774.34        53     1.242     1.126  79.93   0
       355    830.3609    187.9469 300.4164689 +22.6855501     3559.959     72.42223      1.257     2.32     4.780735     20.43251     549.9953        27     1.127     0.970 -67.69   0
       356    933.8812    186.7660 300.4491252 +22.7162003     2681.885     72.38532      1.313     2.19     4.887077     20.43251     425.5932        21     1.027     0.919  63.55   0
       357    379.7402    183.5334 300.2775852 +22.5493088     719.2051     72.45911      1.320     2.52     4.728785     20.43251     91.72284         9     0.915     0.601 -72.18   0
       358    133.0361    184.0936 300.2007005 +22.4755242     312.6275     72.40378      1.189     2.38     4.951538     20.43251     51.90966         6     0.721     0.557  37.89   0
       359    493.6709    180.6807 300.3139607 +22.5826259     329.1976     72.53282      1.303     3.94     4.957088     20.43251     44.36847         8     0.937     0.697  46.97   0
       360    303.8552    175.1338 300.2567077 +22.5241551     743.1647     72.47755      2.074     3.95     4.797055     20.43251     81.57137        12     1.237     1.028 -67.28   2
       361    838.3436    173.1187 300.4237677 +22.6836766     237.6087     72.45911      1.414     2.10     4.841182     20.43251     49.65174         5     0.718     0.425  68.55   0
       362     70.0854    172.4812 300.1849086 +22.4533168     596.3792     72.56965      1.333     3.03      5.09111     20.43251     84.98301        11     1.010     0.750 -85.13   0
       363    430.9752    170.6048 300.2977190 +22.5609472     1700.686     72.38532      1.237     2.09     4.768996     20.43251     288.4817        16     0.928     0.832  43.93   0
       364    358.9449    171.1375 300.2751377 +22.5395168        484.9     72.49598      1.226     2.04     4.728511     20.43251     81.87183         9     0.745     0.703 -71.85   0
       365    492.7526    169.7933 300.3172068 +22.5792227     379.4271     72.44067      1.211     3.99     5.038057     20.43251     63.76135         8     0.976     0.642 -30.98   0
       366    255.1903    166.8819 300.2442525 +22.5071999     224.0817     72.36687      1.239     3.63     4.866157     20.43251     38.31355         6     0.913     0.592  29.14   0
       367    174.1544    166.0779 300.2193229 +22.4826788     338.7793     72.40378      1.488     3.71     4.971699     20.43251      46.2487         5     0.789     0.501 -21.61   0
       368    647.9996    164.0039 300.3674189 +22.6240612     282.6407     72.20052      1.451     3.74     4.810677     20.43251     24.60957         5     0.638     0.630   0.01   0
       369    719.1318    159.9989 300.3908751 +22.6442116     409.4554     72.38532      1.194     3.23     4.972388     20.43251     66.78616         5     0.636     0.593   0.15   0
       370    205.1358    150.6463 300.2339580 +22.4875348     5879.711     72.45911      1.326     2.39     4.932509     20.43251     752.7565        32     1.134     1.034  65.33   0
       371    995.5493    151.1131 300.4799239 +22.7244033     3595.195     72.42223      1.340     2.46     5.058566     20.43251     393.4464        25     1.079     0.987  63.15   0
       372    711.7332    150.9619 300.3915017 +22.6393984     326.2792     72.40378      1.282     3.07     4.964455     20.43251     51.07351         9     0.946     0.644  58.89   0
       373     56.2784    150.3508 300.1877976 +22.4428245     914.7878     72.42223      1.848     2.90     5.122555     20.43251     76.95514        14     0.982     0.886 -76.84   0
       374    834.4214    147.2826 300.4309263 +22.6750737     349.3008     72.38532      1.168     3.47     4.920975     20.43251     49.05202         5     0.745     0.467  74.08   0
       375    176.8523    144.5748 300.2271361 +22.4773135     384.4469     72.44067      1.221     3.37     4.975087     20.43251     49.34536         7     0.755     0.640   0.07   0
       376    680.9640    141.1982 300.3850839 +22.6273780     204.6979     72.40378      1.198     2.37      4.91269     20.43251     45.12319         5     0.757     0.481  57.48   0
       377    220.6527    141.5444 300.2417337 +22.4895722      242.421     72.45911      1.083     2.50     4.891375     20.43251     53.24517         5     0.701     0.462 -20.72   0
       378    451.1762    135.8228 300.3152870 +22.5570071     6060.567     72.38532      1.277     2.15     4.918206     20.43251     958.4016        32     1.096     0.995  84.13   0
       379    336.7844    135.7443 300.2797252 +22.5227102     580.9958     72.40378      1.174     2.44     4.635738     20.43251     104.7125        12     0.977     0.689  78.85   0
       380    508.3012    130.6079 300.3347566 +22.5726216     230.8226     72.29298      1.238     3.14     5.104305     20.43251      39.0455         5     0.713     0.472 -13.47   0
       381    204.5655    129.7059 300.2405725 +22.4813509      164.249     72.38532      1.260     3.48     4.906713     20.43251     30.97658         5     0.753     0.465  73.07   0
       382    645.1705    126.6545 300.3786528 +22.6124789      332.224     72.42223      1.242     2.81     4.938171     20.43251     48.80004         7     0.829     0.599 -80.78   0
       383    796.3746    124.2827 300.4265285 +22.6570704     392.1559     72.40378      1.134     4.04      4.98095     20.43251     79.27796         8     1.313     0.482 -87.92   0
       384    703.7372    125.2450 300.3973523 +22.6296114     770.0238     72.44067      1.369     3.12     4.987704     20.43251     98.22859        12     1.032     0.742 -66.47   0
       385    327.3793    125.2969 300.2801885 +22.5168911     108.7575      72.3484      1.024     4.06     4.590691     20.43251     29.33329         6     0.878     0.537 -46.22   0
       386    144.0326    119.8257 300.2249630 +22.4603695     425.9179     72.42223      1.260     3.98     5.010172     20.43251     63.98598         9     1.039     0.741  72.83   0
       387    502.7484    118.3392 300.3370074 +22.5674328     357.4575     72.47755      1.184     2.58     5.104305     20.43251     73.99369         9     0.836     0.767  17.73   0
       388    579.5688    115.8016 300.3617446 +22.5897130     6154.842     72.38532      1.221     2.19     5.032768     20.43251     917.3126        37     1.129     1.066 -64.11   0
       389    354.4524    114.9045 300.2919794 +22.5220181     1324.496     72.49598      1.267     2.30     4.571718     20.43251     209.5704        17     1.028     0.836  75.44   0
       390    620.4963    113.0523 300.3753803 +22.6011800     824.9708     72.49598      1.223     2.61      4.98161     20.43251     107.0559        12     0.909     0.779  42.45   0
       391    636.6615    109.3512 300.3816148 +22.6049571     559.0724     72.47755      1.185     2.42     4.992035     20.43251      82.0727         8     0.862     0.600  85.71   0
       392    103.4044    107.4118 300.2163642 +22.4446263     661.5569      72.2745      1.337     2.37     5.015296     20.43251     82.97874        11     0.848     0.769 -68.84   0
       393    906.5522    106.8402 300.4665302 +22.6850343      482.757     72.47755      1.340     2.11     4.989762     20.43251      74.5751         8     0.719     0.665 -18.37   0
       394    945.3057    106.4713 300.4787340 +22.6965264      162.184     72.53282      1.009     3.03     4.962556     20.43251     44.63347         5     0.731     0.439 -24.02   0
       395    675.0861    104.5075 300.3951532 +22.6150709     532.4747     72.58806      1.270     2.82     5.001678     20.43251     72.33492        10     0.966     0.634 -59.83   0
       396    623.7656    100.7538 300.3803870 +22.5986241       2735.5     72.44067      1.215     2.07     5.017136     20.43251     486.1994        24     1.044     0.905 -79.57   0
       397    264.7271    101.6128 300.2683866 +22.4913137     395.9063     72.44067      1.117     2.96     4.575915     20.43251     60.10236         6     0.871     0.445  88.63   0
       398    639.0342     99.6126 300.3855121 +22.6028684     1042.385     72.40378      1.808     5.64     5.018513     20.43251     95.78928        16     1.526     0.709  52.28   0
       399    710.2857     92.2409 300.4100962 +22.6220839     1517.182     72.40378      1.216     2.17     5.042568     20.43251     240.4513        15     0.896     0.835 -56.21   0
       400    648.2077     85.4131 300.3929738 +22.6015336     709.0347     72.31146      1.284     2.48     5.061028     20.43251     105.9361        14     0.933     0.866 -66.07   0
       401    453.7585     84.7423 300.3326565 +22.5431040     968.6169     72.40378      1.247     2.43     4.802788     20.43251     153.9497        15     0.986     0.849  40.34   0
       402     26.8382     84.8970 300.1998793 +22.4152088     474.9425     72.40378      1.326     2.33     4.994706     20.43251     72.30173         8     0.814     0.591 -41.62   0
       403    357.5282     83.1186 300.3032440 +22.5138086      682.791     72.55124      1.190     2.56     4.501237     20.43251     99.72279        11     0.926     0.726  41.82   0
       404    739.8022     81.6766 300.4227180 +22.6278836     434.5741     72.32993      1.323     2.32      5.04574     20.43251     62.72411         6     0.699     0.600 -50.03   0
       405   1000.6584     79.4356 300.5047655 +22.7053132      2374.33     72.42223      1.405     2.64     4.770686     20.43251     295.3726        23     1.149     1.030  82.54   0
       406    128.9604     73.1426 300.2354174 +22.4424474     3997.588     72.40378      1.461     2.49     5.021102     20.43251     463.5464        33     1.290     1.101  35.55   0
       407    697.0627     73.2537 300.4121342 +22.6126661     611.2221     72.47755      1.283     2.73     5.075846     20.43251     97.61951        12     1.033     0.674  78.10   0
       408    551.7673     69.7977 300.3680078 +22.5681649     358.9782     72.38532      1.288     2.69     4.725308     20.43251     51.45957         7     0.837     0.572 -31.06   0
       409    454.6464     70.2775 300.3376232 +22.5392136     354.8839     72.42223      1.185     3.08     4.636853     20.43251     46.08388         5     0.734     0.449 -73.53   0
       410    690.1820     65.3159 300.4125648 +22.6083239     814.8551     72.38532      1.194     2.85     5.098334     20.43251     120.8843        11     1.061     0.616  74.65   0
       411    244.9822     65.1931 300.2740571 +22.4749364     1198.886     72.38532      1.298     2.42     4.453043     20.43251     167.1523        17     1.026     0.867  48.99   0
       412    177.2052     65.5613 300.2528689 +22.4547304     277.6174     72.44067      1.012     3.90     4.935487     20.43251     35.38939         6     1.169     0.373 -60.61   0
       413    728.0894     60.3143 300.4259958 +22.6182348     755.3217     72.58806      1.513     3.06     5.057872     20.43251     84.92043        13     1.108     0.713  88.59   0
       414    651.4527     60.0676 300.4022032 +22.5952191     491.8526     72.44067      1.150     3.35     5.133059     20.43251     64.66991         7     0.817     0.600  71.24   0
       415    748.1306     56.6959 300.4334133 +22.6231941     2205.726     72.55124      1.277     2.08      5.04574     20.43251     357.5429        21     1.060     0.915  84.95   0
       416    453.7986     55.0421 300.3422994 +22.5345817     504.7839     72.42223      1.208     2.65     4.467719     20.43251     79.53447         9     0.935     0.591  37.00   0
       417    131.4142     51.9188 300.2430612 +22.4370885     1081.563     72.40378      1.473     3.00     5.032941     20.43251     130.2915        16     1.165     0.841  43.89   0
       418    923.0683     50.0000 300.4901126 +22.6736278     812.3596     72.36687      1.317     2.38     4.568041     20.43251     117.8553        11     1.012     0.722 -28.11   0
       419    696.5375     49.2885 300.4197414 +22.6056187     870.7516     72.49598      1.142     2.19     5.119811     20.43251     126.0221        12     0.894     0.722  40.13   0
       420    403.1729     47.3499 300.3290412 +22.5172065     326.5595     72.44067      1.226     4.13     4.455096     20.43251     44.37762         7     0.773     0.650  12.95   0
       421    316.3935     42.7273 300.3035465 +22.4898806     303.0703     72.36687      1.419     3.86       4.4049     20.43251     36.83165         6     0.863     0.517  45.35   0
       422    454.1096     41.6867 300.3467263 +22.5308370     365.5268     72.58806      1.461     4.84     4.322522     20.43251     43.23687         7     0.908     0.731  79.12   0
       423    309.8046     41.8047 300.3017965 +22.4876415      112.775      72.2745      1.417     4.51     4.402575     20.43251     30.54118         5     0.782     0.739 -61.24   0
       424    281.6743     38.8834 300.2939958 +22.4783739     384.7032      72.5144      1.398     3.29     4.377085     20.43251     47.70307         6     0.872     0.480  53.32   0
       425    549.0090     34.0494 300.3787399 +22.5570640     912.8273     72.42223      1.271     2.28     4.179248     20.43251      136.704        11     0.879     0.720  84.59   0
       426    283.6159     32.2997 300.2967341 +22.4770644      277.951     72.32993      1.326     3.48     4.376369     20.43251     41.94023         5     0.933     0.480 -84.33   0
       427    158.4284     31.1999 300.2581734 +22.4392350     427.8317     72.38532      1.240     2.61     5.154579     20.43251     58.76783         6     0.693     0.623 -38.99   0
       428    343.4959     29.8024 300.3161661 +22.4942872     316.3089     72.32993      1.258     3.79     4.391427     20.43251     40.28157         6     0.910     0.668 -29.77   0
       429    712.3216     28.7478 300.4313183 +22.6044380     766.3561     72.42223      1.275     2.33     5.114933     20.43251     120.6034        13     0.966     0.764 -63.54   0
       430    520.7375     27.1153 300.3721872 +22.5466045     1867.032     72.53282      1.300     2.33     4.000236     20.43251     253.0863        21     1.147     0.866 -85.56   0
       431    243.5773     24.6443 300.2867667 +22.4628685     623.8663     72.47755      1.276     2.69     4.168751     20.43251     90.67169        10     0.847     0.766  63.31   0
       432    478.0417     20.8397 300.3609327 +22.5320139     1309.887      72.5144      1.313     2.38     3.925865     20.43251     195.1325        19     1.044     0.891  58.14   0
       433     81.1689   1017.0093 299.9139270 +22.6988290     1075.146     72.42223      4.419     7.09     37.44297     20.43251     40.20338        11     2.201     0.640 -78.91  19
       434    178.8069     16.8658 300.2691539 +22.4412254     585.5082     72.42223      1.350     1.84      4.86034     20.43251     93.94038         8     0.737     0.622 -55.77   0
       435    408.6505     15.1127 300.3411967 +22.5095842     301.4979     72.42223      1.402     2.26     4.315463     20.43251     47.16034         5     0.708     0.445 -71.75   0
       436     58.3658   1009.2219 299.9093793 +22.6897487     1403.896     72.44067      8.760     9.85     42.68071     20.43251     40.90327        23     2.205     1.226 -77.99  19
       437    200.9146   1017.3912 299.9510074 +22.7349012     688.2119     72.36687      2.328     6.89     10.79941     20.43251     52.99258        15     1.315     1.087 -11.27  16
       438    761.6611   1016.5120 300.1257778 +22.9029417      393.619     72.49598      1.375     3.36     2.833754     20.43251     38.35204         5     1.076     0.305  69.45   0
       439    490.3546   1017.3824 300.0410197 +22.8217899      400.131     72.44067      1.625     4.31     2.780871     20.43251     40.19826         6     0.924     0.573 -44.40   0
       440    518.4783   1013.6335 300.0509921 +22.8291550     1430.538     72.40378      1.633     3.44     2.997497     20.43251     133.1693        21     1.152     1.078 -10.20   0
