#   1 NUMBER                 Running object number                                     
#   2 X_IMAGE                Object position along x                                    [pixel]
#   3 Y_IMAGE                Object position along y                                    [pixel]
#   4 ALPHA_J2000            Right ascension of barycenter (J2000)                      [deg]
#   5 DELTA_J2000            Declination of barycenter (J2000)                          [deg]
#   6 FLUX_APER              Flux vector within fixed circular aperture(s)              [count]
#   7 FLUXERR_APER           RMS error vector for aperture flux(es)                     [count]
#   8 FLUX_RADIUS            Fraction-of-light radii                                    [pixel]
#   9 FWHM_IMAGE             FWHM assuming a gaussian core                              [pixel]
#  10 BACKGROUND             Background at centroid position                            [count]
#  11 THRESHOLD              Detection threshold above background                       [count]
#  12 FLUX_MAX               Peak flux above background                                 [count]
#  13 ISOAREA_IMAGE          Isophotal area above Analysis threshold                    [pixel**2]
#  14 A_IMAGE                Profile RMS along major axis                               [pixel]
#  15 B_IMAGE                Profile RMS along minor axis                               [pixel]
#  16 THETA_IMAGE            Position angle (CCW/x)                                     [deg]
#  17 FLAGS                  Extraction flags                                          
         1    215.0874     14.2917 300.2354524 +22.4424373     4028.246     72.49197      1.626     2.82     4.856046     20.40546     410.9827        40     1.472     1.202  33.73   0
         2    541.0583     11.8185 300.3376871 +22.5393166     419.8609      72.2895      1.313     3.31      4.77414     20.40546     54.82294         7     0.856     0.679 -10.90   0
         3    776.4257      7.0254 300.4125693 +22.6083630      931.598     72.28951      1.501     2.76     5.711549     20.40546      111.365        16     1.035     0.904  75.08  16
         4    331.0261      6.3185 300.2740965 +22.4748631     1191.135     72.30793      1.434     2.97     4.665197     20.40546     145.8566        20     1.110     1.021  72.94  16
         5    814.5627      2.1009 300.4260538 +22.6183539     616.1823     60.53238      1.454     4.15     5.805407     20.40546     64.26804        12     1.079     0.841  36.17  24
         6    737.4821      2.0345 300.4020485 +22.5952771      480.889      60.2013      1.243     2.82      5.65912     20.40546     72.45467         9     0.973     0.628 -23.66  24
         7    217.3370   1002.5014 299.9152741 +22.7267479     1776.433     72.41841      4.484    12.79     78.72404     20.40546     59.58267        41     2.702     1.685 -69.48   3
         8    776.3532   1023.5942 300.0824182 +22.9004698     231.4784     56.71397      1.516     4.20     2.996751     20.40546     26.91233         5     1.028     0.489  -2.51  24
         9    339.4825   1022.6605 299.9466987 +22.7691804     563.7499     61.79588      1.544     3.88     13.92698     20.40546     76.74963        15     1.173     0.980  40.88  24
        10    122.9169    959.6910 299.8998535 +22.6861381     5414.294      72.4552     24.394    90.29     34.23005     20.40546     106.9713      3523    19.405    17.404 -35.05  19
        11    677.3646    997.4933 300.0600680 +22.8633020     8493.764     72.28951      1.928     4.45     3.158521     20.40546     511.1811        49     1.528     1.437  44.16   3
        12    682.7333    995.1803 300.0624932 +22.8642478     9599.846      72.2895      1.963     4.41      3.16237     20.40546     531.6124        49     1.505     1.456 -43.48   3
        13    778.3804    999.2657 300.0909671 +22.8940943      439.203     72.28951      1.588     5.52     3.133431     20.40546     51.65574         9     1.263     0.679  -7.88   2
        14    777.2092    997.0000 300.0913393 +22.8930928     321.8623     72.12342      1.936     3.07      3.14476     20.40546     54.30085         5     0.717     0.517   0.06   3
        15    207.5207    976.9200 299.9205454 +22.7164679     516.6194      72.4552      3.895     7.75     56.29327     20.40546     43.95616        11     1.615     1.041  76.37   2
        16    211.0126    989.6136 299.9175011 +22.7211550     1483.061     72.25262      2.938     9.71     67.50427     20.40546     56.64462        26     2.230     1.181 -63.56   2
        17    281.8588    984.4988 299.9411937 +22.7409476     8329.239     72.41841      9.495    36.99     35.17611     20.40546     166.9623       884    12.312     5.071  66.40  27
        18    120.6866    926.6187 299.9099185 +22.6759877     4029.107     72.27106     19.882    57.91     9.853379     20.40546     82.97925       978    12.794     7.285 -20.70   3
        19     25.9445    983.6974 299.8619146 +22.6639112     888.8182     72.41841      3.310     6.80   -0.1219663     20.40546     61.18941        11     1.508     0.860  37.24   2
        20    698.3949    983.9744 300.0710187 +22.8657272     295.1923     72.30793      1.488     4.67     3.191008     20.40546     27.97746         5     1.040     0.595   0.80   0
        21    968.9246    982.0000 300.1559956 +22.9462423     759.9131     72.19728      2.111     3.91     3.207555     20.40546     45.35201         6     1.118     0.434  14.42   2
        22    542.1917    986.1772 300.0216530 +22.8195221     484.4575     72.32635      1.779     5.45      3.10468     20.40546     34.05966         7     1.429     0.586  35.43   0
        23     16.5562   1002.5819 299.8528544 +22.6665046     1373.698     72.34477     14.817    15.72    -9.265962     20.40546     55.88892        34     3.734     1.840  63.12  27
        24    217.1087   1009.9084 299.9127930 +22.7288029     2310.498     72.49197      5.244    15.69     84.76625     20.40546     67.39149        70     3.071     2.579  61.70  19
        25    189.7884    967.0388 299.9182476 +22.7083136     1609.415     72.32635      5.176    13.45     47.70689     20.40546     54.10027        42     3.521     1.429  36.62   2
        26    212.6052   1007.4154 299.9122041 +22.7267367      1566.23     72.21574      3.100    10.66     82.17218     20.40546     63.80373        28     2.225     1.424 -67.11   3
        27    695.5894    964.5084 300.0764783 +22.8592991     6704.459     72.27106      1.859     3.99     3.240357     20.40546     407.3513        45     1.462     1.382  -1.46   0
        28      3.4323    990.2374 299.8527943 +22.6590270     1460.232     66.77046     14.020    16.98     -17.1023     20.40546     41.40825        47     4.839     1.655 -80.72  27
        29    575.0898    959.3885 300.0406122 +22.8217011     551.0557     72.27106      2.197     6.35     3.155696     20.40546     40.44811         8     1.222     0.927 -46.36   0
        30    847.3752    958.8201 300.1256337 +22.9031626     408.7168     72.34477      1.903     4.41     3.345369     20.40546     27.79239         5     1.145     0.483 -34.12   0
        31    604.0794    955.0801 300.0510414 +22.8291573     1595.841      72.4552      1.716     3.93     3.212184     20.40546     126.8985        24     1.252     1.205  17.41   0
        32    497.8904    951.5380 300.0191314 +22.7962980     1114.298     72.41841      1.820     4.29     3.307503     20.40546     86.85216        21     1.236     1.158 -66.73   0
        33    428.4835    949.6458 299.9981453 +22.7749385     6763.945     72.30793      1.831     4.05     3.682715     20.40546     460.9929        45     1.469     1.384 -62.71   0
        34    461.3117    936.3578 300.0126844 +22.7809726     452.8595     72.32635      1.705     5.53     3.563772     20.40546     38.73405        11     1.064     0.810  48.95   0
        35    974.8867    928.4777 300.1752694 +22.9326572     2133.031     72.47359      1.948     5.01     3.495703     20.40546     110.7399        29     1.443     1.302  -3.09   0
        36    624.6879    925.7127 300.0670135 +22.8269082     478.5063     72.49197      1.546     4.08     3.309043     20.40546     46.65018         6     0.896     0.608 -16.69   0
        37    473.3233    925.6616 300.0199023 +22.7815062     391.7104      72.3816      1.900     4.18     3.558181     20.40546     37.93051         6     0.724     0.688  81.93   0
        38    530.6838   1011.8276 300.0097238 +22.8234298     410.9732     72.32635      1.603     3.85     3.073412     20.40546     40.82486         6     1.033     0.411 -76.75   0
        39    145.4427   1022.4119 299.8864477 +22.7108781     3545.505     62.97061      6.196    25.82      89.5942     20.40546      101.263       192     6.911     2.678   4.07  27
        40    763.7317    917.1431 300.1131205 +22.8661285     889.2513     72.34477      2.231     5.92     3.571973     20.40546     51.39858        18     1.295     1.149 -87.04   0
        41    798.6389    911.3589 300.1258816 +22.8749297     1053.767     72.41841      1.835     4.56     3.688038     20.40546     69.70876        19     1.250     1.057 -54.96   0
        42    155.4038    911.0052 299.9257866 +22.6819298     1196.521      72.1419     13.079    13.61     12.20337     20.40546     44.30215        22     3.435     1.500  65.01   3
        43    126.1381   1016.2225 299.8824622 +22.7033095     4978.583     72.30793      8.842    31.65     78.50392     20.40546     98.83797       499     6.652     6.451  68.45  27
        44     12.2948   1000.0083 299.8523680 +22.6644877     1541.124     72.21574     10.901    12.49    -12.90146     20.40546     40.61794        32     3.016     1.441 -67.61  19
        45      8.9722    908.8057 299.8810036 +22.6373518     458.6005     72.32635      1.593     3.05     3.299014     20.40546     44.98434         7     0.819     0.672 -70.28   0
        46    820.7537    905.2321 300.1347680 +22.8797980     11393.41     72.36319      1.778     3.98     3.706784     20.40546     675.3715        51     1.431     1.401 -61.08   0
        47    866.2171    905.2203 300.1489453 +22.8934182     480.9247     72.30793      1.887     4.06      3.66297     20.40546     43.37344         8     0.994     0.824  42.47   0
        48   1011.9945    905.2078 300.1944155 +22.9370898     340.9615     72.17883      1.723     6.25     3.657686     20.40546     37.27076         7     1.227     1.003 -26.01   0
        49      7.1242    993.5405 299.8528663 +22.6610820     1385.248      72.3816     13.324    11.96     -15.3559     20.40546     47.09662        23     3.205     1.244  80.63  19
        50      4.6233   1017.8232 299.8441889 +22.6672896     2547.986     70.76196      8.606    32.79    -24.20361     20.40546     61.13498       207     7.075     4.218 -11.36  27
        51    132.7768    897.0605 299.9232894 +22.6711416     1172.715     72.30793      5.638     5.37     8.642653     20.40546     72.84087        19     1.493     1.032  50.73   0
        52    108.9332    899.0804 299.9152227 +22.6645655     738.1811     72.43681      3.842     4.38     6.712932     20.40546      33.8551         5     1.094     0.499  38.48   0
        53      3.5369   1007.6724 299.8471542 +22.6640546     2010.769      67.1287     11.747    19.09    -22.07252     20.40546     48.82369        80     3.861     2.622 -80.90  27
        54    872.2114    892.8411 300.1548410 +22.8916594     359.8126     72.32635      1.548     5.18      3.74827     20.40546     33.33781         8     1.143     0.663 -42.61   0
        55    526.0421    892.9933 300.0469389 +22.7879415     478.6127     72.34477      1.585     3.65     3.427206     20.40546     50.41267         9     0.916     0.754  21.90   0
        56    829.3995    887.4636 300.1432427 +22.8772867      1359.91     72.32635      1.722     4.45     3.813205     20.40546     96.81831        24     1.405     1.115   8.16   0
        57    121.9997    887.6609 299.9229971 +22.6652126     719.9116     72.27106      3.686     6.69     7.022486     20.40546     33.94545        12     1.420     0.884   9.59   0
        58   1011.9948    886.0870 300.2006352 +22.9315972     247.6258     72.25262      1.683     4.48     3.793693     20.40546     35.40231         6     1.443     0.396 -18.26   0
        59    681.8315    884.3267 300.0982752 +22.8321594      453.662     72.32635      1.729     5.26     3.647868     20.40546      41.7229         9     1.247     0.633  -7.36   0
        60    867.5129    880.7184 300.1573190 +22.8867701     917.1407      72.4552      1.988     5.89     3.833903     20.40546     49.25544        19     1.362     1.115  39.37   0
        61    915.5692    871.6653 300.1752486 +22.8985684     594.5297     72.32635      1.734     5.84     3.895306     20.40546     53.83421        13     1.133     0.919  30.19   0
        62    767.1935    871.0626 300.1291877 +22.8539358     765.5106      72.2895      1.572     4.38     3.909116     20.40546     62.45756        17     1.332     0.930 -15.79   0
        63    479.7074    867.4496 300.0408228 +22.7667180     4223.506     72.36319      1.677     3.38     3.580923     20.40546     338.9583        36     1.357     1.253 -48.33   0
        64    399.1061   1008.9507 299.9697088 +22.7831369     673.5976      72.3816      3.025     5.18     3.846478     20.40546      39.5038        10     1.298     1.024 -51.50   0
        65    778.3828    868.2560 300.1335878 +22.8564832     685.6331     72.30793      1.758     5.39     3.933539     20.40546      50.2645        12     1.145     0.825 -56.44   0
        66    522.8964    855.6595 300.0581014 +22.7762845     283.4006     72.40001      1.522     5.55     3.605227     20.40546     29.26989         7     0.993     0.875  27.94   0
        67    174.3821   1018.2014 299.8968125 +22.7183571      1070.28     72.23418      3.149    11.42     91.58428     20.40546     62.78077        28     3.223     1.126 -23.90  16
        68    141.4085    855.6505 299.9394385 +22.6618583     335.7552     72.32635      1.684     5.90     5.872615     20.40546     37.08588         7     1.375     0.712 -30.03   0
        69    205.0579   1009.5436 299.9091653 +22.7250818     423.9379     72.40001      1.711     6.47     84.74967     20.40546     43.71237        11     1.426     0.823  42.56   0
        70    205.1516    852.6512 299.9602279 +22.6801233     754.8951     72.36319      1.732     4.89     6.500346     20.40546     73.35013        16     1.293     1.083  68.30   0
        71    590.7722   1002.1262 300.0315900 +22.8386668     2356.876     72.34477      1.849     4.61     3.092026     20.40546     155.0764        33     1.465     1.327 -83.77   0
        72    182.0308    850.0377 299.9538901 +22.6724371     1422.312     72.32635      1.622     3.55     6.409035     20.40546      162.152        25     1.271     1.190  15.94   0
        73     57.8870    839.4852 299.9187411 +22.6321608     463.3091      72.4552      1.841     5.27     3.995347     20.40546     42.13734         7     1.342     0.584  51.91   0
        74   1008.1375    837.6711 300.2151783 +22.9165326     2175.825     72.36319      1.828     4.26     4.044058     20.40546     139.0006        30     1.397     1.271  49.23   0
        75    714.1540    838.1620 300.1233591 +22.8285938     484.3351      72.3816      1.528     4.45     3.923998     20.40546     41.04756         7     1.140     0.494  36.09   0
        76    214.3977    832.0198 299.9698109 +22.6769801     456.5222     72.25262      1.687     4.61     5.755462     20.40546     36.48931         8     1.205     0.500 -67.23   0
        77    791.5192    831.6351 300.1495914 +22.8499039     520.2755     72.27106      1.398     3.94     4.014328     20.40546     68.53549        13     1.089     0.851 -23.67   0
        78    540.0028    829.2930 300.0720010 +22.7738461     305.1883     72.23418      1.703     4.65     3.685017     20.40546     32.55262         5     1.250     0.492 -74.87   0
        79    712.5728    828.4321 300.1260304 +22.8253262     8279.545     72.32635      0.964     2.61      3.93887     20.40546     3436.635        14     0.945     0.458  25.12   0
        80    659.7999    825.5397 300.1105297 +22.8086793     4991.978     72.27106      1.622     3.28     3.875972     20.40546      424.205        37     1.314     1.217 -28.68   0
        81    150.0872    826.2997 299.9516794 +22.6560457     345.9121     72.49197      1.495     4.95     5.384257     20.40546     54.73675        10     1.274     0.855 -56.72   0
        82    566.5728    824.6158 300.0817948 +22.7804690     103.0631     72.34477      1.352     5.29     3.693655     20.40546     33.15187         5     1.025     0.771   0.64   0
        83    462.0271    822.1348 300.0500552 +22.7484130     534.7011     72.30793      1.477     3.87     3.828838     20.40546     76.48353        15     1.231     0.856  27.63   0
        84    398.2164    819.8096 300.0309536 +22.7286115     177.0367     72.25262      1.281     4.33     4.129543     20.40546     29.44179         5     0.843     0.633 -49.79   0
        85    210.0221    819.1862 299.9726232 +22.6719866     1300.316     72.30793      1.641     3.34     5.304121     20.40546     129.7755        21     1.184     1.086   6.66   0
        86    680.5504    817.8752 300.1194862 +22.8126981     701.8244     72.32635      1.428     3.19     3.955534     20.40546     71.55643        14     1.056     0.847  53.37   0
        87    228.3954    816.3352 299.9792625 +22.6766806     452.5891     72.32635      1.777     4.12     5.150342     20.40546     43.41367         5     1.273     0.380 -13.31   0
        88    597.0274    809.0289 300.0963466 +22.7851241     315.4142     72.30793      1.450     3.84     3.741129     20.40546     33.70883         5     0.671     0.629  -0.82   0
        89    835.8448    805.3012 300.1719715 +22.8556221     4108.067     72.34477      1.607     3.19     4.079432     20.40546     338.5729        35     1.302     1.208  65.75   0
        90    567.4045    802.0074 300.0894048 +22.7742288     243.9214     72.17883      1.229     4.08     3.761899     20.40546     29.11018         5     0.776     0.612   1.11   0
        91    244.3402    799.7020 299.9896280 +22.6766925     497.8191     72.40001      1.660     3.21     4.633188     20.40546     64.23923        10     0.973     0.821  37.22   0
        92    552.8256    797.8242 300.0862253 +22.7686577     620.0555      72.2895      1.480     4.69     3.768835     20.40546     60.51891        11     1.018     0.775  39.76   0
        93    199.3521    795.4232 299.9770316 +22.6619701     920.4219     72.34477      1.569     3.63     4.685554     20.40546     102.8083        15     1.101     0.938  42.39   0
        94    614.3951    791.2420 300.1075386 +22.7852238     429.0598     72.34477      1.383     3.37     3.807431     20.40546     48.37208         8     0.914     0.636 -87.67   0
        95    348.8324    787.7412 300.0260151 +22.7046008     53966.04     72.34477      1.605     3.27     4.436459     20.40546     4937.179        91     1.405     1.400  22.05   0
        96   1019.4013    786.5152 300.2353267 +22.9052080     887.2152     72.21574      1.783     5.02     4.264052     20.40546     68.19664        19     1.235     1.135  64.58  16
        97    606.6803    786.6966 300.1066136 +22.7816065     1747.748      72.4552      1.600     3.02     3.799867     20.40546       190.27        23     1.153     1.103  44.73   0
        98    277.4447    786.0796 300.0043510 +22.6827143     589.6077     72.30793      1.689     4.27     4.603519     20.40546     44.21235        10     1.045     0.648 -24.86   0
        99    635.7989    782.8669 300.1169279 +22.7892345     910.7228     72.30793      1.488     3.42     3.889439     20.40546     101.5466        16     1.074     1.021 -69.63   0
       100     35.1729    782.3907 299.9302461 +22.6089747     868.2761     72.32635      2.074     4.93     3.857137     20.40546     67.71265        11     1.124     0.764 -24.33   0
       101      2.4126    782.3375 299.9200868 +22.5991288     567.1516     62.13991      1.691     5.34     3.660179     20.40546     68.07541        10     1.245     0.753  71.33  24
       102    646.4976    781.1096 300.1208317 +22.7919365     591.9764     72.51035      1.504     5.31     3.919013     20.40546     62.82012        13     1.117     0.915  46.80   0
       103    966.6824    778.3818 300.2215245 +22.8870822     245.9792     72.28951      1.598     4.71     4.247046     20.40546      43.6298         7     1.299     0.522 -45.56   0
       104    751.9730    777.4087 300.1548976 +22.8224817     319.7317     72.32635      1.322     4.36     3.982005     20.40546     40.58174         6     0.857     0.633  39.62   0
       105    789.4854    768.0403 300.1696346 +22.8310308      738.785     72.30793      1.371     3.32     4.036857     20.40546     81.83786        13     1.070     0.791  -7.90   0
       106    398.5698    764.9976 300.0488831 +22.7129892     31353.97     72.28951      1.545     2.97     4.110444     20.40546      3396.03        70     1.344     1.312 -18.04   0
       107    412.8067    765.5638 300.0531291 +22.7174205      2007.98     72.34477      1.570     3.13     4.014636     20.40546     196.9951        24     1.211     1.077   6.84   0
       108    921.6751    761.0123 300.2131336 +22.8686115     2877.993     72.34477      1.638     3.39     4.198253     20.40546     224.4595        29     1.251     1.177  15.65   0
       109    409.4951    759.4526 300.0540851 +22.7146738     736.4869     72.40001      1.840     4.36     4.042009     20.40546     56.95839        12     1.056     0.809 -37.33   0
       110    280.9687    756.9291 300.0149227 +22.6754082     861.4162     72.32635      1.580     4.89     4.540046     20.40546     73.45475        13     1.053     0.945  28.87   0
       111    679.4536    756.9102 300.1389651 +22.7948646     877.0709     72.36319      1.485     3.44     3.957878     20.40546     97.61373        15     1.058     0.916   8.41   0
       112    515.8315    756.8560 300.0880259 +22.7458084      497.003     72.34477      1.515     3.72     3.872192     20.40546      46.2883         9     0.978     0.704 -46.35   0
       113    574.2133    754.7949 300.1068735 +22.7627166     267.6307     72.19728      1.455     3.83     3.846778     20.40546     27.86381         5     0.937     0.449 -44.80   0
       114    526.5119    751.7927 300.0929968 +22.7475565     852.7871     72.23418      1.570     3.13      3.85805     20.40546     101.3557        16     1.045     0.945  59.95   0
       115     86.3191    752.4267 299.9558766 +22.6157286     287.1892     72.30793      1.173     3.45      4.16111     20.40546      57.5473         6     0.980     0.446  54.38   0
       116    927.9993    749.0461 300.2189960 +22.8670678     431.4745     72.32635      1.491     4.08     4.212909     20.40546     62.44627         6     0.979     0.486 -31.47   0
       117    428.6919    748.3949 300.0636532 +22.7172560     314.8643     72.23418      1.371     3.67     3.982464     20.40546     45.39931         6     0.694     0.684  43.05   0
       118    384.5940    747.4242 300.0502468 +22.7037556     258.7361     72.30793      1.431     3.71     4.206251     20.40546      47.8235         6     1.034     0.659  48.48   0
       119    472.5053    746.5970 300.0778736 +22.7298754     325.3909     72.23418      1.343     4.74     3.966906     20.40546     50.80331         9     1.021     0.898 -81.46   0
       120    113.9614    746.0545 299.9665376 +22.6221941     503.2653     72.32635      1.793     6.03     4.317724     20.40546     58.45807         9     1.085     0.943 -31.89   0
       121    905.5178    743.7066 300.2137205 +22.8588001     422.8381     72.47359      1.429     5.48     4.193195     20.40546     43.42613        10     0.976     0.867 -55.02   0
       122    278.6101    741.2974 300.0192701 +22.6702161     565.9022     72.21574      1.779     3.53     4.507895     20.40546     62.02681        10     0.951     0.773 -45.00   0
       123    601.9898    731.5929 300.1230654 +22.7643804      422.405     72.19728      1.251     3.35     3.980083     20.40546     54.97633        11     0.908     0.863  57.02   0
       124    571.5820    730.0477 300.1140981 +22.7548233      618.507     72.36319      1.464     3.90     3.963211     20.40546     66.21187        14     1.124     0.889 -55.30   0
       125    481.2386    728.5307 300.0864642 +22.7273078     381.7404     72.28951      1.567     5.10      4.04601     20.40546     40.81823        10     1.005     0.832  62.19   0
       126    988.1190    726.3340 300.2451315 +22.8785468     4541.539     72.43681      1.675     3.50     4.446741     20.40546     338.4049        34     1.307     1.256 -25.14   0
       127    593.6707    727.3282 300.1218607 +22.7606627     1324.607     72.40001      1.435     2.66     4.031151     20.40546     158.7282        20     1.030     1.020  -7.91   0
       128    513.1370    726.8789 300.0969309 +22.7363955      314.978     72.41841      1.470     3.83     4.011868     20.40546     39.86522         6     0.931     0.451  48.23   0
       129    976.5933    717.7384 300.2443299 +22.8726253     1666.936     72.28951      1.635     3.70     4.419997     20.40546     135.1147        22     1.191     1.095  21.99   0
       130    339.5102    711.5404 300.0478836 +22.6799400     868.7682     72.41841      1.488     2.87     4.442495     20.40546     102.4443        14     0.972     0.890  22.21   0
       131    803.0202    708.9550 300.1930593 +22.8181143     2562.983      72.3816      1.519     3.03     4.073031     20.40546     254.2472        26     1.289     1.066  -0.23   0
       132   1007.8651    707.9012 300.2572831 +22.8791626     1794.637     72.41841      1.826     3.93     4.493176     20.40546     126.4528        26     1.369     1.132 -18.90   0
       133     25.2178    699.1962 299.9541923 +22.5821316     896.4415     72.25262      1.825     3.86     3.770811     20.40546      89.1861        18     1.267     1.051 -31.49   0
       134    885.2286    695.1771 300.2231673 +22.8387803     547.2938     72.32635      1.534     3.16     4.394115     20.40546     58.29582         9     0.857     0.751  81.40   0
       135    188.2605    695.5222 300.0060538 +22.6299864     377.3468      72.3816      1.312     3.93     4.602432     20.40546     71.88625        11     1.164     0.707 -25.05   0
       136    921.3657    685.9221 300.2374444 +22.8469437     148972.2     72.27106      1.563     3.11     4.418326     20.40546     13060.46       157     1.486     1.452 -30.04   0
       137    684.3604    689.5976 300.1623722 +22.7770045     362.1873     72.34477      1.548     3.08     4.435668     20.40546     48.14845         6     0.868     0.480  88.60   0
       138    773.8325    686.2734 300.1913332 +22.8028552     779.8034     72.32635      1.386     3.09     4.230519     20.40546     94.62688        11     1.088     0.637  53.01   0
       139    954.2606    678.4020 300.2501482 +22.8546336     530.2014     72.30793      1.676     5.90     4.450856     20.40546     41.72018        10     1.140     0.956 -81.28   0
       140    788.8137    672.0900 300.2006118 +22.8032686     9239.435     72.27106      1.436     2.87     4.199602     20.40546     1006.889        40     1.196     1.177 -73.11   0
       141    607.5290    674.7120 300.1432765 +22.7497077     1664.593     72.49197      1.335     2.58     4.697208     20.40546     223.4671        18     1.049     0.928 -18.28   0
       142    290.2757    667.0437 300.0470288 +22.6524082     4978.545     72.30793      1.497     3.02     4.453239     20.40546      565.745        31     1.228     1.128  34.41   0
       143      4.0127    665.3176 299.9586133 +22.5660539     1702.766     68.89194      1.895     4.02     3.624432     20.40546     154.1777        31     1.558     1.329  28.15  24
       144    372.2923    665.2870 300.0731127 +22.6764945     1205.046     72.49197      1.466     3.01     4.418291     20.40546     120.5308        17     1.061     0.956 -29.32   0
       145    247.9001    663.0262 300.0351559 +22.6385487     637.8682     72.27106      1.583     3.64     4.568793     20.40546     67.93036        11     1.031     0.772  40.30   0
       146    580.6317    660.5263 300.1395095 +22.7375740     725.5271     72.32635      1.410     3.08      4.69894     20.40546     90.31198        12     0.943     0.835  31.45   0
       147    572.2518    652.7647 300.1394219 +22.7328341     3244.376     72.34477      1.389     2.60     4.699842     20.40546     389.2455        28     1.163     1.052  82.52   0
       148    562.4211    646.5454 300.1383814 +22.7281023     1324.953     72.32635      1.307     2.46     4.700135     20.40546     182.3503        19     1.021     0.963  17.34   0
       149    956.0586    644.4681 300.2617361 +22.8454199     314.4736     72.34477      1.563     5.03     4.556497     20.40546     48.61332         7     1.008     0.709  11.07   0
       150    473.0329    643.3208 300.1116001 +22.7003870     224.3758     72.30793      1.433     4.28     4.571712     20.40546     34.26596         7     0.731     0.714  26.68   0
       151    225.8509    642.5405 300.0349557 +22.6260587     781.5856      72.3816      1.638     3.80     4.625094     20.40546     82.33287        15     1.166     0.947 -56.30   0
       152    690.2213    642.0470 300.1796497 +22.7651033     586.2311     72.36319      0.550    -1.93     4.655488     20.40546     372.8036         6     0.510     0.424  26.30   0
       153    239.8614    641.1345 300.0397690 +22.6298565     581.1719     72.36319      1.425     4.90     4.589968     20.40546     55.31814        11     1.114     0.785  -8.32   0
       154    297.1279    638.2827 300.0585047 +22.6462090     422.2335      72.4552      1.556     4.56     4.470347     20.40546     36.36615         9     0.934     0.684 -63.87   0
       155   1009.3719    637.7280 300.2805578 +22.8594453     576.8212     72.32635      1.614     6.09     4.550725     20.40546     47.36557        14     1.193     0.875 -15.01   0
       156    487.2587    636.2888 300.1183130 +22.7026318      1859.62     72.40001      1.396     2.86     4.637186     20.40546     201.0828        20     1.139     1.010 -46.27   0
       157    265.7477    638.0515 300.0488204 +22.6367338     539.4705     72.36319      1.336     3.40     4.526437     20.40546     65.41274        11     1.004     0.752 -10.23   0
       158    586.3894    636.9773 300.1489541 +22.7325371     507.5635     72.32635      1.418     2.56     4.728981     20.40546     72.78136         9     0.870     0.684 -32.83   0
       159    520.8437    635.6964 300.1289608 +22.7125272     232.5667     72.34477      1.167     4.50      4.67894     20.40546     43.38376         5     1.200     0.479 -29.61   0
       160    141.2190    631.1426 300.0123490 +22.5974080     19804.34     72.32635      1.623     3.10     4.575864     20.40546     2061.471        61     1.413     1.329  34.54   0
       161     62.2976    633.0947 299.9871891 +22.5742966     687.2714     72.51035      1.499     2.84     4.340433     20.40546      82.0066        10     0.869     0.761 -89.37   0
       162    572.3630    631.5633 300.1463451 +22.7267793     1086.128     72.40001      1.338     2.45     4.727995     20.40546     153.5254        17     1.051     0.946 -15.75   0
       163    607.7009    630.7347 300.1576194 +22.7371302     243.2642     72.41841      1.161     3.41      4.74423     20.40546     52.51852         5     0.839     0.451  44.16   0
       164    325.7568    622.9304 300.0723972 +22.6503862     395.3418      72.2895      1.935     4.99     4.479196     20.40546     37.13751         6     1.073     0.658  65.51   0
       165    990.3522    617.7552 300.2811134 +22.8480101     1088.276     72.34477      1.634     3.64     4.615472     20.40546      89.4944        16     1.064     1.012  32.41   0
       166     87.3493    615.2902 300.0007572 +22.5767034     1457.491     72.34477      1.828     4.38     4.512435     20.40546     118.6374        24     1.523     1.028  81.81   0
       167    857.1073    616.0345 300.2401158 +22.8076178     331.4619     72.27106      1.128     3.88     4.651456     20.40546     53.85968         9     1.038     0.633  -0.30   0
       168    153.4973    615.3635 300.0212913 +22.5965633     379.2915     72.32635      1.245     2.88     4.570754     20.40546     54.62978         8     0.892     0.641 -89.34   0
       169    930.4556    610.8261 300.2646810 +22.8280850     939.7889     72.32635      2.197     3.65     4.685616     20.40546     75.33315        14     1.186     0.850  21.17   2
       170    535.5219    612.1757 300.1411722 +22.7101721     345.2635     72.30793      1.256     2.87     4.753331     20.40546     62.06946         8     0.832     0.680 -40.27   0
       171    328.5193    611.0604 300.0771127 +22.6478074     191.7812      72.3816      1.310     3.72     4.486275     20.40546     36.18262         6     0.805     0.494 -83.32   0
       172    492.2776    604.5557 300.1301846 +22.6950248     784.1433     72.30793      1.389     2.92      4.76094     20.40546      86.1293        13     1.061     0.759 -36.28   0
       173    640.5746    603.0499 300.1768530 +22.7390284     495.7378     72.34477      1.401     3.20     4.755068     20.40546     63.77953        10     0.921     0.767  43.41   0
       174    687.9133    601.4605 300.1921167 +22.7527537     435.5368     72.41841      1.293     3.64      4.72208     20.40546     70.21247        11     1.140     0.688 -65.08   0
       175    657.9709    601.1770 300.1828805 +22.7437022      466.472     72.32635      1.311     2.80     4.752716     20.40546     65.49113         8     0.826     0.629  45.15   0
       176    536.6162    600.3809 300.1453446 +22.7071131     866.5271     72.30793      1.373     2.73     4.806297     20.40546      92.6162        14     0.974     0.858 -89.95   0
       177    723.2520    599.7673 300.2036778 +22.7628531     242.4384     72.34477      1.192     3.93     4.665062     20.40546     33.70411         7     0.860     0.595  55.36   0
       178    970.3952    595.9852 300.2819604 +22.8357776     3237.345     72.19728      1.490     2.87     4.571368     20.40546     320.5106        28     1.181     1.107 -18.07   0
       179    502.1582    595.8231 300.1360973 +22.6954784     1676.506     72.36319      1.287     2.41      4.78303     20.40546     219.5097        19     1.035     0.924  74.88   0
       180     64.0144    589.3361 300.0019369 +22.5622590     5253.976      72.2895      1.731     3.29     4.490891     20.40546     509.5933        42     1.401     1.328  21.05   0
       181    852.1178    591.6765 300.2464734 +22.7991241     286.8228     72.43681      1.193     3.85     4.570217     20.40546     36.55847         6     1.048     0.406  13.96   0
       182    477.1691    590.5990 300.1300153 +22.6864895     320.2789      72.2895      1.358     3.35     4.744243     20.40546     38.20371         5     0.784     0.415 -23.10   0
       183    531.4811    586.6171 300.1482168 +22.7016218     281.8822     72.34477      1.173     3.12     4.860258     20.40546     41.16546         6     0.851     0.484  -4.03   0
       184    365.5703    582.4966 300.0979177 +22.6507151     9057.707     72.27106      1.425     2.45     4.446806     20.40546      1208.22        39     1.186     1.154 -67.36   0
       185    488.0154    579.6008 300.1369641 +22.6865819     8908.015     72.17883      1.354     2.44     4.776927     20.40546     1215.737        39     1.163     1.100  53.83   0
       186    734.2489    575.6308 300.2149453 +22.7592129     286.0865     72.36319      0.948     3.43     4.602466     20.40546     36.67485         5     1.121     0.304  53.57   0
       187    899.7723    573.5518 300.2672207 +22.8081850     1905.043     72.34477      1.533     2.89     4.490436     20.40546     215.3519        24     1.228     1.063 -63.01   0
       188    984.3619    571.0413 300.2944204 +22.8327888     12451.63     72.41841      1.519     3.00     4.381561     20.40546     1173.783        48     1.301     1.234 -35.87   0
       189    548.5569    569.2078 300.1591885 +22.7017388     11690.27     72.34477      1.313     2.43     4.984623     20.40546     1465.267        43     1.144     1.129 -80.45   0
       190    718.1461    565.2319 300.2133052 +22.7514021     602.1356     72.34477      1.561     2.37     4.651946     20.40546       67.967         7     0.699     0.645  51.08   0
       191    275.9613    564.5178 300.0758831 +22.6186922     1306.094      72.2895      1.482     3.07     4.476545     20.40546     132.5397        18     1.040     1.001  45.77   0
       192    434.0737    564.2481 300.1251612 +22.6660081     237.6239     72.32635      1.193     2.86     4.672998     20.40546     41.79879         7     0.740     0.657   2.83   0
       193    523.2083    562.1080 300.1536020 +22.6921045     440.4038     72.23418      1.238     2.36     4.939948     20.40546     74.64882         9     0.838     0.685 -17.79   0
       194    480.2671    557.3318 300.1417853 +22.6778654     4510.065      72.3816      1.326     2.40     4.758603     20.40546      522.377        30     1.113     1.063  41.30   0
       195    823.0472    557.4557 300.2485262 +22.7805847     815.3089     72.36319      1.287     2.49     4.371297     20.40546     143.4972        13     0.959     0.834  20.39   0
       196    458.5156    555.8237 300.1355045 +22.6709141     1038.962     72.30793      1.294     2.24     4.728871     20.40546     190.9518        16     0.987     0.885 -89.85   0
       197    914.4272    554.3853 300.2780167 +22.8070640     8523.232     72.34477      1.233     4.44      4.37429     20.40546     2612.883        14     1.467     0.383 -42.41   0
       198    212.7744    554.7339 300.0594121 +22.5969403     738.0562     72.30793      1.446     4.29     4.573783     20.40546     88.20951        12     1.059     0.858 -20.32   0
       199    900.1298    552.9324 300.2740298 +22.8023657     1637.265     72.36319      1.528     3.35     4.368483     20.40546     155.8053        20     1.187     0.970 -48.77   0
       200    420.2525    551.3021 300.1250646 +22.6581488       378.15     72.41841      1.179     3.50     4.689759     20.40546     58.87503         7     0.957     0.562 -48.10   0
       201    596.8870    544.9108 300.1821304 +22.7092405     200848.3     72.49197      1.340     2.46     4.947502     20.40546     28626.78       203     1.442     1.392 -13.38   0
       202    780.6638    549.8506 300.2377846 +22.7657068      803.287      72.3816      1.328     3.56     4.400607     20.40546     101.6395        14     1.093     0.823 -33.98   0
       203    873.7683    548.5430 300.2672350 +22.7932111     206.3219     72.34477      1.175     3.12     4.345253     20.40546     39.73682         5     0.740     0.426  25.23   0
       204    282.9532    544.7545 300.0844762 +22.6151156     3435.592     72.36319      1.432     2.58     4.444505     20.40546     448.8211        28     1.198     1.054  63.50   0
       205    849.0652    541.2697 300.2618949 +22.7837240     507.8138     72.36319      1.393     4.13     4.321452     20.40546     64.52654        10     1.216     0.667  71.73   0
       206    867.3492    539.2177 300.2682622 +22.7886090     198.2031     72.32635      1.238     3.41     4.322024     20.40546      37.1006         5     0.754     0.447  74.07   0
       207    627.9888    531.1624 300.1962825 +22.7146085     385.6506     72.32635      1.648     4.91     4.897504     20.40546     47.00628         7     1.103     0.619  23.99   0
       208    487.5471    525.6434 300.1543428 +22.6709470     2835.311     72.36319      1.476     2.74     4.841905     20.40546     312.5175        31     1.612     0.986 -87.61   0
       209    331.6834    527.5815 300.1052106 +22.6247930     391.8363     72.27106      1.346     2.90     4.338811     20.40546     64.30125         8     0.942     0.614 -56.15   0
       210    937.3508    525.4210 300.2945736 +22.8056012      242.537     72.32635      1.227     4.01     4.302427     20.40546     39.90881         6     0.878     0.524 -46.59   0
       211    804.6050    514.1646 300.2568371 +22.7626213     416.2842     72.32635      1.200     2.49     4.305395     20.40546     69.34317         8     0.908     0.555  22.54   0
       212    884.5113    511.5208 300.2826088 +22.7857866     1851.127      72.4552      1.515     2.79     4.322024     20.40546     196.8783        18     1.025     0.985  17.44   0
       213     15.0082    509.6261 300.0125975 +22.5246935     873.2894     72.32635      1.864     5.32     4.565752     20.40546     80.43358        19     1.482     1.080 -28.64   0
       214    755.6298    509.0956 300.2432180 +22.7464987     2631.068     72.27106      1.357     2.50     4.385132     20.40546     310.8266        23     1.105     1.006  65.32   0
       215    115.3826    509.0450 300.0439744 +22.5546271     174.6331     72.34477      0.989     2.95     4.555664     20.40546      48.3658         6     0.791     0.620  49.40   0
       216   1000.0383    506.4011 300.3203057 +22.8188981     545.2001     72.34477      1.666     3.86     4.131545     20.40546     49.07731         9     0.874     0.818  73.32   3
       217    998.8765    502.3078 300.3212725 +22.8173735     846.4866     72.47359      1.946     4.00     4.130792     20.40546     64.66354        12     1.048     0.872  36.48   2
       218    965.4717    506.1602 300.3096003 +22.8084822     333.8439     72.30793      1.398     2.79     4.225443     20.40546     47.83548         5     0.755     0.443 -67.93   0
       219    542.9639    504.9627 300.1783116 +22.6816112     682.2811     72.40001      1.323     2.51     5.124574     20.40546     108.4352        12     0.907     0.794   2.72   0
       220   1012.9957    503.1849 300.3253929 +22.8218517     1380.173     72.17883      1.567     3.10     4.093576     20.40546     126.1201        18     1.054     0.957  19.12   0
       221    884.9137    501.9043 300.2858572 +22.7831428     2334.744     72.51035      1.580     2.83     4.322024     20.40546     241.4546        27     1.176     1.069 -67.51   2
       222    638.1068    499.6625 300.2096635 +22.7085901     662.9153     72.41841      1.545     4.80     4.866606     20.40546     89.33582        12     1.284     0.732  64.97   2
       223    637.7158    495.0887 300.2110269 +22.7071590     385.9191      72.4552      1.480     4.05      4.86238     20.40546     45.74752         5     1.166     0.402  64.82   3
       224    424.0085    499.2276 300.1431443 +22.6443217     409.0606     72.32635      1.442     2.69     4.739156     20.40546     49.43596         7     0.793     0.670 -61.36   0
       225    922.9440    496.6243 300.2994319 +22.7930102     4285.397     72.32635      1.384     2.56     4.322024     20.40546     571.5502        30     1.159     1.075 -59.99   0
       226    476.5582    498.2709 300.1598107 +22.6597933     321.6498     72.28951      1.134     3.04       4.8632     20.40546     57.79284         8     0.950     0.583  36.67   0
       227    563.8395    496.2346 300.1876461 +22.6853582     317.2179     72.36319      1.153     2.88     5.067235     20.40546     48.66104         6     0.855     0.627  66.08   0
       228    661.0721    493.4922 300.2188212 +22.7136960     267.0471     72.47359      1.302     3.40     4.820557     20.40546     33.45361         6     0.782     0.500  -0.35   0
       229    583.3354    492.5330 300.1949193 +22.6901353     358.1764      72.3816      1.084     2.94     5.001458     20.40546     45.24457         5     0.707     0.486 -12.60   0
       230   1014.5506    487.3763 300.3310116 +22.8177716     812.4335     72.32635      1.420     2.82     4.071253     20.40546     83.27892        11     0.949     0.749  15.21   0
       231    154.7821    486.8951 300.0634122 +22.5600838     949.9686     72.25262      1.546     3.87     4.550771     20.40546     116.1339        18     1.182     1.027 -12.99   0
       232    815.8199    480.5105 300.2712615 +22.7563070     424.7891     72.27106      1.281     2.25     4.293986     20.40546     67.60665         6     0.709     0.615  50.59   0
       233    421.5682    480.2295 300.1485534 +22.6381349      259.229     72.32635      1.068     2.48     4.742662     20.40546     43.96302         5     0.691     0.476 -74.11   0
       234    147.6585    476.5258 300.0645644 +22.5549721     425.2659     72.36319      1.454     3.65     4.548885     20.40546     63.45244         9     1.084     0.632  28.55   0
       235   1011.2801    476.4667 300.3335336 +22.8136558     383.7488     72.43681      1.654     4.13     4.073837     20.40546     46.13981         6     0.922     0.703  -0.20   0
       236    755.1794    471.1105 300.2554119 +22.7354480     537.4805     72.27106      1.366     2.97     4.322331     20.40546     67.37608        10     0.996     0.648 -64.10   0
       237    644.2552    468.9467 300.2215521 +22.7016069     317.5137     72.36319      1.247     2.74     4.832329     20.40546     62.14974         6     0.805     0.636  52.86   0
       238    364.2178    469.4485 300.1342081 +22.6178531     381.1796     72.36319      1.907     4.56     4.384089     20.40546     30.58082         5     0.811     0.729 -57.87   0
       239    696.4165    467.1065 300.2384002 +22.7167001     719.8704     72.25262      1.221     2.42     4.617846     20.40546       102.43        12     0.918     0.742  -0.93   0
       240    757.2563    459.1660 300.2599373 +22.7326371     979.1085     72.34477      1.465     3.05     4.320473     20.40546     107.0539        15     1.068     0.887 -83.78   0
       241   1010.8222    459.6973 300.3388357 +22.8086968     560.9066     72.25262      1.494     3.60     4.064104     20.40546     74.21443        12     1.071     0.878 -21.48   0
       242    914.4736    455.4337 300.3101648 +22.7786330     1121.864     72.30793      1.553     3.05      4.36651     20.40546     126.1436        18     1.100     0.983  82.21   0
       243    898.5359    452.1100 300.3062735 +22.7729067     774.4306     72.43681      1.608     2.86     4.358533     20.40546     69.97568        11     0.925     0.751  14.61   0
       244    879.0924    452.5265 300.3000750 +22.7672060     394.9123     72.47359      1.664     3.92     4.340398     20.40546     50.22029         5     0.908     0.485  -9.02   0
       245    642.9775    449.8542 300.2273528 +22.6957385      3136.24     72.34477      1.330     2.27     4.825556     20.40546     490.9182        26     1.079     1.017  53.42   0
       246   1003.4127    448.7421 300.3400808 +22.8033291     603.0872     72.28951      1.574     3.90     4.089981     20.40546     55.29026        11     1.108     0.736 -55.89   0
       247    119.6844    440.9784 300.0674095 +22.5363831     322.5301     72.27106      1.725     2.61     4.544287     20.40546     50.34474         5     0.793     0.476  24.55   0
       248    482.9799    436.8652 300.1817461 +22.6440807      366.124     72.30793      1.081     1.79     4.792827     20.40546     77.39023         6     0.691     0.520  40.69   0
       249   1012.7405    427.7633 300.3498020 +22.8000878     1167.263     72.34477      1.707     3.00     4.035075     20.40546     112.7687        17     1.068     0.951 -52.44   0
       250    926.3236    428.7636 300.3225192 +22.7745122     460.9187     72.28951      1.328     2.97     4.429801     20.40546     72.42299         9     0.872     0.731  70.19   0
       251    662.6483    426.0518 300.2412078 +22.6947902     489.8402     72.36319      1.890     3.84     4.788429     20.40546     46.34209         9     0.963     0.781  42.73   0
       252    753.6064    423.8123 300.2702773 +22.7213835     1202.256     72.19728      1.309     2.58     4.322392     20.40546     161.1473        14     0.992     0.794 -32.30   0
       253    549.2255    424.0841 300.2065199 +22.6602540     463.1361     72.30793      1.301     3.55     4.931933     20.40546     67.45535         9     0.948     0.786 -74.97   0
       254    257.6363    421.9469 300.1164754 +22.5722723     625.0568     72.34477      1.310     2.71     4.582245     20.40546     106.5134        11     0.962     0.767  86.62   0
       255    319.9339    417.5997 300.1372628 +22.5896943     3842.636      72.2895      1.386     2.31     4.608945     20.40546     568.8021        30     1.189     1.053  57.91   0
       256    267.0597    412.3889 300.1225084 +22.5723524     7629.424      72.2895      1.404     2.53     4.615496     20.40546     885.1238        41     1.214     1.167  88.34   0
       257    407.8672    406.6451 300.1681774 +22.6128970     4898.476     72.32635      1.347     2.31     4.670908     20.40546      700.838        30     1.121     1.043  64.02   0
       258    652.1268    403.4195 300.2452766 +22.6851357     18675.53     72.32635      1.302     2.27     4.791064     20.40546      2727.74        53     1.186     1.129  54.25   0
       259    671.3038    402.6374 300.2515048 +22.6906537     381.5376     72.32635      1.180     2.94     4.767393     20.40546     55.73357         6     0.794     0.506  10.52   3
       260    668.7312    404.3407 300.2501504 +22.6903728     504.5742     72.34477      1.240     2.86      4.77061     20.40546     67.87009         8     0.853     0.673  36.66   2
       261    510.5193    400.6429 300.2020773 +22.6419255     311.5899     72.30793      1.983     4.59     4.796707     20.40546     35.64254         6     1.502     0.398  10.60   0
       262    895.9373    399.2967 300.3226080 +22.7569448     222.5199     72.41841      1.289     3.41     4.431792     20.40546     52.42122         6     0.898     0.499 -39.86   0
       263    849.2563    394.1326 300.3097280 +22.7414873     454.5874      72.3816      1.253     2.57     4.402252     20.40546     73.91667         9     0.859     0.701   7.96   0
       264    272.1308    390.2209 300.1312805 +22.5675072     371.4741     72.32635      1.364     2.61     4.706559     20.40546     51.23285         7     0.702     0.676  18.31   0
       265    985.7106    386.1928 300.3548631 +22.7800442     853.8047     72.23418      1.484     3.24     4.169978     20.40546      95.3083        15     1.097     0.915 -18.99   0
       266    695.5262    384.7944 300.2648431 +22.6927789     166.3638     72.27106      1.113     2.06     4.690234     20.40546     47.80533         5     0.673     0.480  73.10   0
       267    206.7432    383.4870 300.1131327 +22.5459770     1977.769     72.41841      1.434     2.56     4.661475     20.40546      246.372        23     1.128     1.047  16.40   0
       268    219.8589    378.8542 300.1187143 +22.5485779     314.0184      72.3816      1.342     5.80     4.675575     20.40546     31.91942         8     1.608     0.589  40.02   0
       269   1006.5900    373.3472 300.3655466 +22.7825978     1225.478     72.32635      1.432     2.62     4.049421     20.40546     153.0853        20     1.158     1.014  75.30   0
       270    592.7938    372.8405 300.2367202 +22.6585800     6678.583     72.36319      1.299     2.23     4.823387     20.40546     1039.903        31     1.112     1.023  63.04   0
       271    307.5406    372.2400 300.1481296 +22.5729551     673.3736     72.32635      1.480     3.13     4.760966     20.40546     73.50447        10     0.910     0.740   6.56   0
       272    852.0794    364.9182 300.3200902 +22.7339331     302.4854      72.4552      1.363     3.80     4.499117     20.40546     39.15386         7     0.982     0.637 -57.38   0
       273    165.2229    365.2118 300.1061551 +22.5282858     446.6742     72.32635      1.357     2.55     4.713612     20.40546     56.04494         8     0.790     0.647 -48.41   0
       274     12.4297    362.8360 300.0594439 +22.4818002     1330.121     72.34477      1.632     3.17     4.668697     20.40546     159.7964        22     1.233     1.075  -2.33   0
       275    796.9018    361.9557 300.3038495 +22.7165648     1094.314     72.32635      1.374     2.62      4.57544     20.40546     160.0325        13     1.011     0.783  73.47   0
       276    706.6942    363.0603 300.2753768 +22.6898761     547.4982     72.41841      1.267     3.50     4.742415     20.40546     67.66792        11     0.944     0.852 -28.16   0
       277    499.3783    359.0529 300.2121068 +22.6266401     6118.338     72.32635      1.315     2.41     4.744434     20.40546     762.1641        31     1.107     1.042  59.32   0
       278    988.5274    353.7668 300.3662660 +22.7715615     535.7655     72.32635      1.472     3.00     4.155038     20.40546     81.42705        11     1.042     0.719  50.25   0
       279    891.2805    353.5864 300.3359917 +22.7424078     1427.403     72.30793      1.340     2.42     4.519099     20.40546     190.9519        16     0.978     0.890  39.83   0
       280    483.9288    347.8990 300.2109168 +22.6188081     501.1586     72.47359      1.213     2.90     4.735358     20.40546     66.91192         8     0.976     0.529  54.44   0
       281    566.6379    345.7015 300.2373818 +22.6429485       457.31     72.32635      1.326     2.80     4.766565     20.40546       65.075         9     0.970     0.603   3.06   0
       282     10.8504    344.4414 300.0649220 +22.4760476     990.9539     72.32635      1.469     2.89     4.737416     20.40546     126.2649        16     1.020     0.954 -58.61   0
       283    547.1569    343.8082 300.2319298 +22.6365702     193.0532     72.34477      1.099     2.11     4.742925     20.40546      53.3721         6     0.732     0.520 -41.73   0
       284    864.2749    341.4156 300.3315202 +22.7308257     624.1451     72.32635      1.345     4.31       4.5922     20.40546     80.81669        12     1.155     0.761  32.68   0
       285    386.8187    338.1851 300.1838451 +22.5869275      2680.88     72.30793      1.414     2.60     4.704434     20.40546     322.9941        29     1.248     1.064  50.95   0
       286    105.3886    335.8744 300.0970768 +22.5019291     1151.235     72.34477      1.599     3.52     4.638183     20.40546     123.7838        18     1.197     1.000   5.61   0
       287    356.2850    327.6830 300.1777523 +22.5747634     30187.54     72.47359      1.359     2.47     4.672817     20.40546     3825.184        71     1.305     1.206  68.90   0
       288    890.9941    325.3181 300.3450758 +22.7341934     1257.155     72.25262      1.273     2.40      4.68426     20.40546     193.4715        18     1.039     0.922  56.56   0
       289    846.7791    323.4033 300.3319099 +22.7204100     345.3185      72.2895      1.696     2.28     4.709099     20.40546     45.39509         5     0.673     0.480 -12.35   0
       290     52.5732    315.4828 300.0872804 +22.4802438     5014.671     72.30793      1.639     2.88     4.834768     20.40546     575.2609        42     1.418     1.223  43.63   0
       291    849.7293    315.0003 300.3355564 +22.7188768     189.7191     72.21574      1.451     3.77     4.750904     20.40546     30.77455         5     0.813     0.502  31.83   0
       292    806.3324    314.1935 300.3222885 +22.7056560     606.5656      72.2895      1.336     2.91     4.780114     20.40546     76.94941         9     0.981     0.598 -83.47   0
       293    230.4700    313.8326 300.1431125 +22.5330880     411.5108     72.32635      1.386     2.86      4.81443     20.40546     63.46572         7     0.914     0.486  81.45   0
       294    454.8679    312.9891 300.2131983 +22.6000740     513.9736     72.32635      1.377     2.50     4.715976     20.40546      80.9176         9     0.880     0.658  79.97   0
       295    766.6981    307.6134 300.3120691 +22.6919007     1858.572     72.21574      1.301     2.27     4.817879     20.40546     297.5343        18     0.991     0.914  13.47   0
       296    574.9266    302.3103 300.2540425 +22.6329616     422.7687     72.49197      1.462     5.41     4.748711     20.40546     44.16355        10     1.147     0.719  13.53   0
       297    981.9126    300.6099 300.3814518 +22.7542931     635.1894     72.27106      1.366     3.19     4.905025     20.40546      84.7882        11     0.989     0.795  28.55   0
       298    428.4589    292.0916 300.2117587 +22.5861599     2049.161     72.40001      1.478     3.18     4.739193     20.40546     220.8115        21     1.229     0.916  46.43   0
       299    640.9839    291.3240 300.2781818 +22.6495832     226.3311     72.32635      1.020     2.16     4.735381     20.40546     48.51153         7     0.692     0.641 -13.14   0
       300    867.9005    285.2454 300.3508766 +22.7157585     509.9735     72.34477      1.252     3.15     4.895226     20.40546     75.33651        10     0.980     0.743 -33.25   0
       301    750.1359    283.0443 300.3148785 +22.6798794     394.0312     72.32635      1.192     2.23     4.839233     20.40546     68.80644         8     0.761     0.660 -37.84   0
       302      1.6260    282.6256 300.0821114 +22.4555401     422.7121     57.94577      1.153     2.54      5.08549     20.40546       64.946         9     0.917     0.602  83.48  24
       303    767.0401    282.6875 300.3202628 +22.6848367     207.5519     72.30793      1.202     3.53     4.857461     20.40546      48.3886         5     0.842     0.427 -14.46   0
       304    718.4496    282.0497 300.3053264 +22.6701085     290.7483     72.36319      1.273     2.76     4.797265     20.40546     45.34733         6     0.788     0.497  88.24   0
       305    504.4251    271.5431 300.2420716 +22.6030077     1213.163     72.32635      1.284     2.24      4.69938     20.40546     164.6789        16     0.969     0.887  73.72   0
       306   1015.7058    267.6866 300.4026769 +22.7549326     298.3127     72.51035      0.901     1.87     4.994239     20.40546     60.58646         5     0.683     0.439  16.53   0
       307    909.7665    264.5613 300.3706429 +22.7223378     189.2909     72.36319      1.156     3.50     4.896362     20.40546     30.96689         5     0.764     0.462  17.38   0
       308    749.2462    263.3372 300.3209945 +22.6739471     2219.297     72.36319      1.259     2.37     4.838161     20.40546     324.7023        19     1.004     0.946 -87.47   0
       309   1010.5704    257.7243 300.4043065 +22.7505303     3214.322     72.32635      1.529     2.81     4.905077     20.40546       410.34        32     1.303     1.116 -78.77   0
       310    457.5878    247.1389 300.2354075 +22.5819684     515.8978      72.2895      1.209     2.33     4.752785     20.40546     81.96404         9     0.848     0.636  10.06   0
       311    163.1593    241.4702 300.1456586 +22.4921384     562.8294      72.2895      1.393     3.68     5.063233     20.40546     63.03699        10     0.991     0.906  78.86   0
       312    132.3269    241.2358 300.1361504 +22.4828317     1470.695     72.28951      1.756     3.74     5.136252     20.40546     116.8863        23     1.234     1.149 -89.54   0
       313    869.7471    235.2048 300.3676857 +22.7019198     253.1441     72.30793      1.228     4.39     4.910997     20.40546     34.93554         7     1.054     0.519  24.42   0
       314    216.4885    233.3798 300.1648629 +22.5057943     426.6136     72.25263      1.260     4.17     5.065885     20.40546     57.78191         8     0.922     0.865  39.30   0
       315   1011.1694    231.1832 300.4131030 +22.7430739     312.8683     72.30793      1.339     3.73     4.679905     20.40546     50.43819         5     0.939     0.426  45.37   0
       316     71.3937    230.4124 300.1207235 +22.4614632     339.7118     72.19728      1.591     4.02     5.340953     20.40546     43.92334         7     1.007     0.465 -10.48   0
       317    820.7264    224.9348 300.3557326 +22.6842973     636.7675     72.36319      1.318     2.47     4.900779     20.40546     117.3469        12     0.929     0.794  36.03   0
       318    411.2434    224.1663 300.2284345 +22.5614879     372.1537      72.3816      1.202     3.45     4.929543     20.40546     60.36635         9     0.996     0.672 -80.61   0
       319    919.0178    213.9232 300.3899541 +22.7105405     2085.032     72.32635      1.380     2.67     4.902059     20.40546     276.2895        22     1.057     1.010  50.29   0
       320    337.6331    211.1535 300.2097504 +22.5357018      2195.67     72.36319      1.449     2.71     4.818473     20.40546     248.5258        23     1.087     1.044 -80.55   0
       321    415.2971    205.9931 300.2355900 +22.5574801     1149.083     72.21574      1.591     3.81      4.96446     20.40546     110.4341        19     1.213     0.982  70.20   0
       322    817.4459    205.7467 300.3609333 +22.6777973     622.6763     72.36319      1.298     2.72      4.89127     20.40546     78.52354        11     0.910     0.793 -85.54   0
       323    232.2457    198.3982 300.1811076 +22.5004679     734.0246     72.32635      1.511     3.15     5.087967     20.40546     77.75742        14     0.994     0.916  63.52   0
       324    350.3855    197.6152 300.2181084 +22.5356319     305.3354     72.27106      1.067     3.23     4.798234     20.40546     44.35835         7     0.982     0.625 -44.51   0
       325    770.1279    195.3320 300.3495608 +22.6606423     1787.963      72.3816      1.347     2.33      4.86256     20.40546     233.7521        20     0.998     0.980 -57.63   0
       326    835.1237    194.8799 300.3699691 +22.6799617     548.4566     72.43681      1.417     2.81     4.893693     20.40546     93.36636        10     1.014     0.711  24.10   0
       327    253.6607    191.7115 300.1899356 +22.5049627     642.3897     72.40001      1.564     2.49     5.065398     20.40546     81.53472        10     0.824     0.790  14.70   0
       328    543.5323    187.7744 300.2814179 +22.5906429      334.925     72.30793      1.279     2.22     4.755677     20.40546     48.65072         5     0.686     0.464  68.68   0
       329    774.3437    186.8764 300.3536170 +22.6594722     709.7321     72.34477      1.264     2.79     4.864804     20.40546     99.80489        10     0.950     0.691   4.23   0
       330    694.8316    186.1202 300.3290826 +22.6354585     1294.252     72.32635      1.310     2.34     4.898823     20.40546     185.5604        18     1.118     0.887  44.52   0
       331    515.9193    182.4305 300.2745530 +22.5808395     439.5278     72.32635      1.228     3.26      4.72544     20.40546     53.73262         7     0.966     0.660 -35.54   0
       332    890.2692    177.6399 300.3927555 +22.6915024      1495.96     72.28951      1.240     2.23     4.907956     20.40546     234.1423        15     0.918     0.857  56.70   0
       333    620.8505    177.7625 300.3087447 +22.6109114     938.3338     72.32635      1.310     2.56      4.79233     20.40546     144.8152        13     0.899     0.868  60.03   0
       334    902.1615    176.7454 300.3967543 +22.6948029     753.9592     72.32635      1.265     2.52      4.91208     20.40546     127.3713        10     0.942     0.673 -43.52   0
       335    948.5491    175.6630 300.4115738 +22.7083686     383.6734      72.3816      1.757     3.98      4.99027     20.40546     50.77348         6     1.057     0.635  47.13   0
       336   1018.9244    166.9533 300.4363541 +22.7269130      1184.66     72.32635      1.440     2.73     5.344449     20.40546     144.6707        15     0.998     0.896 -74.88  16
       337     42.3703    163.7726 300.1333148 +22.4336314     577.7195     72.32635      1.456     3.58     5.463286     20.40546     63.88628        10     1.124     0.651  18.24   0
       338    252.8227    159.9149 300.1999853 +22.4955777     831.9869     72.27106      1.509     3.30     5.102483     20.40546     100.5119        13     1.117     0.798   5.26   0
       339    114.8017    154.4697 300.1588398 +22.4526642     2090.462      72.2895      1.520     2.69     5.503085     20.40546     277.7258        25     1.218     1.086  69.63   0
       340    937.9738    151.8973 300.4159817 +22.6983677     792.2724     72.27106      1.347     3.02     5.027172     20.40546     106.9128        13     1.016     0.835  -0.90   0
       341     64.4624    151.7890 300.1440647 +22.4368107     521.8513     72.25262      1.522     3.06     5.480116     20.40546      56.3958         7     0.909     0.490  83.27   0
       342    272.2275    147.9166 300.2099106 +22.4979434     5777.779     72.32635      1.447     2.72     5.080949     20.40546      639.658        34     1.253     1.102  68.85   0
       343     56.2344    142.4935 300.1445217 +22.4316758     1321.531     72.28951      1.493     3.08     5.488286     20.40546     148.0809        19     1.105     1.013   4.78   0
       344     18.2319    143.6369 300.1323435 +22.4206161     391.5997     72.34477      1.385     3.45     5.450971     20.40546     38.63035         5     0.774     0.445 -16.80   0
       345    817.6368    139.1373 300.3825930 +22.6586964     182.0379     72.34477      1.057     2.83     4.892396     20.40546     39.09634         5     0.741     0.435 -69.97   0
       346    255.5811    138.9925 300.2076267 +22.4903935     583.2986     72.28951      1.215     2.71     5.128035     20.40546     90.04551        12     0.909     0.845  -1.94   0
       347    916.3550    129.5893 300.4164718 +22.6854827     3683.525     72.32635      1.479     2.55     5.060524     20.40546     499.1118        31     1.223     1.118 -85.03   0
       348   1020.0242    128.4076 300.4491960 +22.7161500     2848.213     71.56705      1.529     2.53     5.563491     20.40546     382.6721        33     1.292     1.192 -83.30  16
       349    465.8156    124.9008 300.2776083 +22.5493028     603.8155     72.23418      1.291     2.73     4.787707     20.40546     80.88163        10     0.910     0.685  26.46   0
       350    218.2591    125.2702 300.2004692 +22.4752719     320.8687     72.36319      1.264     3.82     5.365664     20.40546     44.59903         5     0.936     0.448  45.22   0
       351    580.1353    122.5474 300.3139662 +22.5828498     426.4757     72.36319      1.620     3.72     4.769122     20.40546     52.22722         7     0.963     0.583  50.36   0
       352    393.8325    115.2157 300.2583443 +22.5249660     416.8536     72.30793      1.293     2.43      4.94255     20.40546     61.52392         6     0.706     0.630  30.42   3
       353    156.0169    114.0007 300.1847709 +22.4533892     487.0876     72.21574      1.304     2.50     5.611618     20.40546     73.96614        10     0.880     0.689   0.21   0
       354    517.1299    112.0365 300.2977540 +22.5609676     1596.695     72.30793      1.376     2.68     4.753489     20.40546     210.0264        20     1.177     0.907  53.79   0
       355    445.1035    112.7969 300.2750852 +22.5396226     562.6462     72.23418      1.507     2.96     4.887218     20.40546     78.16558         9     0.924     0.663  31.01   0
       356     54.3767    112.6338 300.1536244 +22.4225445     358.5709     72.34477      1.092     4.00     5.518782     20.40546     37.32695         5     1.157     0.396 -53.77   0
       357    389.9098    116.5641 300.2566865 +22.5241789     588.3284     72.30793      1.639     2.98     4.931385     20.40546     70.91397        11     0.990     0.750 -34.77   2
       358    260.8754    107.7744 300.2193938 +22.4830104     446.3945     72.34477      1.304     2.55     5.120765     20.40546     60.50614         8     0.780     0.664 -40.71   0
       359    733.9770    106.0035 300.3672582 +22.6241343      132.932      72.2895      1.083     1.88     5.196865     20.40546     51.10933         5     0.584     0.571   0.31   0
       360    806.1734    101.4113 300.3912504 +22.6444149     428.4676     72.32635      1.520     5.14     4.926497     20.40546     49.29911         9     1.049     0.711 -46.64   0
       361    951.3065     96.1061 300.4382292 +22.6863029     381.8141     72.49197      1.598     3.66     5.380622     20.40546     39.81211         7     0.760     0.651  87.02   0
       362    291.2157     91.8555 300.2339907 +22.4875234     5881.879     72.30793      1.421     2.59     4.815013     20.40546     716.1963        32     1.227     1.058  64.13   0
       363    702.2457     93.5756 300.3613987 +22.6110649     226.8724     72.34477      1.228     3.47       5.3814     20.40546     33.00806         5     0.743     0.469 -15.84   0
       364    797.4634     92.3141 300.3914842 +22.6391921     457.4711     72.41841      1.343     3.52     4.994258     20.40546      53.9579         7     0.909     0.575  32.16   0
       365    142.4373     91.1316 300.1879626 +22.4427521     686.9514     72.30793      1.507     3.44     5.653548     20.40546      73.9929        14     1.075     0.874 -71.05   0
       366    919.9178     89.1097 300.4307065 +22.6749016     384.9408     72.43681      1.723     5.07     5.270259     20.40546      41.2623         8     1.014     0.716  71.23   0
       367    263.2340     85.8240 300.2272425 +22.4774101     421.7306     72.34477      1.703     4.51     5.059088     20.40546     42.64986         8     1.144     0.505 -44.65   0
       368    306.3759     83.2567 300.2414937 +22.4895927     311.2819     72.32635      1.363     4.34     4.805323     20.40546      51.5316         7     0.985     0.673  15.54   0
       369     53.2844     82.6722 300.1629968 +22.4136127     345.0654     72.43681      1.121     2.44      5.57369     20.40546     70.21178         5     0.718     0.446 -82.87   0
       370    537.2723     77.2453 300.3153037 +22.5569952     6123.918     72.30793      1.334     2.40      4.77203     20.40546     784.9811        32     1.181     1.037  73.61   0
       371    422.6713     77.0244 300.2796992 +22.5226244     665.8092     72.36319      1.357     3.40     4.926856     20.40546      90.1311        13     1.091     0.840  -8.86   0
       372    594.0814     72.0345 300.3346844 +22.5725005     363.2424      72.2895      1.300     2.80      4.77625     20.40546     49.44931         7     0.861     0.521  44.28   0
       373    558.0903     71.5584 300.3236297 +22.5615914     349.1811     72.34477      1.590     4.14      4.77625     20.40546     38.72807         5     0.809     0.604 -79.78   0
       374    789.7292     66.9469 300.3972961 +22.6295811     914.2491     72.30793      1.796     3.91      5.23502     20.40546     89.27692        15     1.324     0.872  83.65   2
       375    290.7682     71.0532 300.2405942 +22.4814120     282.3935     72.34477      1.470     5.03     4.813388     20.40546     41.29129         6     1.048     0.682 -81.00   0
       376    731.3996     68.7089 300.3785444 +22.6126364     236.8233     72.19728      1.313     2.83     5.375444     20.40546     35.91828         5     0.706     0.466 -73.36   0
       377    882.2814     65.7617 300.4265369 +22.6569263     457.8268     72.28951      1.508     2.60     5.269811     20.40546     57.00338         8     0.859     0.613   9.63   0
       378    229.9680     60.5508 300.2250886 +22.4601855     464.7556     72.36319      1.620     6.69     5.142678     20.40546     50.27559        13     1.438     0.895  68.73   0
       379    588.5546     59.8737 300.3369046 +22.5673497     399.3741     72.30793      1.492     2.90      4.77625     20.40546     62.09479         7     0.812     0.660 -21.13   0
       380    665.6801     57.3203 300.3617574 +22.5896962      6263.42      72.4552      1.347     2.40     5.428751     20.40546     846.7926        35     1.193     1.084  83.45   0
       381    440.5737     56.3412 300.2919750 +22.5220389      1620.56     72.32635      1.420     2.58     4.830738     20.40546     174.6086        19     1.109     0.921  57.94   0
       382    706.9219     54.7828 300.3754302 +22.6013070     845.8629     72.32635      1.361     2.61     5.464467     20.40546     126.7553        12     0.943     0.788 -86.82   0
       383    722.7266     50.7823 300.3816520 +22.6048852     656.5992     72.32635      1.437     2.37     5.457374     20.40546     90.09184        10     0.858     0.727 -32.11   0
       384     36.6815     49.5104 300.1685856 +22.3991143     250.6561     72.43681      1.087     3.27     5.663574     20.40546     46.08974         5     1.000     0.310 -68.53   0
       385    992.7633     48.7060 300.4665273 +22.6850603      494.579     72.30793      1.320     2.43     5.569103     20.40546     78.96369        10     0.856     0.768  -4.53   0
       386    189.2681     48.6330 300.2162957 +22.4445714     623.2507     72.32635      1.291     3.61     5.384549     20.40546     88.77892        11     1.115     0.809  42.01   0
       387    761.4066     46.3866 300.3951317 +22.6151933     427.7145     72.21574      1.100     2.89     5.440188     20.40546     75.06818        10     1.026     0.657  33.59   0
       388    709.9218     42.2076 300.3804407 +22.5985876     2704.247     72.25262      1.364     2.67     5.496697     20.40546     345.2789        27     1.165     1.044  83.63   0
       389    351.0581     43.1991 300.2683775 +22.4914608     435.8554     72.27106      1.416     3.79      4.68238     20.40546     68.24911         9     1.077     0.618  43.10   0
       390    724.8575     41.0987 300.3854545 +22.6027374     912.4046     72.41841      1.662     5.22     5.492187     20.40546     101.6892        16     1.499     0.709  40.00   0
       391      3.2232     36.0118 300.1625649 +22.3852130     656.7695     65.86636      1.592     4.48     5.737833     20.40546     71.13417        13     1.239     0.962  51.69  24
       392    796.3528     33.8617 300.4100842 +22.6220446     1421.865     72.36319      1.391     2.64      5.51121     20.40546     182.7049        17     0.979     0.937  30.55   0
       393    956.8552     32.4309 300.4605996 +22.6696384     235.8628     72.34477      1.214     3.18     5.571667     20.40546     53.04905         7     0.853     0.615  32.73   0
       394    734.3927     27.0582 300.3929765 +22.6015514     736.5527     72.30793      1.386     3.39     5.547274     20.40546      91.8122        15     1.135     0.876 -74.74   0
       395    539.9404     26.4489 300.3325978 +22.5431889     1119.968      72.3816      1.405     2.48     4.773613     20.40546     144.3427        18     1.093     0.917 -58.10   0
       396    112.9816     26.0689 300.1998931 +22.4152388     622.2322     72.32635      1.754     2.48     5.673689     20.40546     60.51754         9     0.770     0.735 -33.52   0
       397    443.6868     24.5752 300.3032388 +22.5138392     741.1927     72.27106      1.382     2.80        4.771     20.40546     91.17802        13     1.039     0.784   2.07   0
       398    825.8475     23.1739 300.4227431 +22.6277925      396.733     72.34477      1.291     3.55     5.611999     20.40546     49.02409         8     0.819     0.672  41.84   0
       399    273.9118   1011.0101 299.9300963 +22.7461648     2682.609     72.27106      5.426    17.84     53.63148     20.40546     82.14552        96     3.813     2.321   8.72  19
       400    783.1289     15.1050 300.4120406 +22.6126926     610.2867     72.43681      1.354     2.59     5.662011     20.40546     84.65619        10     0.868     0.723  11.46   0
       401      7.8319     14.4578 300.1709811 +22.3804036     246.1904     72.34477      1.401     2.30     5.861482     20.40546     39.26445         5     0.699     0.462 -20.81   0
       402    246.5332   1014.4861 299.9204519 +22.7389456     2493.012     72.43681      6.191    25.77     73.42803     20.40546      63.3264       178     5.319     3.466   8.01  19
       403    637.7328     11.5537 300.3678829 +22.5681709     371.6232     72.30793      1.208     2.61      5.11919     20.40546     45.50974         5     0.700     0.463  20.29   0
       404    244.0410    997.5464 299.9251888 +22.7333409     4323.036     72.30793      7.167    20.87     63.61954     20.40546     86.96742       248     5.104     3.950 -85.60  19
       405    263.6179    996.8598 299.9314996 +22.7390186     5663.427     72.30793      9.942    28.18     51.65162     20.40546     118.1888       538     6.982     5.960 -44.06  27
       406    268.8276   1017.4110 299.9264325 +22.7464744     544.0134     72.32635      1.941     4.51     60.34919     20.40546     38.71841         5     1.288     0.448 -56.95  17
