#   1 NUMBER                 Running object number                                     
#   2 X_IMAGE                Object position along x                                    [pixel]
#   3 Y_IMAGE                Object position along y                                    [pixel]
#   4 ALPHA_J2000            Right ascension of barycenter (J2000)                      [deg]
#   5 DELTA_J2000            Declination of barycenter (J2000)                          [deg]
#   6 FLUX_APER              Flux vector within fixed circular aperture(s)              [count]
#   7 FLUXERR_APER           RMS error vector for aperture flux(es)                     [count]
#   8 FLUX_RADIUS            Fraction-of-light radii                                    [pixel]
#   9 FWHM_IMAGE             FWHM assuming a gaussian core                              [pixel]
#  10 BACKGROUND             Background at centroid position                            [count]
#  11 THRESHOLD              Detection threshold above background                       [count]
#  12 FLUX_MAX               Peak flux above background                                 [count]
#  13 ISOAREA_IMAGE          Isophotal area above Analysis threshold                    [pixel**2]
#  14 A_IMAGE                Profile RMS along major axis                               [pixel]
#  15 B_IMAGE                Profile RMS along minor axis                               [pixel]
#  16 THETA_IMAGE            Position angle (CCW/x)                                     [deg]
#  17 FLAGS                  Extraction flags                                          
         1    476.4715     14.8400 300.3609680 +22.5320282     1332.821     72.59518      1.353     2.46     4.054003     20.48653     173.8546        18     1.031     0.953  86.80   0
         2    581.7871     11.5545 300.3948240 +22.5626145     1353.396     72.63218      1.347     2.57     4.536695     20.48653     198.2207        18     1.180     0.842 -80.58   0
         3    176.9541     10.5249 300.2691916 +22.4410793     502.5676     72.61369      1.516     4.08     5.088781     20.48653     62.86939        12     1.149     0.736 -82.70   0
         4    402.1717      5.4491 300.3408874 +22.5070809     2224.856     72.63218      1.446     2.57     3.918695     20.48653     275.6242        25     1.252     0.960  79.58  16
         5    226.1911      8.2614 300.2852339 +22.4551798     493.2178     72.55817      1.283     3.03      5.02611     20.48653     67.32331         9     0.917     0.639 -27.52   0
         6     49.3465      3.4884 300.2318125 +22.4008231     1442.083     67.21579      1.633     2.82     5.083391     20.48653     144.5309        20     1.177     0.988  59.90  24
         7    199.3698   1011.4395 299.9510299 +22.7349585     763.1555     72.61369      2.103     5.84     10.52169     20.48653     50.03552        13     1.309     0.831 -28.13   0
         8    189.6085   1022.3885 299.9444315 +22.7351655     2867.425     63.28447     10.442    34.46     13.50926     20.48653       87.158       203     7.333     4.494   3.27  26
         9    179.3474   1019.5055 299.9421806 +22.7312587     2292.546     72.68763      9.903    23.35     15.89084     20.48653     54.70404        79     5.382     2.814 -59.15  19
        10    121.1034   1023.4578 299.9227931 +22.7149033     679.5958     57.78217     10.206    11.64     31.10695     20.48653     43.09157        13     3.343     1.128  29.66  27
        11    123.1073   1015.2176 299.9260980 +22.7131441     1259.709     72.53967      8.595    15.95     28.52876     20.48653     36.87068        28     3.065     2.307 -57.49  19
        12    102.3039   1018.9908 299.9184056 +22.7079784     2383.033     72.52115     15.566    23.46     34.86954     20.48653     57.83443       134     5.153     2.966  -3.85  27
        13     47.7259    989.7209 299.9109766 +22.6832038     1276.096     72.72457     12.208    14.09     42.53688     20.48653     52.63301        36     2.670     2.068 -60.60   3
        14     55.0347   1020.5483 299.9032130 +22.6942300     1673.076     70.60693      8.823    15.95     57.59842     20.48653     46.98597        58     3.781     1.871  11.61  27
        15     37.5798   1010.9512 299.9009148 +22.6862389     2531.448     72.61369     10.500    39.66     59.47792     20.48653      69.6648       413     9.798     4.455  73.47  27
        16    760.5989   1010.5902 300.1259792 +22.9031107     349.1254     72.42849      1.832     4.27     3.241766     20.48653     32.44611         5     1.055     0.492   0.13   0
        17     37.4679    984.1078 299.9096169 +22.6785152     2216.687     72.74303      9.020    18.86     42.07269     20.48653     60.27652        92     3.968     2.490 -26.89   3
        18    516.7556   1007.8238 300.0509346 +22.8291760     1491.867     72.65067      1.735     3.97     3.218998     20.48653     113.6439        22     1.263     1.136 -17.45   0
        19     57.3799   1006.2903 299.9085825 +22.6908497     1130.861     72.55817      7.321     8.33     48.41257     20.48653     31.44466        17     1.632     1.187  75.53   1
        20     72.7879   1004.8578 299.9138355 +22.6950662     1032.936     72.57668      5.725     6.64     41.39834     20.48653     41.76528         8     2.154     0.575  83.70   2
        21     67.3332   1001.0156 299.9133915 +22.6923275     1334.134     72.59518      5.366     7.75     41.86801     20.48653     47.88108        14     1.588     1.057 -53.25   3
        22     28.6341    986.1982 299.9061926 +22.6764613     1388.826     72.57668      7.760    11.13     45.75733     20.48653     50.07287        30     2.501     1.381 -76.45   3
        23    693.6492   1004.5517 300.1070853 +22.8813002     332.8134     72.65067      1.799     5.24     3.223304     20.48653     28.37887         8     1.221     0.636 -34.19   0
        24    410.7961   1004.1691 300.0191485 +22.7963344     848.4284     72.57668      1.466     3.38     3.039391     20.48653     82.39632        15     1.059     0.911  67.57   0
        25    341.3966   1002.3104 299.9981640 +22.7749743     6596.609     72.52115      1.781     3.36     3.334987     20.48653     551.7906        50     1.467     1.385 -51.23   0
        26     62.2777   1002.1581 299.9114491 +22.6911367     1042.973     72.59518      8.684     9.92     44.29223     20.48653     35.75789        18     2.792     0.983  69.35  19
        27    373.8709    989.5930 300.0124052 +22.7810745     370.9653     72.57668      1.550     5.34     3.149764     20.48653     37.26593         9     0.936     0.861 -27.24   0
        28    887.7350    980.9566 300.1752549 +22.9327257      2091.31     72.59518      1.685     3.67     3.242285     20.48653     142.8392        24     1.251     1.115  39.61   0
        29     37.2837    971.0986 299.9137936 +22.6747329     1996.711     72.77995      5.676    17.82      33.4812     20.48653     57.59029        87     4.135     2.134  -5.04   3
        30     28.3668    978.2170 299.9087072 +22.6740946     1292.975     72.59518      3.791     8.61     40.35299     20.48653     42.73508        14     1.553     1.334   8.87   3
        31    538.1008    978.3453 300.0671748 +22.8271257     296.7539      72.7061      1.706     4.37     3.217329     20.48653     32.36977         6     0.857     0.634  33.52   0
        32    569.4865    975.9745 300.0777180 +22.8358609     362.1011     72.55817      1.495     4.37     3.218777     20.48653     31.38255         6     0.982     0.555 -16.88   0
        33     30.2409    975.5530 299.9101563 +22.6738942      1076.28     72.66915      3.871     5.85     38.45197     20.48653     51.81332        11     1.373     0.701  81.63   3
        34    676.7479    970.2607 300.1129824 +22.8663936     684.8204     72.66915      1.971     7.72     3.231434     20.48653     45.28204        18     1.657     1.006  64.87   0
        35   1003.4675    969.4897 300.2150814 +22.9641238     557.7099      72.7615      2.155     4.60     3.234907     20.48653     41.63428         7     1.175     0.512  45.04   0
        36    711.4205    964.0935 300.1257913 +22.8750222     1083.321     72.53967      1.681     3.37     3.249232     20.48653     85.03572        17     1.170     0.883  55.35   0
        37    489.0621    964.6915 300.0563540 +22.8084981     285.1566      72.7061      1.348     4.22     3.201979     20.48653     31.92351         7     0.749     0.677  -6.04   0
        38    733.5218    957.7134 300.1347539 +22.8798190     11159.38      72.7615      1.623     3.18     3.261808     20.48653      917.562        49     1.328     1.298 -76.16   2
        39    730.4662    953.3943 300.1352076 +22.8776635     960.4543     72.61369      0.866     0.94     3.262123     20.48653     213.1119         5     0.624     0.465  24.23   3
        40    779.1522    957.6102 300.1490066 +22.8934716     352.7475     72.63218      1.465     4.63     3.263111     20.48653     45.91486         8     1.087     0.732 -87.54   0
        41    924.9516    958.7531 300.1940871 +22.9375085      1786.46     72.65067      0.456    -1.28     3.235627     20.48653     1476.139         9     0.741     0.351  75.71   0
        42    866.5974    951.0295 300.1784058 +22.9177993     234.2404     72.55817      1.334     4.60     3.246064     20.48653     39.28778         6     0.890     0.675 -59.59   0
        43     45.2452    949.5721 299.9232721 +22.6709561     234.4248     72.65067      1.285     4.50     18.89028     20.48653     47.86816         8     1.171     0.597  82.20   0
        44    785.7689    945.2902 300.1550785 +22.8919199     354.6101     72.55817      1.380     4.96     3.268347     20.48653     43.34696         7     1.271     0.547 -74.13   0
        45    438.8294    945.6808 300.0469080 +22.7879753     461.7769     72.63218      1.866     4.76     3.079717     20.48653     43.33494         7     1.092     0.635  38.69   0
        46     89.0207    942.6225 299.9391333 +22.6821085     414.3082     72.61369      3.228     4.80     12.43218     20.48653     26.66884         5     0.979     0.666  89.13   0
        47    742.0378    939.8745 300.1432133 +22.8772537     1333.235     72.55817      1.560     3.51      3.27036     20.48653     105.6409        23     1.242     1.094 -46.57   0
        48    925.3430    938.4743 300.2008094 +22.9318045      557.812     72.66915      1.820     6.20     3.235627     20.48653     45.40914        10     1.110     0.974 -60.62   0
        49    594.3860    937.0206 300.0981492 +22.8321558     528.9293     72.57668      1.670     4.41     3.218777     20.48653     48.80137        11     1.041     0.716   7.38   0
        50    780.1152    932.9833 300.1573219 +22.8866929     731.7423     72.57668      1.739     5.27      3.27318     20.48653      77.0491        17     1.349     1.003  43.91   0
        51    888.4716    930.1459 300.1920225 +22.9183619     444.1489     72.63218      1.749     5.66     3.242285     20.48653     33.30382         7     0.988     0.914 -49.26   0
        52    828.6789    924.4107 300.1752482 +22.8987919     638.1378     72.59518      1.692     4.26      3.28111     20.48653      53.8562        12     0.997     0.901 -24.69   0
        53    679.9423    923.7159 300.1291258 +22.8539972     753.5873      72.7061      1.545     3.34     3.276345     20.48653     83.20068        11     0.950     0.820 -61.36   0
        54    392.5817    919.9763 300.0408827 +22.7667282     4192.657     72.63218      1.548     2.84     3.143959     20.48653     441.6072        36     1.287     1.251  79.26   0
        55    691.0902    920.4474 300.1336623 +22.8564023     538.0971     72.59518      1.529     4.08     3.298859     20.48653     57.14025        13     1.081     0.896 -22.35   0
        56     54.0501    908.8686 299.9392517 +22.6619369     489.1925     72.61369      2.489     5.27     5.631756     20.48653     44.60771         7     1.433     0.680 -44.75   0
        57    170.8685    908.8759 299.9755490 +22.6970083     459.2956     72.68763      1.717     5.04     4.531897     20.48653     34.88917         7     0.866     0.830  65.00   0
        58    435.8634    908.1265 300.0582057 +22.7763158     302.2291     72.65067      1.424     4.65     3.163582     20.48653     29.71078         7     1.022     0.600  14.83   0
        59     34.7454    908.2299 299.9334627 +22.6559578     596.5621     72.63218      2.391     5.59     5.190174     20.48653     33.98774         9     1.146     0.770  -9.76   0
        60    117.9011    905.6730 299.9601299 +22.6801904     818.6918      72.7615      1.691     3.69     5.832506     20.48653     75.97198        16     1.155     0.954  29.04   0
        61     26.3454    904.3348 299.9321207 +22.6523196     587.9413     72.66915      2.564     5.04     4.922667     20.48653     45.15947        10     1.123     0.847 -83.07   0
        62     94.7250    902.7762 299.9538709 +22.6724026     1587.995     72.65067      1.752     3.74     6.235146     20.48653     124.8402        24     1.246     1.190  23.39   0
        63    723.1248    899.1616 300.1505692 +22.8598997     341.8618     72.57668      1.478     4.02     3.396354     20.48653     30.53554         6     0.788     0.586  37.91   0
        64    966.7010    891.6249 300.2289542 +22.9307490     2119.016     72.53967      1.695     3.58     3.427879     20.48653     172.9219        27     1.286     1.136  55.03   0
        65    920.9266    890.1545 300.2151567 +22.9166088      2209.01     72.59518      1.680     3.43     3.430839     20.48653     152.7896        31     1.310     1.250 -59.37   0
        66    626.5763    889.9817 300.1234807 +22.8283147     468.9838     72.61369      1.779     6.69     3.342098     20.48653     37.30945        13     1.535     0.817 -83.19   2
        67    410.9990    891.1346 300.0559975 +22.7639831     124.3214     72.59518      0.945     6.10     3.272347     20.48653     26.34679         5     1.369     0.765   0.00   0
        68    704.3220    884.0267 300.1496356 +22.8499187     541.5652     72.61369      1.351     3.32     3.465466     20.48653     59.24729        11     0.957     0.794  12.10   0
        69    127.0060    884.0521 299.9699936 +22.6767270     391.9929     72.59518      1.501     3.77     4.909185     20.48653     31.12978         5     0.660     0.619  -0.34   0
        70    572.5331    878.0631 300.1105292 +22.8086878     4589.129     72.66915      1.457     2.76     3.327696     20.48653     504.4139        35     1.229     1.129  48.39   0
        71     62.0030    879.2236 299.9513671 +22.6558295     423.1069     72.55817      1.442     4.80     4.760531     20.48653     51.98441         8     1.047     0.624 -10.62   0
        72    374.5156    875.3414 300.0497851 +22.7485082     706.7764     72.72457      1.578     3.93     3.426219     20.48653     67.32758        14     1.195     0.798 -29.29   0
        73    122.5913    871.9750 299.9725507 +22.6719403     1331.437     72.61369      1.757     3.61     4.563869     20.48653     123.6692        20     1.212     1.105  18.59   0
        74    593.1861    870.6224 300.1193811 +22.8127469     209.5072     72.59518      1.330     2.62     3.342645     20.48653     83.25271        12     0.906     0.802 -77.07   0
        75    390.7376    870.0067 300.0565675 +22.7518452     313.4898     72.57668      1.695     5.15     3.429423     20.48653     36.05422         8     1.260     0.596 -42.24   0
        76    142.1871    868.9915 299.9796110 +22.6769672     447.6139     72.50262      1.506     3.89     4.411942     20.48653     43.05355         6     0.880     0.495  60.16   0
        77    509.5197    861.2947 300.0963670 +22.7849781     311.7362     72.74304      1.442     4.98     3.301227     20.48653     33.03951         6     0.982     0.715 -68.74   0
        78    965.4340    857.8840 300.2395375 +22.9206809     1121.654     72.57668      1.637     3.50     3.585234     20.48653     94.85445        18     1.081     1.058  42.64   0
        79    748.5884    857.6619 300.1720062 +22.8556237      4206.87     72.57668      1.532     2.75     3.545791     20.48653     428.0882        34     1.263     1.159  49.14   0
        80   1003.3513    858.0018 300.2513268 +22.9320764     416.8131     72.59518      1.892     5.14     3.585234     20.48653     26.62891         6     1.203     0.620 -29.86   0
        81    157.1266    852.1277 299.9897398 +22.6766175     500.2025     72.66915      1.634     5.35     4.330344     20.48653     39.95978        12     1.142     0.834  20.20   0
        82    465.7189    850.1785 300.0863501 +22.7686514      630.827     72.57668      1.454     2.61     3.352952     20.48653     89.58463        11     0.919     0.773  76.85   0
        83    112.0406    848.5117 299.9769047 +22.6620482     907.7885     72.59518      1.590     3.58     4.310758     20.48653      81.9429        16     1.142     0.894 -29.11   0
        84    261.5204    840.4216 300.0260009 +22.7045908     52833.81     72.57668      1.605     2.88     3.784166     20.48653     5077.158       105     1.472     1.444  39.12   0
        85    526.9625    843.1399 300.1077029 +22.7850015     514.1071     72.63218      1.465     4.25     3.487565     20.48653     66.02038        10     1.087     0.912  73.47   0
        86    519.4572    839.3505 300.1065992 +22.7816634     1598.273     72.66915      1.434     2.65     3.502434     20.48653     177.9449        18     1.049     0.969  70.62   0
        87    932.2367    838.3823 300.2355284 +22.9051331     948.7974     72.61369      1.641     3.62     3.632485     20.48653     84.09878        15     1.100     0.907 -80.37   0
        88    189.8671    838.4842 300.0043544 +22.6825326     401.9106     72.72457      1.489     4.36     4.191146     20.48653     45.83271        10     0.959     0.744  83.20   0
        89    548.5643    835.3065 300.1169763 +22.7892326     821.9146     72.59518      1.360     3.08     3.595117     20.48653     92.55893        15     1.130     0.820 -57.94   0
        90    559.4949    833.5903 300.1209377 +22.7920182     551.6214     72.53967      1.307     3.23     3.616422     20.48653     69.92113        10     0.955     0.728 -21.69   0
        91    879.7539    831.1920 300.2215019 +22.8873407     248.0714     72.63218      1.735     4.19     3.610472     20.48653     31.11392         6     1.331     0.377  -5.12   0
        92    664.8990    829.9706 300.1549408 +22.8225857     434.5665     72.53967      1.481     3.40     3.742652     20.48653     51.53732         8     0.846     0.707 -21.50   0
        93    702.3730    820.2919 300.1697633 +22.8310429      746.424     72.55817      1.508     3.09     3.721548     20.48653     73.79479        11     1.006     0.701 -42.77   0
        94    311.2249    817.6500 300.0488650 +22.7129749     31091.34     72.63218      1.518     2.76     3.634355     20.48653     3154.026        85     1.402     1.367 -80.03   0
        95    325.4524    818.1378 300.0531314 +22.7173834     2170.678     72.66915      1.608     2.86     3.591642     20.48653     232.5995        24     1.135     1.086   7.32   0
        96    834.3431    813.5325 300.2130892 +22.8686608     2688.411     72.65067      1.454     2.62      3.61586     20.48653      294.015        25     1.145     1.065  22.56   0
        97    322.2257    812.0959 300.0540930 +22.7146827     741.5236     72.57668      2.016     3.83     3.612392     20.48653     60.77953        13     1.023     0.974  56.94   0
        98    592.3715    809.4846 300.1390159 +22.7949603     939.5099     72.61369      1.379     3.01     3.906265     20.48653      105.346        14     1.037     0.824 -51.13   0
        99    193.8400    809.4511 300.0150326 +22.6754014     858.6622     72.61369      1.564     3.48     4.200039     20.48653     78.41874        16     1.182     0.881  14.72   0
       100    428.4929    809.4929 300.0879997 +22.7458148     491.2701     72.77995      1.880     3.10     3.527416     20.48653     49.00099         7     0.842     0.658  19.13   0
       101    439.4141    804.4332 300.0930438 +22.7476392     849.0089     72.59518      1.295     2.58     3.577932     20.48653     88.58105        12     0.861     0.833  39.05   0
       102    840.3607    801.1989 300.2189769 +22.8669232     503.3169     72.63218      1.422     2.62     3.660155     20.48653     69.19225         9     0.832     0.728   2.51   0
       103    341.5028    800.9243 300.0637225 +22.7172621     407.2393      72.7615      1.292     2.63     3.551437     20.48653     57.16892         7     0.828     0.607  16.69   0
       104    297.1523    799.8884 300.0502652 +22.7036592     346.1378     72.61369      1.360     4.01     3.741017     20.48653     37.27878         6     0.803     0.573 -41.71   0
       105    593.8252    798.6153 300.1430039 +22.7922771     294.0698     72.63218      1.180     3.74     3.993758     20.48653     47.23852         7     1.026     0.589 -39.76   0
       106    385.2885    799.2200 300.0778980 +22.7299084     279.9502     72.55817      1.227     2.66     3.516724     20.48653     62.40494         9     0.882     0.660 -25.83   0
       107     27.0925    798.9540 299.9666313 +22.6223450     412.6093     72.63218      1.428     3.83     4.164199     20.48653     50.65954         9     1.069     0.616 -15.40   0
       108    818.1452    795.8618 300.2137878 +22.8587329      461.678     72.68763      1.424     5.29     3.633776     20.48653     50.31209        10     0.999     0.791 -15.38   0
       109    191.5231    794.1766 300.0192800 +22.6703268     595.3876     72.61369      1.600     3.11     4.209685     20.48653     66.51721        11     1.005     0.706  17.74   0
       110    514.4462    784.2653 300.1229564 +22.7643564     384.9738     72.61369      1.310     3.25     3.862465     20.48653     59.77455         7     0.957     0.464 -77.67   0
       111    484.2751    782.3798 300.1141782 +22.7547673     678.2663     72.61369      1.550     3.56      3.83206     20.48653     59.44798        12     1.034     0.808  79.40   0
       112    393.4929    781.7396 300.0861356 +22.7273553     339.0247     72.68763      1.309     4.03     3.607022     20.48653     41.90355         7     0.969     0.494  84.62   0
       113    506.2405    779.9023 300.1218210 +22.7606438     1264.209     72.61369      1.330     2.49     3.866732     20.48653     164.8046        17     1.010     0.889  82.02   0
       114    900.7073    778.7209 300.2451030 +22.8785531     4511.561     72.74304      1.457     2.67     3.810733     20.48653     482.0919        31     1.189     1.098 -51.79   0
       115    426.0645    779.4788 300.0970056 +22.7364765     429.0349      72.7061      1.589     2.26     3.656545     20.48653     40.05368         6     0.738     0.497  -5.36   0
       116    587.4625    774.1633 300.1489751 +22.7833524     298.3712     72.63218      1.318     4.47     4.020091     20.48653      45.6657         8     1.112     0.598 -73.10   0
       117    889.1987    770.1591 300.2442990 +22.8726459    -363.5232     72.61369      1.440     2.82     3.838316     20.48653     170.8558        21     1.101     1.033 -52.93   0
       118    657.4496    769.8375 300.1721790 +22.8030939     235.3838     72.61369      1.202     3.44     3.987328     20.48653     33.19098         5     0.764     0.447 -69.30   0
       119    252.2815    764.0735 300.0479590 +22.6799261     867.9788     72.72457      1.453     3.59     4.026361     20.48653     89.50922        14     1.014     0.917  50.12   0
       120    715.6083    761.5020 300.1930081 +22.8181355     2328.859      72.4841      1.379     2.52       3.8745     20.48653     261.4615        24     1.131     1.014  -2.73   0
       121    920.3516    760.1722 300.2572614 +22.8791124     1606.387     72.63218      1.439     2.79     3.910364     20.48653       151.02        20     1.076     0.976 -73.66   0
       122    101.2184    748.2199 300.0061583 +22.6300509     604.9269     72.61369      1.531     3.40     4.230911     20.48653     82.71983        10     1.157     0.593 -31.30   0
       123    798.0594    747.4622 300.2232679 +22.8388170     575.7927     72.65067      1.501     4.38     3.869953     20.48653     49.00859        12     1.224     0.700  32.26   0
       124    380.5933    747.1856 300.0933589 +22.7135741     197.2862     72.50262      1.607     5.05     3.788515     20.48653     28.43557         5     1.003     0.720   7.53   0
       125    833.9907    738.3344 300.2374363 +22.8469639     146253.2     72.57668      1.410     2.50     3.920774     20.48653     16385.76       162     1.443     1.388  84.38   0
       126    596.4921    742.1984 300.1621818 +22.7768862     387.5262     72.52115      1.286     3.37     4.090907     20.48653     49.27313         8     0.873     0.655 -36.15   0
       127    980.9947    739.8549 300.2827828 +22.8914455     1191.984     72.61369      1.419     2.93     4.017744     20.48653     138.6514        18     1.089     0.977 -70.08   0
       128    686.1877    738.5905 300.1912926 +22.8027397     755.6134     72.50262      1.524     3.09     4.004065     20.48653     81.43377        14     1.049     0.864 -63.60   0
       129    866.8450    731.0851 300.2500361 +22.8547269     402.0886     72.59518      1.315     3.48     3.980473     20.48653      56.1137         8     0.967     0.583  29.23   0
       130    520.2413    727.2414 300.1433038 +22.7497316     1697.964      72.7061      1.314     2.38     4.059932     20.48653      219.073        18     0.988     0.908 -38.57   0
       131    182.8203    726.2465 300.0386637 +22.6482377     330.8681     72.66915      1.424     3.83      4.16198     20.48653     39.86138         5     1.098     0.443 -60.11   0
       132    701.4528    724.4984 300.2006306 +22.8032699     9288.899      72.7061      1.351     2.35     4.013909     20.48653     1086.452        39     1.169     1.098 -67.20   0
       133    202.9665    719.7785 300.0470292 +22.6524276     4853.243     72.61369      1.473     2.73     4.118274     20.48653     507.6285        35     1.248     1.160 -80.61   0
       134    284.9166    717.7604 300.0731660 +22.6764344     1090.037     72.57668      1.395     2.82     4.060328     20.48653     127.7629        13     1.021     0.792  35.58   0
       135    160.5870    715.6438 300.0351999 +22.6385263     488.0724     72.63218      1.427     3.11     4.174766     20.48653     52.31002        11     0.907     0.823   8.85   0
       136    493.3289    713.2299 300.1394820 +22.7376413     700.9568     72.61369      1.244     2.39     4.128183     20.48653     85.61658        11     0.860     0.755  54.92   0
       137    484.8928    705.4188 300.1393957 +22.7328702     3324.978     72.53967      1.349     2.40     4.172974     20.48653     424.7326        26     1.068     1.008 -75.33   0
       138    475.2247    699.1966 300.1384094 +22.7281857     1504.021     72.57668      1.392     2.50     4.196872     20.48653     185.3065        17     0.949     0.933  80.83   0
       139    868.5950    696.8563 300.2617113 +22.8454211     362.2502     72.57668      1.192     3.67     4.266836     20.48653     55.32561         6     0.754     0.606 -46.70   0
       140    386.3861    696.6907 300.1115787 +22.7008256     256.7109     72.55817      1.184     2.85     4.045089     20.48653     45.36678         5     0.704     0.470 -75.85   0
       141    138.3552    695.4963 300.0348401 +22.6260784     603.4821     72.63218      1.620     3.15     4.128204     20.48653     73.77328        13     1.078     0.829 -88.67   0
       142    152.4290    693.9761 300.0397084 +22.6298653      570.032     72.61369      1.402     3.92     4.119496     20.48653     54.00996        12     1.065     0.786  29.67   0
       143    178.3268    690.5801 300.0488620 +22.6366617      566.636     72.61369      1.542     3.34     4.096964     20.48653     62.75409        10     0.915     0.837  59.52   0
       144    921.9819    690.0639 300.2805668 +22.8594648     614.3198     72.59518      1.554     2.56      4.09861     20.48653     66.10765         9     0.784     0.734  54.30   0
       145    399.8416    688.8376 300.1183181 +22.7026078     1841.223      72.7061      1.437     2.54     4.118759     20.48653     236.0122        23     1.126     1.036 -38.09   0
       146    498.9100    689.2271 300.1490228 +22.7324268     578.1131     72.57668      1.447     3.38      4.22472     20.48653     74.62043         9     1.002     0.694 -48.49   0
       147    433.6484    688.1481 300.1290618 +22.7125481     311.3075     72.65067      1.521     4.08      4.19108     20.48653     39.47156         5     0.910     0.541  41.84   0
       148     53.8690    683.9450 300.0123427 +22.5974142     19588.64     72.65067      1.578     2.94     4.159393     20.48653     1889.849        65     1.418     1.356  47.50   0
       149    975.5874    686.0429 300.2985933 +22.8743678     746.1042     72.59518      1.420     2.94     4.042844     20.48653     87.14679        10     0.939     0.666 -23.37   0
       150    485.0526    684.3297 300.1463016 +22.7268664     1033.451     72.59518      1.409     3.21     4.273882     20.48653     123.0309        15     1.105     0.850  78.92   0
       151    520.1656    683.4294 300.1575244 +22.7371360     296.4081     72.63218      1.040     3.05     4.207079     20.48653     56.18439         6     0.880     0.563 -73.88   0
       152    209.3310    690.3345 300.0585799 +22.6458931     342.1732     72.66915      1.467     2.61     4.076889     20.48653     45.00197         5     0.720     0.449  75.59   0
       153    856.5383    678.9958 300.2637590 +22.8366793     234.4699     72.61369      1.423     4.49     4.440156     20.48653     33.21906         5     1.022     0.560 -15.33   0
       154    238.7197    676.2986 300.0722796 +22.6506841     250.1124     72.74304      1.421     4.24     4.060087     20.48653     41.36824         6     0.917     0.654 -78.70   0
       155    902.9140    670.2448 300.2810639 +22.8480597     1102.814     72.59518      1.413     3.10      4.25006     20.48653     117.1729        15     1.090     0.831  19.53   0
       156    568.0051    671.1046 300.1764254 +22.7479409     229.3793     72.52115      1.234     4.95     4.194905     20.48653     38.38153         7     1.029     0.673 -71.15   0
       157      1.1410    668.1781 300.0010884 +22.5770700     562.9731     55.36065      1.266     3.90     4.149036     20.48653     117.6596         8     1.313     0.346  88.49  24
       158    769.7028    668.4130 300.2401319 +22.8076211     377.8054     72.50262      1.151     2.35     4.384506     20.48653      59.4045         7     0.768     0.590 -78.85   0
       159     66.1738    668.9440 300.0210416 +22.5968058     346.6815     72.61369      1.302     2.87     4.120121     20.48653     46.81073         8     0.793     0.737 -82.02   0
       160    448.0452    664.8281 300.1411229 +22.7101736     463.2679     72.65067      1.423     3.13     4.334424     20.48653     70.32095         9     1.002     0.731 -44.80   0
       161    843.0220    663.1102 300.2647094 +22.8280672     710.8033     72.53967      1.379     2.94     4.488529     20.48653     96.74059        12     1.040     0.715 -80.42   0
       162    838.7880    662.3766 300.2636279 +22.8265879      227.452     72.61369      1.101     3.42      4.48804     20.48653     29.88787         5     0.777     0.436 -19.10   0
       163    405.0830    656.8575 300.1303447 +22.6950038     708.0286      72.7061      1.400     2.20      4.24153     20.48653     114.0403        10     0.841     0.696  71.03   0
       164    552.9117    655.7321 300.1767229 +22.7390039     525.8727      72.7615      1.127     1.96     4.343917     20.48653     88.63177         8     0.764     0.589 -42.92   0
       165    600.0706    653.8356 300.1920240 +22.7525961     558.8741     72.63218      1.418     3.17     4.260851     20.48653     56.52758        10     0.892     0.734 -81.33   0
       166    570.6443    653.4620 300.1829822 +22.7436680     564.0292     72.63218      1.300     2.82      4.33172     20.48653      73.0756        12     0.956     0.783 -69.95   0
       167    449.1570    652.9299 300.1453364 +22.7070927     920.9059     72.57668      1.362     3.52     4.393553     20.48653     117.7857        14     1.146     0.771  18.29   0
       168    635.3372    651.9492 300.2036209 +22.7626255     283.2956     72.66915      1.443     5.08     4.198282     20.48653     36.66604         6     1.005     0.728 -79.59   0
       169    882.9953    648.3258 300.2819782 +22.8357965     3213.938     72.53967      1.335     2.46      4.37539     20.48653     406.0679        24     1.050     1.014  64.19   0
       170    414.7607    648.4445 300.1360905 +22.6954917     1538.735     72.68763      1.270     2.36     4.286991     20.48653     200.0267        18     1.010     0.891  -1.07   0
       171    980.8987    646.4142 300.3131330 +22.8645737     701.3362     72.52115      1.475     3.28     4.046351     20.48653     89.09103        14     1.100     0.901 -47.70   0
       172    779.8782    645.4088 300.2507811 +22.8040641     207.2307     72.57668      1.194     2.73     4.417405     20.48653     40.38384         5     0.728     0.443 -21.56   0
       173    389.8464    643.5898 300.1299163 +22.6866278      264.223     72.63218      1.304     3.45     4.201243     20.48653     37.29633         5     0.746     0.460  17.27   0
       174    443.9621    639.1262 300.1482064 +22.7015738     420.3322     72.55817      1.629     3.18     4.436113     20.48653     44.12572         5     0.809     0.480 -60.56   0
       175    922.2269    638.1250 300.2975278 +22.8446185     482.0246     72.61369      1.578     3.87     4.153873     20.48653     47.21952         6     0.942     0.456  54.73   0
       176    278.1790    635.2151 300.0979032 +22.6507356     9077.962     72.59518      1.406     2.48     3.961669     20.48653     1028.328        44     1.247     1.151  51.60   0
       177    400.5243    632.1973 300.1369415 +22.6865607     8895.273     72.52115      1.331     2.31     4.253478     20.48653     1141.111        40     1.170     1.092  80.07   0
       178    166.0382    629.7239 300.0648226 +22.6155222     414.7087     72.59518      1.912     4.01     4.054823     20.48653     36.51565         5     1.025     0.449  67.43   0
       179   1005.1440    627.1639 300.3269538 +22.8663043     951.3411     72.63218      1.443     2.90     4.015123     20.48653     112.8484        14     1.075     0.807 -82.53   0
       180    646.9780    628.1469 300.2149833 +22.7592809     312.0901     72.61369      1.128     3.36     4.271349     20.48653     53.38232         5     0.689     0.532  89.04   0
       181    812.2740    626.0683 300.2671649 +22.8082161     1756.737     72.68763      1.259     2.16     4.470451     20.48653     265.3849        16     0.940     0.831  68.26   0
       182    896.8847    623.3967 300.2944122 +22.8327962     12474.44     72.53967      1.378     2.39     4.298595     20.48653     1524.248        49     1.221     1.186 -82.62   0
       183    461.1445    621.7681 300.1591955 +22.7017440     11573.35     72.63218      1.335     2.28      4.62041     20.48653     1601.121        45     1.182     1.126  77.68   0
       184    188.6763    617.3609 300.0758774 +22.6187674     1464.104     72.59518      1.568     2.69     4.029278     20.48653     161.8301        21     1.156     1.013  51.65   0
       185    630.8633    617.5787 300.2133988 +22.7514170     594.4338     72.57668      1.350     2.43     4.331497     20.48653      82.1504        11     0.962     0.700  78.64   0
       186    346.2789    616.6517 300.1251173 +22.6658335     269.7996     72.61369      1.177     3.33      4.04834     20.48653     48.52483         5     0.808     0.480 -46.76   0
       187    435.4431    614.8311 300.1534513 +22.6920473     298.7499     72.66915      1.023     2.58      4.47129     20.48653     71.12204         5     0.759     0.558 -42.97   0
       188    392.7878    609.9669 300.1417591 +22.6778617     4435.468     72.59518      1.287     2.24     4.240956     20.48653     627.2296        26     1.070     0.993  65.31   0
       189    735.6503    610.1253 300.2484661 +22.7806791     793.4042     72.61369      1.222     2.32     4.318038     20.48653     137.4222        12     0.867     0.783 -53.48   0
       190    371.0717    608.3580 300.1355255 +22.6708884     1344.931     72.59518      1.411     2.72     4.148275     20.48653     145.5371        16     1.010     0.896  79.63   0
       191    125.5243    607.8572 300.0593370 +22.5970966     837.1019     72.65067      1.697     3.20     4.080239     20.48653     76.47049        15     1.095     0.927 -37.52   0
       192    812.5729    605.4138 300.2739711 +22.8023733     1484.055     72.61369      1.372     2.63     4.420766     20.48653      168.466        17     1.008     0.908 -36.61   0
       193     59.1537    605.6544 300.0394295 +22.5765521     460.0598     72.65067      1.633     4.32     3.877187     20.48653     42.84908         6     0.994     0.534 -64.17   0
       194    509.4105    597.4854 300.1821106 +22.7092443     197487.2     72.55817      1.291     2.23      4.85879     20.48653     23394.85       213     1.470     1.447  54.06   0
       195    912.7958    603.8505 300.3057267 +22.8319470     112.6992     72.61369      1.222     3.26     4.190437     20.48653     35.38559         5     0.750     0.679 -50.30   0
       196    333.4249    603.8906 300.1252659 +22.6583173     417.6731     72.55817      1.402     3.69     4.015037     20.48653     42.29011         6     0.795     0.493 -86.55   0
       197    693.0480    602.3391 300.2377226 +22.7656772     618.9687     72.66915      1.239     2.33     4.321291     20.48653     113.0699        10     0.873     0.688  58.60   0
       198    195.4721    597.5101 300.0844407 +22.6151120     3000.781     72.77995      1.298     2.52     3.998478     20.48653     390.3112        28     1.114     1.106 -80.61   0
       199    761.3723    593.5303 300.2618750 +22.7836202     532.6094     72.59518      1.261     3.47     4.324166     20.48653     68.78815        10     1.111     0.692 -61.74   0
       200    399.9837    577.9859 300.1543906 +22.6708417     2698.987     72.55817      1.405     2.39     4.385253     20.48653     353.6923        27     1.335     1.000  86.84   0
       201    244.2989    580.0447 300.1052965 +22.6247469     382.7651     72.63218      1.237     4.04     3.908243     20.48653     49.04548         9     1.100     0.595  61.22   0
       202    849.4988    577.2947 300.2946205 +22.8053581     243.9501     72.79841      1.232     3.30     4.139599     20.48653     45.71407         5     0.753     0.419  64.15   0
       203    630.5455    572.5708 300.2279263 +22.7383991     209.7689     72.61369      1.161     4.20     4.364744     20.48653     35.48634         5     1.186     0.424  56.50   0
       204    717.3929    566.3372 300.2570070 +22.7626333     235.5008     72.57668      1.082     3.00     4.351169     20.48653     56.33413         7     0.933     0.462 -78.66   0
       205    797.0305    563.8755 300.2826251 +22.7857858     1645.279     72.61369      1.258     2.16     4.016119     20.48653     273.7079        18     0.990     0.873  81.05   0
       206    668.1813    561.6528 300.2431972 +22.7465423     2483.925     72.59518      1.237     2.21     4.324361     20.48653     380.4197        19     0.993     0.895 -71.11   0
       207    912.8464    558.9121 300.3203462 +22.8190512     416.4517     72.59518      1.387     2.81     3.911404     20.48653     62.85044         8     0.975     0.634 -57.09   2
       208    911.2115    554.5129 300.3212658 +22.8172976     756.3427     72.55817      1.378     2.81     3.888168     20.48653     93.39642        12     0.964     0.826  81.16   2
       209    573.2338    558.2132 300.2147430 +22.7171007      430.913     72.59518      1.161     2.35      4.65315     20.48653     65.70145         6     0.726     0.539  47.84   0
       210    455.5352    557.5480 300.1783185 +22.6816303      734.138     72.65067      1.171     2.18     4.740502     20.48653     106.9689        12     0.829     0.776  77.09   0
       211    925.4716    555.5931 300.3253620 +22.8218788     1389.501     72.57668      1.448     2.24     3.882459     20.48653     151.0481        18     1.077     0.919 -69.57   0
       212    797.3500    553.9086 300.2859633 +22.7830185      2193.02     72.63218      1.478     2.97     3.918992     20.48653     254.4624        27     1.500     0.945  72.19   0
       213    336.6857    552.3143 300.1430391 +22.6444956     381.0106     72.74304      1.915     5.61      4.11588     20.48653     35.94423         9     1.213     0.731  77.05   0
       214    550.6229    552.0013 300.2097209 +22.7085404     658.0367     72.55817      1.401     2.73     4.814724     20.48653     76.59361         9     0.879     0.653 -43.15   0
       215    835.3956    549.0118 300.2994140 +22.7930086     4132.894     72.46557      1.276     2.18     3.851186     20.48653      574.164        29     1.095     1.001 -87.99   0
       216    389.4106    550.9590 300.1598824 +22.6599152     282.1881     72.61369      1.141     3.54     4.418016     20.48653     48.00491         6     0.816     0.481 -81.17   0
       217    496.1652    544.8600 300.1950873 +22.6901675     283.7153     72.63218      1.146     3.94      4.85879     20.48653     56.65247         8     0.966     0.879  82.15   0
       218    573.3249    545.5714 300.2188789 +22.7134984     234.7301     72.63218      1.093     3.42      4.65315     20.48653     41.38881         5     0.931     0.442 -15.75   0
       219     67.5559    539.6344 300.0634904 +22.5601399     890.8409     72.66915      1.494     3.21     3.882171     20.48653     98.66254        18     1.177     0.903  38.20   0
       220    927.3135    539.6124 300.3311290 +22.8178386     722.2889     72.55817      1.313     2.94     3.825889     20.48653     91.12998        13     0.973     0.860  14.72   0
       221    891.8798    536.9361 300.3209486 +22.8064575     178.2486     72.72457      1.040     3.90     3.825496     20.48653     34.52695         6     0.768     0.568  55.37   0
       222    697.3989    537.1386 300.2602647 +22.7482569     115.4576     72.57668      0.983     3.55     4.348588     20.48653     44.51711         5     0.854     0.426  70.92   0
       223    728.1705    532.9744 300.2712054 +22.7562804     365.9352     72.61369      1.511     3.21     4.378679     20.48653     44.63309         5     0.750     0.652 -87.66   0
       224    334.0494    533.1624 300.1484413 +22.6382091     292.4539     72.63218      1.277     2.83     4.117762     20.48653     40.43608         5     0.775     0.498 -56.99   0
       225    961.2802    530.4559 300.3446980 +22.8253793     255.6546     72.65067      1.549     4.18     3.909272     20.48653     32.26984         5     0.787     0.718 -63.16   0
       226     59.9896    529.6744 300.0643751 +22.5550135     510.1761     72.61369      1.448     3.03      3.90242     20.48653     50.19348         9     0.921     0.663 -57.29   0
       227    923.4628    528.5772 300.3335134 +22.8135145     362.2503     72.59518      1.358     2.89     3.828473     20.48653     51.36815         5     0.714     0.466 -70.99   0
       228    667.4646    523.3278 300.2554259 +22.7353215     408.5706     72.65067      1.071     2.22     4.342245     20.48653     61.39839         5     0.660     0.478  71.68   0
       229    556.9301    521.6436 300.2215477 +22.7017148      400.646     72.57668      1.255     2.96     4.797711     20.48653     50.59137         7     0.796     0.626 -15.78   0
       230    608.8215    519.5092 300.2384003 +22.7166527     798.0901     72.53967      1.315     2.65     4.401323     20.48653      104.667        11     0.969     0.686 -83.81   0
       231   1016.3859    517.1683 300.3662057 +22.8380610     1022.941     72.61369      1.413     2.63     4.221291     20.48653     122.0473        17     1.105     0.863  82.30  16
       232    923.7498    511.8473 300.3390383 +22.8087931      598.344     72.65067      1.332     3.45     3.832732     20.48653     76.73277        10     0.987     0.714  -2.34   0
       233    669.5822    511.6825 300.2598688 +22.7326115     736.5245     72.55817      1.112     2.46     4.347812     20.48653     109.7628         9     0.915     0.580  85.38   0
       234    826.8242    507.9632 300.3100784 +22.7786485      976.709     72.63218      1.279     2.52     3.806685     20.48653     143.4221        14     0.985     0.907  33.60   0
       235    245.2045    508.8087 300.1287214 +22.6045801     151.8263     72.46557      1.316     3.88     3.927125     20.48653     24.07155         5     0.974     0.443 -44.70   0
       236    811.1829    504.0609 300.3064704 +22.7728424     640.0343     72.57668      1.285     2.49     3.799145     20.48653     86.96869        10     0.833     0.734   8.53   0
       237    791.7290    504.3783 300.3003034 +22.7671064     333.5299     72.63218      1.534     3.42     3.877121     20.48653     38.63947         5     0.735     0.461 -15.36   0
       238    555.4537    502.3967 300.2273405 +22.6957460      3118.59     72.57668      1.221     2.21     4.837037     20.48653     397.4064        23     1.084     0.886  88.11   0
       239    915.7859    501.1700 300.3400234 +22.8033400     561.5326     72.63218      1.328     2.49     3.833974     20.48653     85.69262        11     0.938     0.724 -53.06   0
       240     31.3504    493.3252 300.0672849 +22.5359968     341.2165     72.61369      1.705     5.72     3.922353     20.48653     33.06382         6     1.431     0.644  61.05   0
       241    395.4396    489.6650 300.1816701 +22.6441301      414.451     72.57668      1.535     5.54     4.331904     20.48653     38.30623        11     1.045     0.830  54.23   0
       242    327.4493    489.8634 300.1604536 +22.6238041     264.7064     72.66915      1.172     2.20     4.114805     20.48653     46.85065         5     0.699     0.449 -66.37   0
       243    966.7861    481.3604 300.3623651 +22.8129186     1268.259     72.63218      1.341     2.54     4.217212     20.48653     148.4322        15     0.958     0.867  89.65   0
       244    925.1901    480.1582 300.3497819 +22.8001180     975.2117     72.61369      1.298     2.33      3.84075     20.48653     149.7461        12     0.956     0.767 -49.78   0
       245    838.5190    480.9255 300.3225074 +22.7743829     499.5095     72.72457      1.461     3.09      3.81234     20.48653     72.61234        11     0.969     0.801  53.04   0
       246    575.3622    478.6901 300.2412403 +22.6949048     181.3505     72.59518      0.929     2.64     4.704442     20.48653     42.30373         5     0.707     0.460 -74.93   0
       247    665.9720    476.0715 300.2703120 +22.7213021     1015.626     72.59518      1.262     2.24      4.37754     20.48653       149.75        11     0.894     0.712 -67.78   0
       248    461.8418    477.0095 300.2064450 +22.6604012     431.2497     72.61369      1.088     2.06     4.717771     20.48653     86.58122         8     0.769     0.621  56.15   0
       249    170.1485    474.6056 300.1164963 +22.5722584     596.3319     72.59518      1.493     2.72     4.335406     20.48653     78.35487        12     0.930     0.831 -73.51   0
       250    232.3172    470.3860 300.1371942 +22.5896906     3670.402     72.59518      1.377     2.45     4.053741     20.48653     386.8786        28     1.098     1.050  87.27   0
       251    965.4449    468.5992 300.3660920 +22.8088494     4226.509     72.61369      1.334     2.30     4.130749     20.48653     563.6295        31     1.120     1.069  87.34   0
       252    179.5482    465.1712 300.1224823 +22.5723704     7436.403     72.63218      1.416     2.50     4.299494     20.48653     867.0162        42     1.257     1.134  77.66   0
       253    945.3968    459.6931 300.3627315 +22.8002870     1805.694     72.52115      1.269     2.27     3.947941     20.48653     241.1521        17     0.955     0.895 -76.34   0
       254    320.3246    459.3772 300.1681391 +22.6129184     4952.164     72.65067      1.365     2.39     4.276472     20.48653     533.7563        32     1.163     1.059  61.15   0
       255    564.5705    455.9828 300.2452551 +22.6851503     18442.08     72.59518      1.294     2.13     4.826961     20.48653     2541.285        57     1.232     1.108  82.47   0
       256    582.3096    455.9800 300.2507799 +22.6904649     719.9382     72.55817      1.826     6.42     4.728623     20.48653     65.10876        15     1.642     0.704 -33.45   0
       257    421.5900    452.7131 300.2018091 +22.6413614     232.3882     72.55817      1.131     3.47     4.597569     20.48653     28.71182         5     0.766     0.454  72.19   0
       258    761.6424    446.3912 300.3097616 +22.7414354     372.2416     72.63218      1.153     2.88     4.172553     20.48653     48.90375         6     0.797     0.526  42.65   0
       259    184.2339    443.3129 300.1310375 +22.5675038     312.5856     72.57668      1.235     4.22     4.336026     20.48653      46.2761         6     0.774     0.655 -50.52   0
       260    898.0081    438.3565 300.3548824 +22.7799654     803.2592     72.63218      1.323     2.34     3.868276     20.48653     103.2424        11     0.901     0.704 -69.40   0
       261    434.9917    438.0175 300.2107522 +22.6411592     326.6285     72.55817      1.319     2.17     4.745881     20.48653     47.34394         5     0.627     0.551   0.09   0
       262    119.1105    436.1726 300.1131144 +22.5459256     2020.948     72.59518      1.440     2.78     4.457434     20.48653     206.4169        23     1.172     1.062 -87.08   0
       263    918.7111    425.5488 300.3654982 +22.7824835      1181.74     72.63218      1.343     2.46     3.853421     20.48653     152.9922        16     1.026     0.893  43.41   0
       264    505.1878    425.3909 300.2367016 +22.6585710     6344.006      72.4841      1.259     2.26     4.913013     20.48653      846.062        31     1.118     0.960  80.79   0
       265    220.0682    425.0605 300.1481052 +22.5730111     670.1315     72.65067      1.370     3.51     4.353011     20.48653     66.72768        10     0.943     0.706  28.92   0
       266     77.4257    418.0684 300.1060395 +22.5282299     485.7705     72.59518      1.406     3.00     4.529893     20.48653     62.69087         8     0.908     0.658  14.57   0
       267    765.2067    417.0590 300.3203984 +22.7340755     364.7463     72.57668      1.281     2.63      4.17082     20.48653     57.06826         6     0.840     0.481  52.61   0
       268    619.0189    415.6241 300.2753182 +22.6898731     584.5614     72.63218      1.089     1.92        4.737     20.48653     94.63459         7     0.696     0.585  23.01   0
       269    709.2252    414.3111 300.3038457 +22.7165185     1194.364     72.55817      1.375     2.60     4.356807     20.48653     139.7064        12     0.991     0.679  80.94   0
       270    411.8283    411.6840 300.2120953 +22.6266564     5989.142     72.61369      1.312     2.22     4.837862     20.48653     911.9559        36     1.155     1.044  70.56   0
       271    901.1035    406.1021 300.3663223 +22.7716224     731.6548     72.79841      1.352     2.72     3.912971     20.48653     95.54356        11     0.973     0.707  74.43   0
       272    803.6757    405.8755 300.3360202 +22.7423831     1363.615      72.7061      1.400     2.66     3.982865     20.48653     172.6952        17     1.075     0.896 -78.93   0
       273    396.3299    400.4876 300.2109082 +22.6187969     412.2586     72.77995      1.099     2.55     4.813441     20.48653     63.53737        10     0.974     0.629  52.81   0
       274    479.0367    398.1971 300.2373914 +22.6429256     372.5866     72.65067      1.293     3.09      4.88484     20.48653     53.78977         8     0.828     0.706  16.05   0
       275    459.3205    396.4480 300.2318225 +22.6365150     363.3831     72.63218      1.713     3.37     4.849599     20.48653     38.50497         5     0.797     0.679 -41.10   0
       276    776.5277    393.6212 300.3315375 +22.7307317     655.9241     72.63218      1.527     2.47     4.157866     20.48653     81.44154         8     0.758     0.737 -62.06   0
       277    299.4528    391.0200 300.1838445 +22.5870409     2534.186     72.59518      1.328     2.41     4.472322     20.48653     334.9994        24     1.129     0.990  57.69   0
       278     17.7884    388.6407 300.0970658 +22.5019012     1037.911     72.61369      1.549     2.96     4.537112     20.48653     109.4505        17     1.047     0.962 -46.53   0
       279    646.8638    385.2426 300.2938565 +22.6894877     385.4859     72.61369      1.506     3.93      4.52237     20.48653     40.91108         6     0.771     0.575 -51.35   0
       280    268.7243    380.4360 300.1777240 +22.5747913     29700.67     72.57668      1.361     2.34      4.41757     20.48653     3574.837        72     1.339     1.184  65.53   0
       281    803.4345    377.7415 300.3450803 +22.7342263     1419.655     72.63218      1.300     2.23     4.113015     20.48653     189.5175        17     0.965     0.913 -53.45   0
       282    718.7064    366.5172 300.3223187 +22.7056269     458.5947     72.77995      1.216     3.01     4.356807     20.48653     67.27744        10     0.994     0.671  79.29   0
       283    367.0693    365.5721 300.2131401 +22.6000028     521.0691     72.59518      1.348     2.65     4.814393     20.48653     59.18193         8     0.795     0.653 -86.40   0
       284    142.7976    366.6270 300.1430564 +22.5330739     456.4301     72.55817      1.213     2.03     4.489069     20.48653     72.84383         5     0.673     0.465  16.00   0
       285    679.1225    359.9857 300.3121060 +22.6918945      1813.76     72.63218      1.277     2.05     4.356807     20.48653     302.7583        18     0.972     0.874  84.40   0
       286    487.3418    354.4740 300.2541721 +22.6328583     423.4041     72.65067      1.599     3.09     4.859604     20.48653     62.07264         6     0.866     0.474  89.91   0
       287    894.2033    352.6932 300.3815121 +22.7542053     568.4482     72.52115      1.247     2.39     4.100358     20.48653     74.77275         9     0.828     0.667  78.35   0
       288    340.8469    344.7396 300.2117452 +22.5861626     1975.227     72.65067      1.444     2.76     4.787982     20.48653     256.0828        26     1.384     0.925  64.48   0
       289    780.1600    337.5814 300.3508641 +22.7157157     687.3403     72.63218      1.251     2.98     4.270867     20.48653     91.81252        12     0.976     0.804 -75.18   0
       290    662.1956    335.1510 300.3148950 +22.6796894     314.8684     72.59518      1.197     3.47     4.416598     20.48653     63.46802         7     0.939     0.562 -75.38   0
       291    679.8576    334.7177 300.3205380 +22.6848549     264.5489     72.68763      1.339     5.40     4.370066     20.48653     31.56894         7     1.062     0.774 -66.93   0
       292    630.8432    334.2664 300.3054158 +22.6700445     376.2813     72.59518      1.368     3.78     4.540262     20.48653      52.2652         6     0.850     0.602 -34.62   0
       293    131.3857    325.8034 300.1527612 +22.5179370      185.302     72.44703      1.002     3.42     4.486712     20.48653      30.2144         5     0.764     0.444 -71.25   0
       294    416.7352    324.1122 300.2420526 +22.6029824     1178.221      72.7061      1.290     2.28     4.624959     20.48653     167.9208        17     0.973     0.911  24.69   0
       295    223.8314    324.1873 300.1820238 +22.5451882     262.6002     72.59518      1.505     4.36     4.457736     20.48653     29.90271         5     0.756     0.717  16.23   0
       296    928.1850    319.7911 300.4027909 +22.7549199     234.1368     72.52115      1.017     2.65     3.930557     20.48653     53.83867         6     0.721     0.604  13.05   0
       297    799.8110    317.2708 300.3635824 +22.7157627     233.8611     72.63218      0.968     2.68     4.230895     20.48653     46.77684         5     0.876     0.350  47.73   0
       298    661.5725    315.8655 300.3209612 +22.6739618     2147.918     72.59518      1.226     2.22     4.413838     20.48653     306.2003        19     0.975     0.875  87.34   0
       299    922.8635    310.1429 300.4042631 +22.7505532     3158.242     72.66915      1.301     2.23     3.945295     20.48653     441.9677        24     1.061     0.970 -79.16   0
       300    984.2394    304.6914 300.4251769 +22.7673569     469.1368     72.61369      1.552     3.60     3.922718     20.48653     55.50169        12     1.057     0.773 -57.31   0
       301    369.8593    299.8611 300.2353381 +22.5819716     501.6645     72.66915      1.246     2.45      4.90182     20.48653     92.11149         9     0.814     0.694 -11.62   0
       302    992.2715    298.0302 300.4298448 +22.7678455     1646.454     72.61369      1.399     2.70     3.922412     20.48653     199.2047        19     1.119     0.915 -72.45   0
       303     44.7480    293.8247 300.1362178 +22.4827828     1405.169     72.63218      1.784     3.92     4.511558     20.48653     118.3786        26     1.399     1.168 -48.11   0
       304     75.2808    294.0623 300.1456275 +22.4920062     667.3339     72.72457      1.450     3.05     4.501293     20.48653     66.54327        10     0.923     0.713  34.74   0
       305    938.6595    290.3484 300.4156147 +22.7495905     500.5098     72.66915      1.235     3.09     3.922514     20.48653     65.51038         9     0.890     0.683  -9.25   0
       306    782.8815    287.3571 300.3680149 +22.7020963     329.0854     72.57668      1.331     4.68     4.267546     20.48653     43.52985         7     1.117     0.557  31.19   0
       307    128.5103    285.9300 300.1648085 +22.5056316     460.8889     72.77995      1.207     2.39     4.456618     20.48653     78.35713         8     0.767     0.675  19.57   0
       308    923.6793    283.0538 300.4133101 +22.7430094     429.9434     72.65067      1.489     4.15      3.95059     20.48653     43.23728         9     0.930     0.683  19.56   0
       309    804.6593    279.8246 300.3772479 +22.7064516     395.3467     72.61369      1.230     2.32      4.23713     20.48653     56.15334         5     0.823     0.473  88.16   0
       310    733.2738    277.2636 300.3558303 +22.6843417     633.8801     72.65067      1.281     2.63     4.359908     20.48653     84.31661        11     0.940     0.714  49.26   0
       311    323.7875    277.1397 300.2283794 +22.5616408     430.5346     72.57668      1.407     2.61     4.760566     20.48653     56.80174         8     0.785     0.671  47.53   0
       312    824.0737    270.1464 300.3864410 +22.7094820     282.1166     72.63218      1.210     3.18     4.216958     20.48653     55.50724         7     0.916     0.564 -76.98   0
       313    831.4118    266.2596 300.3899901 +22.7105615     1984.095     72.59518      1.279     2.25      4.21098     20.48653     273.9858        20     1.038     0.895  83.52   0
       314    249.8301    263.7441 300.2097244 +22.5356298     1990.645     72.63218      1.339     2.54     4.521811     20.48653     268.7216        22     1.063     0.966  88.53   0
       315    327.6369    258.9126 300.2354917 +22.5575607     1117.218     72.59518      1.616     3.20     4.779713     20.48653     97.56821        16     1.029     0.992  46.72   0
       316     80.0477    259.5684 300.1583023 +22.4835364     250.9493     72.65067      1.324     4.18     4.504346     20.48653      42.0504         7     0.872     0.771  58.21   0
       317    729.8039    257.8950 300.3610348 +22.6777362     467.9869     72.52115      1.218     2.14     4.362088     20.48653     90.87668         8     0.749     0.660 -59.42   0
       318    836.5138    254.9478 300.3952516 +22.7088371     545.2558     72.63218      1.784     2.46     4.222601     20.48653     54.60106         6     0.756     0.500  89.28   0
       319    262.5496    250.6482 300.2179294 +22.5356821     281.8905     72.65067      1.227     4.80     4.634934     20.48653     39.58731         7     1.159     0.563 -50.58   0
       320    144.5656    250.8949 300.1811676 +22.5003889     771.8807     72.61369      1.522     2.88     4.471875     20.48653     95.17383        11     0.959     0.750  16.83   0
       321    682.5319    247.5889 300.3496500 +22.6606194     1748.022     72.63218      1.376     2.66     4.401349     20.48653     213.3603        20     1.118     0.891 -81.45   0
       322    747.0838    247.3005 300.3698578 +22.6798651     539.3372     72.77995      1.276     2.54     4.348425     20.48653     74.91889         9     0.879     0.637 -74.41   0
       323    165.8596    244.3066 300.1899243 +22.5048809     547.3685     72.68763      1.295     2.91     4.468907     20.48653     65.01353         9     0.867     0.679  73.20   0
       324    953.9265    240.1793 300.4366584 +22.7397346     812.8331     72.63218      1.230     2.30     3.999163     20.48653     133.1091        11     0.832     0.787 -78.48   0
       325    456.0503    240.6452 300.2813765 +22.5907901     307.1483     72.63218      1.252     3.70     4.491943     20.48653     40.55098         5     0.817     0.482 -50.18   0
       326    686.2904    239.1701 300.3535528 +22.6593255     769.2725     72.57668      1.440     2.64     4.398798     20.48653     85.90874         9     0.870     0.635  71.63   0
       327    606.9185    238.3574 300.3290916 +22.6353229     1116.395     72.57668      1.306     2.57     4.407163     20.48653     159.0199        15     0.975     0.879 -73.29   0
       328    428.0135    234.9951 300.2744839 +22.5807678     314.6689      72.4841      1.256     3.50     4.525769     20.48653     44.05279         5     0.679     0.536  89.98   0
       329    802.4963    229.8609 300.3927878 +22.6914420     1333.445      72.7061      1.258     2.33     4.337364     20.48653     176.0452        18     1.040     0.844 -57.03   0
       330    533.1888    230.2808 300.3087527 +22.6109198     850.4163     72.59518      1.202     2.16     4.313403     20.48653     128.8027        11     0.834     0.749  67.69   0
       331    814.6591    229.1450 300.3968116 +22.6948772     663.9121     72.66915      1.292     2.76     4.316809     20.48653     88.10113        11     0.979     0.694  63.49   0
       332    861.1749    227.7413 300.4117690 +22.7083977     214.3752     72.61369      1.374     4.38     4.239798     20.48653     33.30336         6     0.944     0.577 -63.79   0
       333    975.3443    219.7490 300.4499689 +22.7402691     1571.091     72.65067      1.379     2.38      4.01979     20.48653     213.3645        21     1.153     0.917 -87.50   0
       334    931.0367    219.2413 300.4363132 +22.7268635     1137.334      72.7061      1.268     2.39     4.125812     20.48653     152.9785        14     0.945     0.826 -60.39   0
       335    165.2881    212.3135 300.2001269 +22.4955255     778.9846     72.77995      1.816     4.23     4.591484     20.48653     83.03584        14     1.315     0.929 -64.03   0
       336     27.1441    207.4355 300.1587795 +22.4527136     2139.492     72.63218      1.468     2.59     4.642904     20.48653     242.5526        23     1.175     1.000  50.42   0
       337    850.2124    204.2961 300.4159583 +22.6983757     674.6236     72.52115      1.261     2.59     4.292713     20.48653     97.53833        11     0.940     0.694  82.98   0
       338    184.5505    200.6483 300.2098993 +22.4979501     5671.539     72.65067      1.440     2.47     4.676514     20.48653     658.9131        37     1.270     1.085  65.71   0
       339    166.3752    201.4865 300.2039772 +22.4927432     276.5958     72.55817      1.181     4.17     4.677207     20.48653     34.66963         6     1.076     0.462  53.65   0
       340    983.3853    187.9185 300.4628050 +22.7335211     18237.97     72.59518      1.385     2.44     4.345817     20.48653      2347.74        58     1.341     1.140 -85.22   0
       341    729.8924    191.5162 300.3826006 +22.6586840      245.529     72.79841      1.235     4.19     4.364841     20.48653      35.0464         5     0.784     0.640  73.52   0
       342    167.9108    191.4050 300.2077251 +22.4903092     501.0686     72.52115      1.292     3.59     4.755051     20.48653     61.32659         9     0.911     0.805  35.14   0
       343    828.6328    181.9825 300.4164697 +22.6855012     3463.449     72.59518      1.345     2.37     4.332886     20.48653     422.5061        26     1.110     0.997  81.08   0
       344    932.2648    180.7921 300.4491710 +22.7161743     2734.068     72.59518      1.355     2.38     4.404871     20.48653     377.2161        22     1.088     0.930  89.32   0
       345    377.9182    177.4047 300.2775796 +22.5492181     510.1993     72.53967      1.195     2.20       4.8231     20.48653     94.94152         9     0.847     0.624  68.80   0
       346    492.6102    174.8851 300.3140918 +22.5828505      241.165     72.55817      1.126     3.45      4.38919     20.48653     29.93536         5     0.781     0.441  71.15   0
       347    302.2343    169.3574 300.2566452 +22.5242315     575.7864     72.66915      1.387     2.64     5.036018     20.48653     71.59933         9     0.926     0.649  47.42   0
       348    836.6309    167.3151 300.4237215 +22.6836779     224.9744     72.63218      1.163     3.78     4.342724     20.48653     40.72387         5     0.968     0.424 -74.58   0
       349    306.5358    168.0991 300.2583913 +22.5251590     435.1301      72.7061      1.315     2.25     5.029026     20.48653     65.13364         5     0.708     0.474 -72.79   0
       350     68.4018    166.3984 300.1849101 +22.4533038     578.4655      72.3914      1.399     2.89     4.936778     20.48653     64.92532        11     0.964     0.740 -31.07   0
       351    357.8216    165.2792 300.2752602 +22.5397146     543.5777     72.61369      1.531     3.30     4.945056     20.48653     67.10844         9     0.975     0.795 -23.19   0
       352    429.4306    164.6289 300.2977535 +22.5609797      1618.33     72.61369      1.299     2.42     4.690207     20.48653     205.4975        16     0.938     0.883  61.50   0
       353    491.4143    164.0188 300.3172443 +22.5793703     577.8979     72.57668      1.783     3.49     4.393319     20.48653     54.70461        10     0.987     0.735 -20.19   0
       354    172.7475    160.4433 300.2192720 +22.4828696      461.201     72.65067      1.596     5.30     4.989654     20.48653     45.51826         8     1.363     0.581 -58.28   0
       355    717.8328    154.0063 300.3910109 +22.6442913     394.7668     72.61369      1.285     4.09     4.424702     20.48653      56.1266         8     0.866     0.703  48.48   0
       356     74.6867    150.6938 300.1919567 +22.4506797     284.9944     72.79841      1.398     3.68     4.989924     20.48653     41.76333         6     0.732     0.673 -57.36   0
       357    863.8716    148.3799 300.4383571 +22.6863861     309.9143     72.65067      1.287     3.43     4.372066     20.48653     46.13484         6     0.749     0.627  67.66   0
       358    993.8879    145.2142 300.4799350 +22.7243808     3570.727     72.55817      1.393     2.44     4.551348     20.48653     432.6861        26     1.157     1.008 -62.19   2
       359    989.3199    147.3307 300.4778234 +22.7236229     370.6447     72.72457      1.159     3.68      4.56156     20.48653     30.99552         5     0.878     0.444 -74.47   3
       360    203.4019    144.5408 300.2339600 +22.4874902     5991.643     72.57668      1.450     2.56     5.000303     20.48653      649.345        41     1.319     1.139  73.30   0
       361    614.5988    145.7437 300.3615299 +22.6110086     339.8481     72.53967      1.264     3.89     4.440822     20.48653     42.04465         6     0.995     0.435   2.68   0
       362     54.4902    143.9612 300.1878648 +22.4426932     855.4724     72.59518      1.695     3.74      5.00204     20.48653     87.89177        17     1.195     0.929  69.93   0
       363    710.3283    144.0011 300.3919179 +22.6391686     275.9608     72.50262      1.602     5.02     4.485985     20.48653     48.16936         5     0.976     0.732 -29.09   0
       364    832.7148    141.5543 300.4308570 +22.6750988     369.6946     72.59518      1.250     3.21     4.367028     20.48653      49.5585         7     0.845     0.628  76.44   0
       365    175.6161    138.2732 300.2273544 +22.4773638     299.2537     72.61369      1.318     2.93     5.017822     20.48653     37.93417         5     0.707     0.471 -76.74   0
       366    218.7918    135.2096 300.2417715 +22.4894225     367.9183      72.4841      1.444     4.63     5.002453     20.48653     36.16994         7     0.829     0.774  62.89   0
       367    449.5269    129.7732 300.3153137 +22.5569855     6016.876     72.61369      1.357     2.41     4.547418     20.48653     715.5435        32     1.156     1.030  77.31   0
       368    335.0886    129.4834 300.2797982 +22.5226225     694.2433     72.72457      1.374     2.67     4.925411     20.48653      78.7504         9     0.870     0.655 -68.09   0
       369    506.5185    124.0917 300.3348969 +22.5724217     283.2413      72.7615      1.364     4.68     4.323375     20.48653     37.53784         7     0.907     0.686  32.39   0
       370    701.7863    120.1056 300.3970067 +22.6297423     926.9648     72.53967      1.686     5.00     4.608055     20.48653     95.19334        15     1.488     0.728 -76.21   0
       371    643.5718    121.5160 300.3784127 +22.6127198      412.192     72.61369      1.617     4.06     4.549478     20.48653     42.65928         7     0.986     0.477 -81.19   0
       372    794.6343    118.2846 300.4265333 +22.6570107     518.5366     72.57668      1.337     2.68     4.376134     20.48653     62.68772         8     0.893     0.589  75.70   0
       373    102.6162    115.3599 300.2120953 +22.4489074     208.0856     72.63218      1.349     3.39     5.052811     20.48653     30.06296         5     1.058     0.315  68.47   0
       374    142.4097    113.4261 300.2250903 +22.4602782     484.1553     72.61369      1.295     4.12      5.05969     20.48653     64.41401        12     1.156     0.819  77.08   0
       375    577.8973    109.8255 300.3617490 +22.5896963     6054.867     72.55817      1.329     2.22     4.392683     20.48653     914.8405        33     1.187     0.999  74.76   0
       376    500.8452    111.9410 300.3370714 +22.5672312     515.9261     72.65067      1.393     2.73       4.3004     20.48653     64.17719         8     0.827     0.638 -49.06   0
       377    352.8988    108.8986 300.2920149 +22.5220450     1427.479     72.85373      1.380     2.75     4.796061     20.48653     177.3036        21     1.176     1.045  41.30   0
       378    618.9830    107.1089 300.3754260 +22.6012170     681.3675     72.53967      1.238     2.56     4.516799     20.48653       105.16        11     0.921     0.700  79.20   0
       379    688.6765    104.8159 300.3978807 +22.6214224     432.1549     72.61369      1.580     4.72     4.680748     20.48653     42.29716         8     1.007     0.641  82.18   0
       380    634.7753    103.0670 300.3816559 +22.6047833      729.769     72.59518      1.731     3.27     4.573765     20.48653     81.25095        12     1.086     0.768 -80.93   0
       381    904.8293    100.5304 300.4666487 +22.6848818     499.3163     72.61369      1.244     2.67     4.466912     20.48653     88.79773        11     0.959     0.725 -84.89   0
       382    101.9436    100.9033 300.2165743 +22.4445554     613.0484      72.7061      1.461     4.39     5.076692     20.48653     56.10815        11     1.005     0.775  78.80   0
       383    944.0248     99.9067 300.4790756 +22.6964299     238.2613     72.55817      1.119     3.24     4.422406     20.48653     37.59221         5     0.954     0.381 -60.76   0
       384    673.5293     98.4254 300.3952339 +22.6150509     529.8312     72.61369      1.089     2.29     4.711251     20.48653     76.32311         5     0.670     0.454 -65.01   0
       385    637.1169     93.5912 300.3854583 +22.6027606     866.7119     72.55817      1.868     5.00     4.607928     20.48653     77.88574        16     1.440     0.893  50.24   0
       386    622.0800     94.6916 300.3804176 +22.5985751     2780.205     72.72457      1.338     2.34     4.552583     20.48653     389.7644        25     1.145     0.927  60.75   0
       387    262.8202     95.1582 300.2684513 +22.4911125     377.8521     72.65067      1.634     5.07     5.053692     20.48653     41.15102         8     1.327     0.548  49.34   0
       388    708.6022     86.3438 300.4100797 +22.6220766      1431.41     72.57668      1.258     2.29     4.787765     20.48653     179.8932        16     0.951     0.889 -59.51   0
       389    868.7543     84.4753 300.4606058 +22.6694697     298.4945     72.59518      1.078     2.87     4.598177     20.48653      56.3418         5     0.719     0.478 -15.69   0
       390    786.4145     81.2509 300.4359814 +22.6439018     312.8274     72.63218      1.581     3.45     4.629008     20.48653     33.99613         5     0.725     0.475  76.10   0
       391    646.3128     79.3460 300.3929423 +22.6014187     627.5281     72.65067      1.252     2.57     4.708011     20.48653     78.39316        12     0.938     0.754  62.61   0
       392    452.2131     78.7113 300.3327089 +22.5431186     1091.263     72.55817      1.325     2.47     4.400097     20.48653     140.4803        13     0.902     0.838  48.20   0
       393     24.9267     78.8878 300.1997820 +22.4151518     543.1586      72.7615      1.740     4.42     5.083391     20.48653     52.92487        10     1.140     0.712 -35.27   0
       394    355.7033     76.9823 300.3032371 +22.5137164     921.7717     72.52115      1.513     2.64      4.55181     20.48653     108.3035        13     0.914     0.848  66.46   0
       395    737.8995     75.3099 300.4227872 +22.6276734      390.708     72.77995      1.228     2.99     4.876874     20.48653       59.925         9     0.951     0.682  85.85   0
       396    998.9688     73.6593 300.5047274 +22.7053171     2389.282     72.63218      1.455     2.54     4.233476     20.48653     297.3864        25     1.161     1.007  80.61   0
       397    127.4237     67.0911 300.2354570 +22.4424830     3863.427     72.53967      1.558     2.68     5.088404     20.48653     384.3809        33     1.305     1.129  45.43   0
       398    695.6115     67.4768 300.4121499 +22.6127638     708.9543     72.61369      1.359     2.54     4.900441     20.48653     81.14214         9     0.923     0.597 -82.79   0
       399    549.7396     63.7879 300.3679096 +22.5680339      443.755     72.57668      1.549     4.08     4.264719     20.48653     41.99751         9     0.910     0.737  12.04   0
       400    453.4413     64.2043 300.3377951 +22.5393179     303.7971     72.63218      1.361     2.40     4.312966     20.48653     53.33614         5     0.761     0.658  36.18   0
       401    688.7827     59.3056 300.4126718 +22.6083705     911.6938     72.53967      1.296     2.80     4.941145     20.48653     124.4375        14     0.996     0.874  87.67   0
       402    243.4670     59.2369 300.2740803 +22.4749971     1225.713     72.59518      1.362     2.78     5.048687     20.48653     153.0608        16     1.014     0.868  67.42   0
       403    649.8866     53.9254 300.4022983 +22.5951808     513.3709     72.74303      2.430     5.88     4.841883     20.48653     58.58855        11     1.331     0.731  32.12   2
       404    726.3393     54.2727 300.4260062 +22.6181646      678.887     72.65067      1.430     2.78     5.022977     20.48653     78.62959        12     0.933     0.808  75.92   0
       405    746.6152     50.6219 300.4335086 +22.6231833     2146.906     72.59518      1.307     2.27     5.045223     20.48653     287.6342        22     1.098     0.936 -77.51   0
       406    452.2165     49.0834 300.3423166 +22.5346061     616.9727     72.57668      1.492     3.48     4.235005     20.48653     58.68649        10     0.944     0.722  39.11   0
       407    129.7981     46.0308 300.2430230 +22.4371470     1022.337     72.57668      1.535     2.79     5.092062     20.48653     113.9602        16     1.004     0.945  78.27   0
       408    921.4315     43.8368 300.4902107 +22.6735420      686.141     72.63218      1.351     3.32     4.385386     20.48653     86.42118        13     1.090     0.818  64.86   0
       409    694.8657     43.2372 300.4197770 +22.6055715     864.5671     72.59518      1.314     2.50     5.046915     20.48653     137.1122        13     0.969     0.779  50.75   0
       410    452.6675     35.6145 300.3468237 +22.5308706     301.9742     72.61369      1.149     5.09     4.161646     20.48653     45.97834         9     1.005     0.768  47.37   0
       411    279.8296     32.6169 300.2940193 +22.4782440     464.7828     72.61369      1.677     3.43     5.123221     20.48653     48.10682         9     0.996     0.799 -63.14   0
       412    547.3264     28.0041 300.3787600 +22.5570263     757.6923     72.53967      1.209     2.40     4.211838     20.48653     107.3971        11     0.828     0.775 -66.84   0
       413    780.0292     27.0948 300.4515508 +22.6264175     375.0424     72.53967      1.418     2.48     5.264129     20.48653     54.00767         7     0.817     0.646 -59.34   0
       414    682.6620     26.0217 300.4215561 +22.5969690      298.797     72.59518      1.198     3.45     5.123466     20.48653     45.08653         7     0.746     0.660 -77.32   0
       415    156.7419     25.4560 300.2580682 +22.4393118     591.3544     72.68763      1.709     4.28     5.104896     20.48653     58.97604         7     0.889     0.586 -80.63   0
       416    281.8973     25.4383 300.2969895 +22.4768012     217.3423     72.59518      1.355     4.08     5.134348     20.48653       37.505         5     0.783     0.608 -75.81   0
       417    341.3923     23.8046 300.3160259 +22.4941523     215.5665     72.46557      1.303     3.46     4.224662     20.48653     26.51045         5     0.780     0.442 -71.26   0
       418    710.6892     22.6268 300.4313896 +22.6043814     670.1862     72.57668      1.236     2.59     5.208563     20.48653     91.13244        12     0.964     0.713 -65.48   0
       419    519.1703     21.1078 300.3722290 +22.5466143     1869.253     72.57668      1.348     2.41     4.139852     20.48653       258.99        21     1.073     0.953  60.30   0
       420    241.9837     18.8319 300.2867182 +22.4629471     585.5056     72.59518      1.314     3.26     5.058516     20.48653     99.21404        10     0.985     0.698  63.89   0
       421    415.8312     18.4126 300.3409358 +22.5148966     238.1848     72.61369      1.403     3.47     4.064078     20.48653     31.00529         5     0.811     0.429 -20.50   0
       422    158.3640   1021.7254 299.9349362 +22.7255947     537.8702     66.27003      2.273     4.36     21.22523     20.48653     33.17187         5     1.147     0.472 -84.79  16
       423    608.3894   1017.0621 300.0764570 +22.8593157     6740.712     72.53967      1.709     3.45     3.218777     20.48653     493.6288        43     1.369     1.347  51.89  16
       424     85.0430   1019.7303 299.9128019 +22.7030072     1992.944     72.37284     11.582    18.44     42.33435     20.48653     57.72008        64     4.079     2.316  43.87  27
       425    118.5318   1010.1719 299.9263187 +22.7103245     1071.189     72.59518      7.311     9.53     28.17396     20.48653     35.39851        10     2.101     1.205 -79.03  19
       426    488.5197   1011.0920 300.0410819 +22.8216415     358.3032     72.74303      1.577     5.68     3.220422     20.48653      33.0031         9     1.221     0.745  39.26   0
