#   1 NUMBER                 Running object number                                     
#   2 X_IMAGE                Object position along x                                    [pixel]
#   3 Y_IMAGE                Object position along y                                    [pixel]
#   4 ALPHA_J2000            Right ascension of barycenter (J2000)                      [deg]
#   5 DELTA_J2000            Declination of barycenter (J2000)                          [deg]
#   6 FLUX_APER              Flux vector within fixed circular aperture(s)              [count]
#   7 FLUXERR_APER           RMS error vector for aperture flux(es)                     [count]
#   8 FLUX_RADIUS            Fraction-of-light radii                                    [pixel]
#   9 FWHM_IMAGE             FWHM assuming a gaussian core                              [pixel]
#  10 BACKGROUND             Background at centroid position                            [count]
#  11 THRESHOLD              Detection threshold above background                       [count]
#  12 FLUX_MAX               Peak flux above background                                 [count]
#  13 ISOAREA_IMAGE          Isophotal area above Analysis threshold                    [pixel**2]
#  14 A_IMAGE                Profile RMS along major axis                               [pixel]
#  15 B_IMAGE                Profile RMS along minor axis                               [pixel]
#  16 THETA_IMAGE            Position angle (CCW/x)                                     [deg]
#  17 FLAGS                  Extraction flags                                          
         1    703.8802     14.2331 300.4313012 +22.6044402     783.1562     72.28903      1.242     2.43     4.575503     20.40013     107.8052        10     0.905     0.656  82.94   0
         2    512.3745     12.4626 300.3722347 +22.5466025     1800.949     72.30745      1.209     2.19     4.959781     20.40013     279.2639        17     0.978     0.836  79.08   0
         3    235.1333     10.0916 300.2867501 +22.4628884     738.5882     72.45464      1.368     3.61     4.989564     20.40013     83.25435        12     1.193     0.683  81.62   0
         4    408.8103      9.1561 300.3410744 +22.5146404     206.4661     72.30745      1.248     2.93     4.302764     20.40013     31.38203         6     0.737     0.568 -41.16   0
         5     45.0001      7.4277 300.2285209 +22.4051533     164.7505     72.27061      1.072     4.39     5.218168     20.40013     30.85478         5     0.996     0.552  74.53   0
         6    469.6689      6.3052 300.3609380 +22.5320454     1291.436     72.45464      1.240     2.22     4.578511     20.40013     202.5277        18     1.002     0.925  64.64  16
         7    575.0833      2.9997 300.3948265 +22.5626567     1218.454     64.80951      1.212     2.39     5.350697     20.40013     214.9941        13     0.962     0.737  73.65  24
         8    170.0096      2.1913 300.2690655 +22.4411083     422.0406     60.82387      1.225     2.68     5.126315     20.40013     68.92266        10     0.910     0.698 -64.63  24
         9     58.9548   1022.3401 299.9031455 +22.7004505     631.4767     63.33378      2.225     5.34     65.88818     20.40013     40.00804         8     1.563     0.515 -40.11  24
        10    876.0007   1023.5320 300.1570050 +22.9459675     332.7596     57.02703      1.324     3.47     2.758186     20.40013     49.05947         6     0.775     0.617  41.51  24
        11    180.5531   1017.7184 299.9424309 +22.7356399     5290.404     72.30745     10.533    49.34     16.16949     20.40013     138.4087       603    11.032     6.124  -0.48  26
        12    106.8640   1017.2355 299.9196903 +22.7133752      1055.24     72.30745      3.721     3.58     37.32928     20.40013     42.97555         5     0.777     0.476 -11.63   3
        13    115.2928   1016.6899 299.9224867 +22.7157500     928.4632     72.47302      3.547     3.46     34.77245     20.40013     43.46942         5     0.985     0.352  68.75   3
        14    113.7581   1021.7285 299.9203696 +22.7167328     1778.114     66.01073     10.026    13.94     36.65305     20.40013     54.65351        44     2.732     1.978   9.38  27
        15    118.7097   1016.8411 299.9234991 +22.7168193     1075.614     72.32587      4.699     2.88     33.49403     20.40013     40.13801         5     0.837     0.623  39.10   1
        16    103.6209   1014.1165 299.9196982 +22.7115076      891.363     72.25217      4.149     4.21     37.25166     20.40013     37.97423         5     1.082     0.466 -74.88   3
        17     97.0205   1011.2731 299.9185732 +22.7087109     2196.589     72.32587     11.771    19.15      38.3127     20.40013     59.07131        72     3.890     2.620  37.67  27
        18    147.5344   1020.4522 299.9312799 +22.7265094     1682.588     70.53609     11.772    17.99      24.8227     20.40013     46.10123        62     3.785     2.375  38.65  27
        19    132.3755   1023.3860 299.9256145 +22.7227983     767.1263     57.86161      7.699     7.83     30.85299     20.40013     33.34007        13     2.137     0.802  14.15  27
        20    601.5743   1008.3557 300.0764482 +22.8593106     6855.977     72.32587      1.675     3.45     2.769994     20.40013     575.9478        41     1.331     1.288 -20.59   0
        21     29.6174   1000.0335 299.9012949 +22.6852490     2098.183     72.28903      4.168    14.69     65.62682     20.40013     55.13715        64     2.813     2.133 -26.95   3
        22    114.3176   1004.3615 299.9261971 +22.7119244     1241.862     72.27061      7.610     7.20     31.03346     20.40013     38.39876        16     1.739     1.224  56.35   2
        23    192.7786   1002.7941 299.9510890 +22.7350333     656.1632     72.28903      1.894     6.31     12.30171     20.40013     55.39037        11     1.420     0.933 -14.72   0
        24    481.2588   1002.7134 300.0408331 +22.8215951     468.2837     72.39948      2.069     2.95     3.146021     20.40013     51.81695         7     0.872     0.586  24.53   0
        25    753.2247   1002.1276 300.1257102 +22.9030095     407.5628     72.34428      1.611     3.91     2.694412     20.40013      38.5164         6     0.797     0.550  50.93   0
        26    510.1076    999.3054 300.0509209 +22.8292737     1410.298     72.47302      1.535     3.00     3.125988     20.40013     130.0853        19     1.129     0.952 -14.86   0
        27    687.3588    996.6715 300.1069675 +22.8816902     254.9114     72.28903      1.529     4.45     2.724234     20.40013     34.35023         5     0.937     0.602  37.25   0
        28     46.7072    996.5912 299.9077234 +22.6893951     534.2239     72.23374      8.340     8.12     55.53328     20.40013     31.89764         9     2.314     0.796   5.42   1
        29    403.9121    995.6390 300.0190700 +22.7963566     970.7605     72.28903      1.571     3.64     3.650365     20.40013     88.03281        15     1.019     0.968 -67.36   0
        30    334.4815    993.6473 299.9981222 +22.7749482     6628.367     72.30745      1.705     3.42     3.337689     20.40013     585.2181        40     1.341     1.318 -51.43   0
        31    108.4085   1011.1158 299.9221624 +22.7120855     886.8005     72.25217      5.174     5.26     35.01669     20.40013     39.05498         5     1.255     0.623  59.75   1
        32     60.1026    992.9805 299.9130595 +22.6923833     1362.618     72.23374      6.206    12.14      47.2247     20.40013     51.03601        31     2.185     1.877  -9.25   0
        33     48.6303    993.4191 299.9093533 +22.6890638      670.807     72.30745      3.679     4.84     51.84764     20.40013     39.92752         6     1.130     0.587  27.38   1
        34    367.0451    980.5627 300.0125096 +22.7809698     508.2908     72.34428      1.371     3.70     3.313627     20.40013     59.07983         7     0.845     0.605 -14.44   0
        35     30.5146    975.3353 299.9096129 +22.6784423      2077.16     72.39948     10.895    35.97     44.63658     20.40013     60.52709       150     7.557     4.752 -61.24  19
        36    880.6977    972.2042 300.1751804 +22.9326430     2113.255      72.2153      1.636     3.56     3.207994     20.40013     156.2255        26     1.263     1.140 -11.82   0
        37    530.5305    969.6442 300.0669333 +22.8268937     519.9263     72.27061      1.898     6.44     3.255814     20.40013     52.56932        12     1.178     0.988 -11.85   0
        38    379.6394    968.4468 300.0203709 +22.7812754     331.6714     72.34428      1.329     3.54     3.440272     20.40013     38.62637         7     0.911     0.550 -60.01   0
        39    563.4711    966.9589 300.0780616 +22.8360054     383.0393     72.27061      1.698     3.01     3.159853     20.40013     33.50554         6     0.780     0.499 -88.62   0
        40    669.8146    960.8135 300.1131761 +22.8661400     754.0937     72.23374      1.930     4.84     3.029411     20.40013     59.57684        16     1.337     0.883  56.55   0
        41    996.8260    959.9188 300.2153919 +22.9639257     454.6659     72.28903      1.560     6.19     2.841813     20.40013     36.45911        11     1.336     0.807   2.86   0
        42     22.1828    965.8160 299.9101236 +22.6732127     1540.123     72.27061      3.690    12.60     39.36646     20.40013     45.69535        41     2.442     1.971  86.27   3
        43    704.4056    955.4305 300.1257029 +22.8749693     1077.644     72.30745      1.596     3.41     3.093654     20.40013     101.9271        18     1.100     1.030 -14.56   0
        44    482.0723    956.1007 300.0562599 +22.8084709      340.212     72.47302      1.369     3.79      3.19796     20.40013     46.42355         7     1.071     0.577  78.28   0
        45    726.6959    948.9682 300.1347504 +22.8797993     11390.92     72.27061      1.548     3.04     3.146923     20.40013     1091.639        49     1.336     1.228 -54.16   0
        46    772.1328    949.1861 300.1488363 +22.8934865     527.6405     72.30745      1.648     4.58     3.179993     20.40013     46.77298         9     1.055     0.830  26.75   0
        47    918.1031    948.5168 300.1945534 +22.9370562     510.7592     72.47302      2.113     6.66     3.397481     20.40013     32.56145        12     1.350     0.921  -8.01   0
        48     38.4682    941.1104 299.9232221 +22.6710242     488.8368     72.45464      1.362     5.39     16.27821     20.40013     72.10147        10     1.340     0.670 -40.99   0
        49    736.6805    940.1505 300.1407312 +22.8802629     353.1347     72.34428      1.859     5.34     3.225506     20.40013     35.44477         6     1.169     0.689  69.67   0
        50    420.9489    938.9488 300.0428231 +22.7852123     7869.091     72.34428      0.423    -8.46     3.655304     20.40013     6965.595         6     0.391     0.363  35.98   0
        51    431.9608    937.1580 300.0468320 +22.7880028     436.7138     72.39948      1.423     4.02     3.572221     20.40013     62.05156        10     1.052     0.693  -6.41   0
        52    735.1600    931.0854 300.1432080 +22.8772054     1407.352     72.28903      1.546     3.67     3.303747     20.40013     125.8754        22     1.193     1.067  20.13   0
        53     32.1988    962.3765 299.9143538 +22.6752350     1525.941     72.25217      8.022    12.29     33.75721     20.40013     54.47034        43     3.620     1.162 -46.00   3
        54    918.1426    929.7316 300.2006802 +22.9316749     526.1882     72.32587      1.605     5.92     3.557595     20.40013      51.5906        12     1.123     0.879  74.20   0
        55    587.3487    928.3997 300.0980460 +22.8321061     668.7673     72.27061      1.828     3.47     3.114017     20.40013     57.66632        10     0.953     0.743 -34.91   0
        56    113.2847    924.6880 299.9518081 +22.6887818     544.8101     72.43626      2.667     5.10     7.431633     20.40013     43.23135         7     1.464     0.502  71.37   0
        57    773.2941    924.5031 300.1572321 +22.8867505     805.2138     72.49139      1.595     3.39     3.369208     20.40013     73.07693        14     1.042     0.888 -67.69   0
        58    881.9731    921.3634 300.1921270 +22.9184306     384.5262     72.32587      1.421     5.17       3.5808     20.40013     38.90088         9     0.904     0.835 -65.87   0
        59    821.8560    916.0198 300.1751269 +22.8988749     491.8544     72.28903      1.349     3.28     3.480313     20.40013     59.97581         9     0.799     0.764 -19.53   0
        60    673.2491    914.8889 300.1291934 +22.8539922     742.5284     72.28903      1.543     3.76     3.367161     20.40013     80.57691        15     1.159     0.964  14.78   0
        61    385.6859    911.2826 300.0408567 +22.7666973     4242.024     72.43626      1.502     2.79     3.527823     20.40013     453.1659        28     1.156     1.102 -25.99   0
        62    684.4542    911.8094 300.1336858 +22.8564687     552.9584     72.30745      1.395     3.38     3.370634     20.40013     71.89558        11     0.962     0.833  -4.66   0
        63    428.8341    899.5691 300.0580921 +22.7762840     462.4806     72.32587      1.626     4.44     3.622755     20.40013     44.51953         7     1.031     0.543 -24.03   0
        64    164.2347    900.3359 299.9755645 +22.6970971     315.7726     72.30745      1.493     2.45     5.280766     20.40013     42.24782         5     0.708     0.453  14.23   0
        65     47.4586    899.9149 299.9394201 +22.6619186     729.9608     72.41787      2.282     4.64     5.852571     20.40013     45.11861         8     0.931     0.656 -30.00   0
        66     27.6707    963.0334 299.9127336 +22.6740634     1442.278     72.30745      4.110     9.62     35.43029     20.40013     53.96906        23     1.662     1.553  31.33   3
        67    110.9673    896.9885 299.9601016 +22.6801471     790.3228     72.28903      1.705     3.77     5.965299     20.40013      65.6922        16     1.158     0.930  84.63   0
        68     88.0457    894.1365 299.9539083 +22.6724482     1663.727     72.34428      1.654     3.31     5.917842     20.40013     158.3844        25     1.230     1.138  49.46   0
        69     19.7267    895.2155 299.9323359 +22.6522452     692.7928     72.30745      3.922     4.53     5.396415     20.40013     55.46246        11     1.265     0.931  77.70   0
        70    959.8413    882.8904 300.2289279 +22.9307231     2036.024     72.30745      1.521     3.21     3.430543     20.40013     172.7715        24     1.216     1.099  -8.23   0
        71    618.3035    882.2547 300.1227016 +22.8281500     531.1329     72.39948      2.221     5.62     3.375867     20.40013     42.83208        10     1.753     0.507 -28.61   0
        72    914.0054    881.3894 300.2151233 +22.9165550     2035.553     72.15996      1.503     3.33      3.60069     20.40013      173.168        22     1.131     1.072 -12.94   0
        73    390.8295    880.6628 300.0524206 +22.7594590      135.407     72.32587      0.983     3.26     3.578278     20.40013       33.178         5     0.752     0.436  17.41   0
        74    697.3479    875.5399 300.1495050 +22.8499262     719.1716     72.36269      1.417     3.10     3.451903     20.40013      79.3994        14     1.014     0.910 -77.15   0
        75    120.0334    875.8943 299.9697820 +22.6768225     330.9493     72.27061      1.418     4.57     4.767527     20.40013     47.30825         7     1.090     0.544 -33.93   0
        76    565.6571    869.4333 300.1104816 +22.8086820     4802.258     72.32587      1.388     2.53      3.60443     20.40013     546.0731        29     1.118     1.063  19.32   0
        77     55.8322    870.0286 299.9517451 +22.6558675     487.0048     72.30745      1.543     5.30     4.506241     20.40013     46.74236         8     1.300     0.711  62.17   0
        78    367.9761    866.7299 300.0498450 +22.7486062     689.5243     72.32587      1.562     4.68     3.523035     20.40013     70.33546        11     1.047     0.799 -12.50   0
        79    115.9047    863.3129 299.9725925 +22.6719767     1353.622     72.49139      1.620     3.31     4.215313     20.40013     119.8277        22     1.177     1.095 -37.59   0
        80    586.2161    861.9940 300.1193030 +22.8127133     648.5311     72.23374      1.245     2.72      3.59774     20.40013     86.60443         9     0.865     0.680  88.34   0
        81    135.0045    860.3315 299.9794972 +22.6768555     532.2162     72.27061      1.574     5.29     4.165181     20.40013     51.80559         8     1.086     0.729 -20.08   0
        82    502.8054    853.2137 300.0961943 +22.7851770     371.7764     72.17841      1.737     3.94     3.720116     20.40013     38.94581         6     0.884     0.672 -74.57   0
        83    741.6929    849.0487 300.1719397 +22.8556182     4160.512     72.34428      1.391     2.65      3.45425     20.40013     481.2521        28     1.123     1.059  88.82   0
        84    958.6793    848.9321 300.2396155 +22.9206229     1067.951     72.41787      1.546     4.30     3.513981     20.40013     106.3078        22     1.284     1.137  76.02   0
        85    996.1648    848.9491 300.2513013 +22.9318606      351.067     72.32587      1.536     4.81     3.383249     20.40013      31.9699         7     1.061     0.619  88.25   0
        86    150.3606    843.1304 299.9898650 +22.6765338     553.9206     72.27061      1.851     4.88     4.118261     20.40013     45.05912         8     1.162     0.640 -85.60   0
        87    458.6689    841.8130 300.0861678 +22.7686672     476.2552     72.32587      1.199     2.49     3.740299     20.40013     72.92904         9     0.839     0.665 -23.94   0
        88    105.1185    839.7823 299.9768963 +22.6619939     1002.903     72.28903      1.523     3.31     4.188229     20.40013     119.5877        18     1.147     0.978  12.59   0
        89    254.7221    831.7798 300.0259961 +22.7046001     52975.37     72.30745      1.494     2.77     3.989128     20.40013     6398.255        95     1.365     1.345 -15.65   0
        90    520.3478    834.8600 300.1076257 +22.7851728      487.215     72.36269      1.229     2.40      3.79776     20.40013     73.84121         9     0.836     0.660  13.00   0
        91    512.6831    830.6008 300.1066256 +22.7816520     1661.512     72.19686      1.336     2.31     3.815014     20.40013     224.6046        17     1.009     0.855  78.95   0
        92    925.5244    829.7605 300.2355142 +22.9051817     849.4105     72.27061      1.305     2.91     3.625353     20.40013     102.9523        14     1.006     0.880 -50.05   0
        93    183.2579    830.1433 300.0043137 +22.6826842     482.8046     72.38109      1.548     2.96     4.094297     20.40013     65.59899         7     0.846     0.699 -38.17   0
        94    541.5936    826.7560 300.1168755 +22.7892196     886.8273     72.32587      1.320     2.34     3.832268     20.40013     130.1494        14     0.941     0.894   7.16   0
        95    552.7100    825.0193 300.1209010 +22.7920551     624.3881     72.23374      1.420     3.07      3.83448     20.40013      87.5679        11     0.986     0.795  51.55   0
        96    872.5251    822.3010 300.2214168 +22.8871563     227.6889     72.43626      1.173     3.26     3.750219     20.40013     46.18187         7     0.837     0.619   7.14   0
        97    657.7248    821.3349 300.1547993 +22.8224884     425.9496     72.36269      1.415     4.95     3.621884     20.40013     52.83227        12     1.246     0.861  41.24   0
        98    304.4535    809.0288 300.0488602 +22.7129982     31298.09     72.32587      1.433     2.52     3.977395     20.40013     4102.784        70     1.275     1.263 -39.82   0
        99    695.4201    811.5942 300.1697095 +22.8309943     652.8845     72.27061      1.375     2.96     3.560751     20.40013     74.07259        14     0.969     0.880  -8.06   0
       100    318.5470    809.5731 300.0530659 +22.7173828     2085.346     72.32587      1.519     2.90     3.972547     20.40013      227.486        22     1.163     1.050  -0.15   0
       101    194.0560    807.7996 300.0149380 +22.6795184     308.6458     72.23374      1.218     2.99     4.088452     20.40013     40.94172         6     0.887     0.454 -36.80   0
       102    827.6383    804.7526 300.2131338 +22.8686644     2756.231     72.32587      1.355     2.50     3.841225     20.40013     347.1913        26     1.106     1.053  47.68   0
       103    315.8750    803.2170 300.0543025 +22.7147582     561.2556     72.30745      1.574     4.03     4.016981     20.40013     68.63914        11     1.067     0.803 -56.08   0
       104    585.4681    800.8134 300.1389740 +22.7949325     924.9019     72.32587      1.318     2.57     3.944419     20.40013     114.7128        12     0.903     0.817  66.13   0
       105    421.8351    800.9946 300.0879852 +22.7459084     392.2797     72.28903      1.255     4.10     3.740947     20.40013     55.88238         7     0.874     0.657  27.33   0
       106    186.9191    800.8447 300.0149819 +22.6753824     863.9242     72.28903      1.537     3.59     4.086788     20.40013     78.58357        14     1.117     0.834  35.96   0
       107    479.8189    798.4877 300.1068436 +22.7625813     319.6408     72.25217      0.992     2.30     3.950327     20.40013     54.51775         5     0.705     0.469 -19.07   0
       108    432.6211    795.6451 300.0930813 +22.7476091     946.1126     72.36269      1.390     2.39     3.798419     20.40013     115.1449        13     0.893     0.817  23.68   0
       109    581.2128    792.9805 300.1401970 +22.7914086     301.6822     72.27061      1.361     3.74     3.966937     20.40013     30.19412         5     0.803     0.502  34.09   0
       110    833.7328    792.3359 300.2190725 +22.8669257     496.2351     72.36269      1.359     4.04     3.878389     20.40013     64.47179         6     0.734     0.643 -76.45   0
       111    290.1161    791.5856 300.0500755 +22.7036936     285.5495     72.27061      1.358     4.76     4.007943     20.40013     40.33028         9     1.124     0.570 -59.49   0
       112     19.7073    790.1661 299.9665030 +22.6221324     477.3848     72.25217      1.627     6.83     3.806037     20.40013     52.16412        11     1.601     0.848 -59.07   0
       113    378.6577    790.4738 300.0779748 +22.7299382     368.4789     72.34428      1.173     3.25     3.938746     20.40013     54.53181        11     0.946     0.872  11.16   0
       114    811.2856    787.1366 300.2137674 +22.8587050     526.9183     72.41787      1.574     4.11     3.895591     20.40013     63.39936        11     1.147     0.809 -50.48   0
       115    184.5746    785.0530 300.0193895 +22.6701508     493.5742     72.32587      1.475     5.76     4.068007     20.40013     52.22099        13     1.363     1.021  39.24   0
       116    508.1173    775.7006 300.1230628 +22.7645299     445.0962     72.47302      1.330     4.34      4.01894     20.40013     55.03665         9     1.105     0.621  61.86   0
       117    477.6154    773.6228 300.1142455 +22.7547860     731.3016     72.30745      1.369     2.26     4.019188     20.40013     89.42485        12     0.831     0.807  27.10   0
       118    387.1005    773.0303 300.0862746 +22.7274669     384.3667     72.27061      1.371     2.83     3.940855     20.40013     44.90276         6     0.735     0.570  45.58   0
       119    893.9486    769.9760 300.2451172 +22.8785503     2005.091     72.32587      0.786     2.59     3.816633     20.40013     574.2101        32     1.175     1.100  70.80   0
       120    499.3188    771.1558 300.1218025 +22.7605872     1374.762     72.28903      1.294     2.49     4.035057     20.40013     191.1824        17     1.027     0.865  50.11   0
       121    289.5484    771.8207 300.0563274 +22.6978546     164.7506     72.30745      1.267     3.43     3.998187     20.40013     31.64924         5     0.756     0.451  69.65   0
       122    419.2133    770.8889 300.0969617 +22.7364850     353.6685     72.25217      1.221     4.71     3.854863     20.40013     45.14337         8     1.036     0.607  26.34   0
       123    580.9867    766.2526 300.1488201 +22.7836701     382.7135     72.34428      1.217     2.67     4.042935     20.40013     49.43089         7     0.729     0.633   0.62   0
       124    882.3580    761.4182 300.2442871 +22.8726193     1766.979     72.32587      1.370     2.50       3.8717     20.40013     195.6456        16     0.946     0.913 -62.62   0
       125    245.3821    755.5201 300.0478963 +22.6799281     1001.149     72.30745      1.647     2.88     4.020029     20.40013        105.2        14     0.983     0.905  -2.48   0
       126    111.6054    756.3525 300.0060475 +22.6400229     210.5041     72.28903      1.074     3.46     4.103439     20.40013     38.97576         5     0.765     0.453 -72.77   0
       127    708.8707    752.7905 300.1930267 +22.8181460     2523.099     72.28903      1.378     2.54     3.746999     20.40013     335.8488        27     1.383     0.981   3.40   0
       128    913.5715    751.4860 300.2572495 +22.8791198     1422.516     72.30745      1.294     2.37     3.801102     20.40013      186.093        18     1.008     0.911 -39.61   0
       129     94.0863    739.3209 300.0061428 +22.6298819     579.9358     72.45464      1.352     4.03     4.121678     20.40013     71.84914         9     1.029     0.641 -38.26   0
       130    791.0963    738.7988 300.2231973 +22.8387743     591.6497      72.2153      1.496     2.70     3.969362     20.40013     70.42204         8     0.826     0.616  30.49   0
       131    827.1900    729.6951 300.2374071 +22.8469769     146660.2     72.23374      1.316     2.28     4.055394     20.40013     20946.03       148     1.334     1.302  73.56   0
       132    589.6200    733.7407 300.1620817 +22.7769272     475.7615     72.25217      1.418     3.75     4.127853     20.40013     54.54251         7     0.870     0.612   6.81   0
       133    974.0859    731.2104 300.2827150 +22.8914264     1338.378     72.25217      1.448     3.06     3.366182     20.40013     147.5742        20     1.088     1.009 -86.52   0
       134    431.6815    730.5820 300.1139493 +22.7286600     283.1551     72.28903      1.582     5.75     4.033914     20.40013     31.97909         8     1.143     0.815  46.72   0
       135    679.5028    729.9635 300.1913020 +22.8027892     741.3427     72.30745      1.232     2.31     4.007134     20.40013     115.2224        11     0.889     0.747  48.55   0
       136    860.0727    722.3908 300.2500324 +22.8547328     468.7153     72.28903      1.117     2.57     4.078513     20.40013     65.06609         9     0.880     0.638 -47.13   0
       137   1023.0976    720.4633 300.3014980 +22.9030210     593.2407     59.54042      1.309     2.81     2.778231     20.40013     68.78793        12     0.962     0.773 -82.84  24
       138    694.6692    715.8398 300.2006192 +22.8032805     9413.367     72.27061      1.273     2.12     3.970736     20.40013     1463.676        42     1.167     1.068  66.81   0
       139    513.4587    718.4679 300.1433381 +22.7497076     1589.629     72.34428      1.180     2.35     4.174433     20.40013     224.5117        17     0.976     0.873 -81.40   0
       140    196.2368    711.1026 300.0470623 +22.6524436     4975.656     72.30745      1.382     2.62     4.011664     20.40013     566.5951        33     1.143     1.126 -66.76   0
       141    278.2298    709.2537 300.0731539 +22.6765126      1182.95     72.30745      1.308     2.90     3.996892     20.40013     148.1473        18     1.063     0.978  88.06   0
       142    153.5274    706.5668 300.0352630 +22.6383277     497.7762     72.30745      1.433     3.50     4.028388     20.40013     72.71355        10     0.977     0.931   7.50   0
       143    486.2047    704.5838 300.1393700 +22.7375506     772.6184     72.19686      1.260     2.76     4.152219     20.40013     112.4637        12     0.952     0.776 -41.90   0
       144    478.1409    696.7623 300.1394035 +22.7328879     3248.882     72.32587      1.237     2.20     4.138824     20.40013     499.7021        20     0.957     0.911  51.34   0
       145    539.8412    692.9587 300.1598449 +22.7502968      348.183     72.38109      1.959     6.16     4.299675     20.40013     30.39843         7     1.573     0.678  45.00   0
       146    468.3353    690.4384 300.1384080 +22.7281327     1454.531     72.28903      1.227     2.11     4.127337     20.40013     184.5683        16     0.971     0.827 -15.20   0
       147    397.0248    689.9016 300.1163940 +22.7065934     339.9608     72.23374      1.257     2.47     4.062443     20.40013     48.34472         5     0.622     0.571   2.31   0
       148    861.9676    688.1460 300.2617587 +22.8454649     426.0402     72.32587      1.335     2.53     4.330654     20.40013     56.49653         7     0.831     0.532 -48.15   0
       149    131.8118    686.7628 300.0349533 +22.6261323     694.5502     72.28903      1.380     2.90     4.089612     20.40013      108.176        12     0.988     0.802  46.84   0
       150    145.8829    685.1091 300.0398636 +22.6298802     626.4089     72.43626      1.450     2.20      4.05243     20.40013        89.37         8     0.746     0.661  25.95   0
       151    915.2169    681.7623 300.2804362 +22.8595851     467.4732     72.30745      1.454     2.86      4.35707     20.40013     49.07011         9     0.902     0.662 -13.80   0
       152    202.8628    682.0544 300.0585661 +22.6461003     401.7897     72.36269      1.486     3.98     4.011664     20.40013     42.79357         7     0.858     0.664 -34.44   0
       153    171.5495    681.8227 300.0489087 +22.6366389     570.4902     72.30745      1.436     3.98     4.011664     20.40013     63.65632        12     1.081     0.828  47.78   0
       154    492.2217    680.8726 300.1489521 +22.7325499     369.9257     72.32587      1.049     2.20     4.181002     20.40013      75.4199         6     0.780     0.489 -60.47   0
       155    393.0761    680.3209 300.1182805 +22.7026601     1750.227     72.41787      1.296     2.45     4.071708     20.40013     236.3166        16     0.932     0.892  70.92   0
       156     47.0831    675.2953 300.0123574 +22.5974181     19637.34     72.49139      1.527     2.83     4.311755     20.40013       2021.9        60     1.341     1.324  42.26   0
       157    968.9863    677.3239 300.2986473 +22.8744177     759.2115     72.32587      1.302     3.01     3.624876     20.40013     105.3223        12     0.998     0.769 -50.30   0
       158    477.9479    675.5398 300.1462434 +22.7267394     991.1739     72.36269      1.203     2.35     4.140398     20.40013     135.5236        13     0.859     0.839   9.44   0
       159    513.3363    674.8707 300.1574753 +22.7371582     358.0678     72.34428      1.199     3.13     4.266489     20.40013     63.09048         6     0.767     0.644 -80.98   0
       160    533.0629    667.9648 300.1658610 +22.7410905     342.9022     72.30745      1.364     3.98      4.39582     20.40013     35.77568         7     0.892     0.532  43.63   0
       161    231.1276    666.8592 300.0722924 +22.6502214     298.1091     72.34428      1.259     3.62     4.006173     20.40013     50.86523         6     0.961     0.546 -82.48   0
       162    561.3849    663.3439 300.1761802 +22.7482552     333.3947     72.28903      1.156     3.23      4.40766     20.40013     51.58331         5     0.961     0.346 -21.30   0
       163    895.9724    661.5899 300.2809944 +22.8480247     1041.286     72.30745      1.386     2.46     4.442728     20.40013     146.2163        15     1.033     0.853  29.16   0
       164    762.7513    659.6551 300.2400989 +22.8075521       377.76     72.34428      1.178     3.44     4.288811     20.40013     67.81864         7     0.850     0.665  45.41   0
       165     59.3019    659.8538 300.0211726 +22.5966573     379.3204     72.39948      1.314     3.62     4.340312     20.40013     58.91108         8     0.893     0.833 -22.94   0
       166    441.7201    655.8385 300.1413745 +22.7102221     648.2916     72.27061      1.904     3.19     4.250849     20.40013     85.15621         8     1.057     0.724 -39.35   0
       167    233.9869    655.2736 300.0769475 +22.6477558     315.4846     72.32587      1.313     4.63     3.995583     20.40013      45.7871         8     1.102     0.590  83.96   0
       168    836.1674    654.2740 300.2647289 +22.8280054     681.1949     72.30745      1.339     2.82     4.441758     20.40013     84.66214        12     0.956     0.785 -54.27   0
       169    832.0429    654.1643 300.2634789 +22.8267381     357.2161     72.36269      1.213     3.33     4.441624     20.40013     48.38736         7     0.733     0.684  -8.50   1
       170    590.3584    652.6357 300.1886824 +22.7538669     183.2346     72.36269      1.050     3.77     4.348371     20.40013     36.11614         5     0.988     0.413 -15.95   0
       171    580.5007    652.4025 300.1856888 +22.7508449     273.0549     72.19686      1.028     3.06     4.399906     20.40013     61.60585         5     0.757     0.432  66.05   0
       172    398.2047    648.5107 300.1302172 +22.6950701     746.0056      72.2153      1.194     2.39     4.203752     20.40013     98.18027        12     0.884     0.774 -49.65   0
       173    546.0204    647.0634 300.1766895 +22.7389755     457.3698     72.28903      1.267     2.24     4.612448     20.40013     78.84146         9     0.771     0.709   9.55   0
       174    593.4748    645.5935 300.1919420 +22.7527794     410.3615     72.23374      1.215     3.11     4.387225     20.40013     57.06162         7     0.823     0.630 -87.38   0
       175    563.7496    644.8002 300.1829448 +22.7436409     471.0294     72.25217      1.105     1.86     4.539481     20.40013     104.7153         8     0.801     0.610  68.23   0
       176    442.3337    644.3257 300.1453079 +22.7071020     782.8256     72.36269      1.183     2.40     4.348391     20.40013     122.6595        11     0.889     0.711 -54.72   0
       177    876.1728    639.7693 300.2819154 +22.8358246     3227.444     72.30745      1.256     2.13     4.442728     20.40013     526.0764        23     1.014     0.956  29.10   0
       178    407.8221    639.7643 300.1360525 +22.6954442     1776.711     72.32587      1.221     2.08     4.268629     20.40013     302.2002        19     1.029     0.864 -63.53   0
       179   1021.3298    638.9671 300.3274449 +22.8790748      277.455     67.62512      1.290     5.39     3.368594     20.40013     36.77711         6     1.398     0.588 -71.62  16
       180    974.3082    637.8105 300.3131536 +22.8646589     750.2236     72.25217      1.349     3.08     3.928445     20.40013     97.62812        13     1.055     0.795   4.60   0
       181    772.9781    636.9893 300.2506541 +22.8041071     354.7787     72.28903      1.254     2.15     4.350379     20.40013     61.77957         7     0.810     0.510  33.50   0
       182    758.2068    635.6061 300.2465009 +22.7992836     197.0716     72.15996      1.131     3.46     4.304572     20.40013      33.2215         5     0.739     0.468 -14.12   0
       183    436.7901    630.5714 300.1480539 +22.7014922      384.291     72.30745      1.598     3.70     4.430921     20.40013     55.09957         7     0.896     0.658   0.90   0
       184    915.5476    629.3788 300.2975697 +22.8446352     353.2682     72.30745      1.195     2.81     4.442728     20.40013     53.21572         5     0.701     0.458 -68.48   0
       185    271.3502    626.5580 300.0978982 +22.6507256       9036.1     72.32587      1.296     2.34      3.98288     20.40013     1202.166        37     1.138     1.076  45.05   0
       186    393.7094    623.5267 300.1369398 +22.6865523     8843.085     72.47302      1.225     2.16     4.320674     20.40013     1365.179        39     1.102     1.058  78.36   0
       187    159.2389    620.8511 300.0649020 +22.6154578     325.2785     72.32587      1.395     2.62     3.972994     20.40013     44.20328         5     0.887     0.343  42.64   0
       188    998.2324    618.8579 300.3267769 +22.8663785      984.401     72.32587      1.329     2.40     3.977791     20.40013     130.2294        12     0.902     0.800  66.87   0
       189    640.5258    619.7719 300.2149877 +22.7594688     302.1936     72.32587      1.131     2.97     4.418565     20.40013     70.21917         5     0.837     0.446  40.80   0
       190    805.3668    617.2817 300.2671541 +22.8081513     1787.096     72.27061      1.219     2.30     4.436816     20.40013     250.3564        20     1.067     0.892 -81.06   0
       191    890.1121    614.7354 300.2943990 +22.8328087     12227.24     72.39948      1.296     2.21     4.442728     20.40013     1940.661        42     1.119     1.082 -58.62   0
       192    454.3155    613.1260 300.1591777 +22.7017400     11439.45     72.41787      1.220     2.11     4.675718     20.40013     1640.861        40     1.092     1.035  66.83   0
       193    181.8618    608.6480 300.0758993 +22.6187442     1389.321     72.34428      1.390     2.43     3.950046     20.40013      186.987        21     1.067     1.009  41.25   0
       194    623.8557    608.7728 300.2133713 +22.7513142     546.0098     72.30745      1.150     2.40     4.534691     20.40013     90.46172         9     0.852     0.646 -70.45   0
       195    339.7889    607.9326 300.1252353 +22.6659076     497.6177     72.30745      1.616     2.60     4.207423     20.40013     51.78814         8     0.785     0.719 -79.52   0
       196    428.6114    606.0906 300.1534660 +22.6920137     370.8578     72.25217      0.997     1.88     4.537632     20.40013     74.89203         5     0.672     0.449 -67.59   0
       197    385.9851    601.2640 300.1417726 +22.6778470     4415.779     72.27061      1.241     2.19     4.356939     20.40013     660.1567        27     1.046     0.966  57.95   0
       198    728.9006    601.2950 300.2485224 +22.7806476     751.4603     72.49139      1.215     2.20     4.321226     20.40013     117.0281        11     0.852     0.720 -80.88   0
       199    364.2884    599.7351 300.1355201 +22.6709021     1272.894     72.41787      1.308     2.21      4.29571     20.40013     178.1006        12     0.881     0.753 -79.05   0
       200    118.5262    599.2459 300.0592719 +22.5970465     817.0739     72.30745      1.495     2.84      4.24715     20.40013     109.7191        12     1.033     0.777  23.62   0
       201    805.9376    596.6088 300.2740515 +22.8023841     1622.232     72.25217      1.337     2.44     4.436084     20.40013     235.9009        20     1.115     0.861 -43.84   0
       202     52.2868    596.7751 300.0394952 +22.5764636     429.3135     72.25217      1.678     3.80     4.609171     20.40013     41.82144         5     0.755     0.676  22.16   0
       203    906.4809    595.2732 300.3058287 +22.8321203      45.4107     72.41787      1.027     3.28     4.404434     20.40013      34.8319         5     0.743     0.452 -68.83   0
       204    502.6487    588.8449 300.1821117 +22.7092607     197592.5     72.34428      1.225     1.95     4.850433     20.40013     34295.04       189     1.361     1.309 -18.96   0
       205    326.2995    594.9308 300.1252654 +22.6581313     351.4636     72.39948      1.188     4.26     4.134316     20.40013     46.03199         7     0.878     0.590  62.25   0
       206    686.3162    593.7405 300.2377113 +22.7657169     824.7181     72.41787      1.198     2.28     4.372502     20.40013     122.1963        12     0.858     0.780 -38.35   0
       207    890.4677    590.1117 300.3025134 +22.8258407     320.8871     72.41787      0.979     2.05     4.411039     20.40013     54.77972         6     0.727     0.499  88.28   0
       208    188.7963    588.8934 300.0844748 +22.6151575      3353.52      72.2153      1.355     2.39     3.937939     20.40013     500.3242        26     1.071     1.006  64.94   0
       209    754.5522    584.8525 300.2618590 +22.7836113     458.1809     72.34428      1.093     1.80     4.363271     20.40013     84.98425         6     0.696     0.497  89.40   0
       210    367.8246    584.4353 300.1415924 +22.6675717     367.0161     72.32587      1.437     3.80     4.295183     20.40013     37.92897         5     0.872     0.542  50.74   0
       211    534.1635    575.2693 300.1963335 +22.7148105     443.4295     72.28903      1.175     2.57     4.820681     20.40013     53.62738         6     0.750     0.528  46.55   0
       212    393.3169    569.1053 300.1545046 +22.6708159     2726.761     72.49139      1.337     2.14     4.315585     20.40013     363.0695        22     1.065     0.925  80.58   2
       213    237.2841    571.9492 300.1050540 +22.6248402     456.7253     72.28903      1.504     4.08     3.901279     20.40013     61.94704         8     1.125     0.599 -27.98   0
       214    549.5746    566.7562 300.2038977 +22.7169859      244.231     72.32587      1.153     2.27     4.780776     20.40013     48.94609         5     0.714     0.423  63.67   0
       215    804.8381    565.4971 300.2838202 +22.7931173     435.5409     72.30745      1.147     3.18     4.435971     20.40013     62.12592         8     0.762     0.737  45.93   0
       216    623.3315    564.6252 300.2275560 +22.7384802     769.1932     72.28903      1.866     4.94     4.537739     20.40013     81.42348        17     1.414     1.114  52.38   0
       217    710.4037    557.5640 300.2569720 +22.7625449     328.8625     72.32587      1.059     2.03     4.378614     20.40013     67.84899         5     0.656     0.479  16.74   0
       218    790.2458    555.1425 300.2826374 +22.7857711     1557.451     72.36269      1.161     1.95     4.425634     20.40013     278.0842        17     0.956     0.821 -88.90   0
       219    661.4237    552.9377 300.2432178 +22.7465393     2473.322     72.28903      1.153     1.92     4.421923     20.40013     411.8381        17     0.904     0.816  64.47   0
       220     21.3368    553.7922 300.0438487 +22.5548501     289.9943     72.28903      1.477     4.26     4.963077     20.40013     30.30076         6     0.773     0.669   9.84   0
       221    299.6039    552.7863 300.1306585 +22.6380318     292.2021     72.15996      1.608     2.39      3.94322     20.40013       37.911         5     0.702     0.457  70.93   0
       222    904.3602    545.7394 300.3212655 +22.8172524      924.597     72.30745      2.247     2.44     4.278813     20.40013     109.2534        12     1.015     0.710  74.76   2
       223    566.0326    549.5042 300.2146278 +22.7169653     387.9031     72.28903      1.230     3.56     4.688515     20.40013     64.12804         7     0.954     0.543  58.78   0
       224    448.7478    548.7262 300.1783739 +22.6815852     713.3305     72.32587      1.175     2.26     4.509954     20.40013       129.53        10     0.869     0.680 -88.50   0
       225    918.7480    546.7906 300.3254103 +22.8218637     1258.192     72.30745      1.219     2.13     4.219372     20.40013     198.6999        13     0.867     0.822  12.32   0
       226    790.5725    545.6479 300.2858245 +22.7831414     2188.988     72.32587      1.327     2.06     4.428549     20.40013     316.4836        17     0.984     0.833 -72.99   2
       227    543.9293    543.5071 300.2096951 +22.7086185      783.874     72.43626      1.409     1.88     4.722456     20.40013     94.05255         8     0.707     0.648 -78.14   0
       228    382.3640    542.2491 300.1598239 +22.6598236     369.7247     72.32587      1.115     2.79     4.277845     20.40013     69.12753         5     0.745     0.428  68.84   0
       229    469.9844    539.8763 300.1878584 +22.6854110     351.1333     72.30745      1.513     4.52     4.640275     20.40013      33.0864         7     1.070     0.542 -57.42   0
       230    828.6332    540.3624 300.2994047 +22.7930247      4201.86     72.34428      1.148     2.05     4.427886     20.40013     620.5126        26     1.022     0.935  40.29   0
       231    566.0579    537.1287 300.2186569 +22.7134194     256.4165     72.34428      1.399     3.63     4.657528     20.40013     36.94538         6     0.904     0.472  34.64   0
       232    920.3506    530.8818 300.3310796 +22.8177720     817.2413     72.32587      1.210     1.94     4.154276     20.40013     132.8507        12     0.915     0.684  -6.76   0
       233     60.6751    530.9526 300.0634889 +22.5601020     931.9953     72.30745      1.396     2.83     4.745786     20.40013     114.6853        13     0.997     0.827  17.60   0
       234    860.2462    528.5322 300.3131033 +22.7990950     307.1369     72.28903      1.239     3.41     4.406773     20.40013     39.72308         5     0.745     0.452 -20.88   0
       235    326.9278    524.3834 300.1483848 +22.6380740     235.4343     72.30745      1.277     3.92     4.216882     20.40013     38.38572         5     0.905     0.485   2.42   0
       236    953.7803    521.6164 300.3445153 +22.8251208      195.703     72.28903      1.269     3.41     4.059982     20.40013     31.00312         5     0.758     0.443  19.05   0
       237     53.3158    520.8182 300.0644952 +22.5549874     319.1626     72.27061      1.358     3.94     4.770603     20.40013     52.39231         9     0.972     0.721  44.38   0
       238    916.9963    519.9797 300.3335761 +22.8136345     386.3425     72.27061      1.283     2.64     4.127148     20.40013     57.05141         5     0.638     0.568  -0.05   0
       239    660.9724    514.8655 300.2554480 +22.7354695     497.3851     72.28903      1.241     2.85     4.408053     20.40013     88.70693         9     1.001     0.670  -8.43   0
       240    549.8080    512.9301 300.2214602 +22.7016006     303.8422     72.28903      1.175     2.89     4.639575     20.40013     51.48455         7     0.723     0.674  47.19   0
       241    602.0509    511.0627 300.2383332 +22.7167210     744.6429     72.36269      1.037     1.64      4.49882     20.40013     174.2077         9     0.701     0.639  58.45   0
       242   1009.5119    508.5662 300.3661390 +22.8380584     1046.059     72.27061      1.200     2.18     3.944315     20.40013     146.2344        12     0.835     0.789 -13.42   0
       243    916.8844    503.3468 300.3389455 +22.8088210     492.8254     72.36269      1.085     2.27     4.063529     20.40013     78.88722         7     0.713     0.613  20.44   0
       244    662.8556    502.9109 300.2599185 +22.7326002     844.7479     72.34428      1.169     2.37      4.40041     20.40013     156.0307        11     0.918     0.696  50.92   0
       245    820.2576    499.3152 300.3101311 +22.7787222     923.7858     72.41787      1.179     2.08     4.339147     20.40013     157.9695        14     0.865     0.813  20.43   0
       246    804.3411    495.5762 300.3063849 +22.7728803      611.587     72.30745      1.072     2.17       4.3323     20.40013     103.5567        10     0.890     0.643 -12.36   0
       247    784.7850    495.8026 300.3002165 +22.7670874     220.8295      72.1415      0.903     2.27     4.347249     20.40013     60.15256         6     0.722     0.537  53.62   0
       248    548.6500    493.7584 300.2273282 +22.6957483     3218.231     72.32587      1.149     1.90      4.59852     20.40013     580.1158        23     0.963     0.901  62.67   0
       249    909.3216    492.0979 300.3402419 +22.8033233     522.2559     72.41787      1.370     3.62     4.068927     20.40013     70.10332         9     0.992     0.636 -52.27   0
       250     25.0362    485.2593 300.0672620 +22.5363038     189.6916     72.32587      0.983     2.38     5.068938     20.40013     50.55576         6     0.721     0.551  45.29   0
       251   1020.1928    481.3452 300.3783149 +22.8334316       482.14     71.24992      1.251     2.56      3.75212     20.40013      88.3223        10     0.896     0.726 -43.63  16
       252    320.6493    481.7790 300.1602729 +22.6239634     322.5785     72.30745      1.402     3.44     4.446904     20.40013     38.12191         5     0.737     0.464  78.80   0
       253    553.8627    481.2071 300.2330285 +22.6937062      214.111     72.27061      1.134     2.73      4.55396     20.40013     62.00274         7     0.820     0.672 -47.99   0
       254    388.6079    480.7693 300.1817402 +22.6440479     534.9771     72.30745      1.271     2.38     4.460729     20.40013     66.50778         5     0.700     0.458  71.24   0
       255    959.9601    472.7058 300.3623335 +22.8129137     1256.393     72.32587      1.227     2.35     3.854562     20.40013     223.0865        14     0.944     0.794  67.85   0
       256    918.3168    471.3530 300.3497862 +22.8000550     1055.857     72.30745      1.229     2.55     3.964499     20.40013     129.6375        13     0.917     0.782 -73.27   0
       257    831.9719    472.2663 300.3225699 +22.7744586     436.6662     72.28903      1.064     2.14     4.245318     20.40013     83.79076         8     0.769     0.619 -43.27   0
       258    454.9122    468.2803 300.2064278 +22.6603377     421.3874     72.43626      1.168     2.40     4.465324     20.40013      72.0014         9     0.849     0.659  75.62   0
       259    659.1848    467.5661 300.2702574 +22.7213479     1052.491     72.28903      1.166     2.13     4.380002     20.40013     173.5328        15     0.880     0.843 -37.33   0
       260    163.1307    466.0790 300.1163989 +22.5722233     610.2625     72.41787      1.334     2.65     4.005826     20.40013     80.65425        10     0.929     0.673 -79.84   0
       261    225.5329    461.7161 300.1372133 +22.5896850     3830.926     72.41787      1.297     2.17      3.96799     20.40013     570.1952        26     1.040     1.005 -87.26   0
       262    958.7070    459.9617 300.3660827 +22.8088753     4342.194     72.30745      1.243     2.04     3.856269     20.40013     694.7029        30     1.062     1.015 -70.04   0
       263    172.7560    456.4607 300.1225145 +22.5723500     7599.477     72.32587      1.333     2.33      4.03652     20.40013      1002.99        40     1.208     1.100  81.59   0
       264    938.5993    451.0568 300.3627043 +22.8002949     1818.032     72.23374      1.249     2.14     3.890417     20.40013     287.2137        19     1.003     0.887 -78.88   0
       265    313.5594    450.5980 300.1681960 +22.6128878     4870.121     72.30745      1.216     2.16     4.340438     20.40013     762.9035        32     1.138     0.999  58.95   0
       266    557.7619    447.3200 300.2452499 +22.6851428      18215.9     72.27061      1.184     2.00     4.405348     20.40013     2789.208        47     1.114     1.031  71.60   0
       267    575.6561    447.2034 300.2508592 +22.6904714     847.6535     72.27061      1.857     6.61     4.389372     20.40013     75.57034        17     1.591     0.771 -40.37   0
       268    404.8198    448.7035 300.1971996 +22.6397021     314.7332      72.2153      1.282     1.65     4.350312     20.40013     58.86187         5     0.687     0.414  20.56   0
       269    400.5873    447.1743 300.1963794 +22.6379944     304.5074     72.30745      1.343     3.42      4.33894     20.40013     37.73117         5     0.729     0.473 -75.57   0
       270    801.3050    443.1978 300.3224537 +22.7569207     226.0709      72.2153      1.031     3.67     4.067191     20.40013     43.04081         5     0.868     0.446  42.24   0
       271    754.8123    437.5270 300.3098067 +22.7413656     386.7711     72.32587      1.081     2.76     4.292249     20.40013     61.83447         8     0.767     0.690  77.53   0
       272    178.0950    434.9692 300.1311540 +22.5677840     323.2607     72.23374      1.247     4.07      4.12126     20.40013     53.68921         6     0.788     0.599  53.40   0
       273    891.3937    429.7506 300.3549050 +22.7800358     865.0522     72.30745      1.534     2.69     3.954901     20.40013     125.8587        11     0.954     0.714 -58.15   0
       274    428.1795    429.2882 300.2107738 +22.6411295     293.0674     72.23374      1.037     2.43     4.286105     20.40013     53.57216         5     0.850     0.353 -45.89   0
       275    112.5316    427.4703 300.1132137 +22.5459699     2061.899     72.34428      1.335     2.27     4.243119     20.40013      280.278        24     1.118     1.026  88.64   0
       276    498.4291    416.7608 300.2367048 +22.6585863     6647.819     72.30745      1.188     1.96     4.183833     20.40013     1025.205        33     1.079     0.967  77.47   0
       277    912.1262    416.9623 300.3655231 +22.7825681     1285.573     72.25217      1.239     1.94      3.90749     20.40013     230.9352        15     0.891     0.837  29.73   0
       278    213.2838    416.1719 300.1481969 +22.5729413     656.3893     72.30745      1.298     2.64     4.201082     20.40013     88.43523        11     0.938     0.705  17.05   0
       279     70.9486    409.4616 300.1061417 +22.5283313     532.5215     72.36269      1.411     3.78     4.479394     20.40013     60.41779        12     1.044     0.896  41.61   0
       280    758.3694    408.6490 300.3202943 +22.7341333     328.4751     72.34428      0.932     2.00     4.254373     20.40013     59.28458         5     0.658     0.468 -75.06   0
       281    612.2498    407.1102 300.2752756 +22.6899197     461.3838     72.30745      1.214     2.30     4.320837     20.40013     86.44103         8     0.829     0.584 -84.30   0
       282    702.6305    405.6191 300.3039113 +22.7165672     1125.333     72.30745      1.226     2.41     4.373914     20.40013     171.9034        14     0.977     0.787 -53.89   0
       283    405.0643    403.0684 300.2120965 +22.6266728     6215.017     72.36269      1.230     2.02     4.274839     20.40013     1056.577        31     1.050     0.969  60.06   0
       284    989.8345    404.4047 300.3938368 +22.8022239     309.3082     72.30745      1.540     2.75      3.78059     20.40013     35.13265         5     0.725     0.448 -20.53   0
       285    894.3950    397.2815 300.3663860 +22.7716019     689.3779     72.23374      1.367     3.25     3.888469     20.40013     86.59443        11     0.936     0.891  43.60   0
       286    797.0843    397.4708 300.3359896 +22.7425161     1486.716     72.41787      1.197     2.13     4.059937     20.40013     237.6497        16     0.911     0.863  45.59   0
       287    389.7217    391.7326 300.2110041 +22.6188194     590.5002     72.41787      1.133     2.06     4.293052     20.40013     93.12135         8     0.790     0.601  84.94   0
       288    472.1183    389.6877 300.2373075 +22.6429266      329.678     72.43626      1.083     1.89     4.175257     20.40013     72.01984         7     0.676     0.613   1.88   0
       289    750.6683    388.5955 300.3244069 +22.7260642     257.0673     72.27061      1.035     3.36     4.342805     20.40013     47.38739         6     0.886     0.471 -89.81   0
       290    452.6375    387.6225 300.2319154 +22.6364955     341.5976     72.32587      1.115     3.23     4.226908     20.40013     48.84492         7     0.841     0.642 -23.03   0
       291    769.8602    385.0950 300.3315242 +22.7308063     523.1196     72.39948      1.128     2.07     4.260979     20.40013     99.70492         9     0.768     0.662 -46.69   0
       292    292.5706    382.2446 300.1838663 +22.5869741     2490.235     72.34428      1.197     2.12     4.361444     20.40013      353.137        20     1.002     0.879  77.10   0
       293     11.0400    380.0102 300.0970947 +22.5019129     974.1271     72.30745      1.375     2.74     4.694882     20.40013     136.7943        15     1.035     0.834  -7.82   0
       294    239.9154    375.6338 300.1696398 +22.5692908     465.5646     72.27061      1.731     4.65     4.366287     20.40013     40.81949         6     0.967     0.746  73.07   0
       295    261.9221    371.7766 300.1777347 +22.5747811     29381.01     72.28903      1.295     2.14      4.38756     20.40013     4684.356        66     1.212     1.141  53.90   0
       296    796.6589    369.0314 300.3450922 +22.7342156     1336.351     72.32587      1.194     2.21     4.230938     20.40013     199.2329        16     0.971     0.832 -58.70   0
       297    752.1686    367.0948 300.3318561 +22.7203351     296.6063     72.27061      1.071     2.27      4.38409     20.40013     62.50803         5     0.692     0.640 -51.89   0
       298    754.5615    358.8152 300.3352902 +22.7186723     107.6689     72.32587      1.042     3.47      4.39369     20.40013     29.05274         5     0.758     0.459  71.74   0
       299    711.8763    358.1332 300.3222117 +22.7056922     580.6368     72.39948      1.279     2.78     4.435272     20.40013     75.99152        10     0.906     0.687 -62.78   0
       300    835.6138    357.8424 300.3608673 +22.7426648     367.0526     72.32587      1.749     4.18     4.053508     20.40013     48.69157         6     1.608     0.309 -38.88   0
       301    136.0252    358.0273 300.1430629 +22.5330880     440.5486     72.27061      1.290     2.10     4.360242     20.40013     70.76489         5     0.647     0.507 -89.76   0
       302    360.3494    356.8440 300.2131947 +22.5999982     553.5001     72.34428      1.210     2.75     4.429173     20.40013     82.93736        10     0.950     0.683  54.12   0
       303    672.3878    351.3987 300.3120966 +22.6919294     1930.733     72.12304      1.185     1.99     4.436376     20.40013     265.6235        19     1.053     0.833 -77.76   0
       304    480.5982    345.9969 300.2541328 +22.6329198     290.9366     72.08611      1.100     2.70     4.165927     20.40013     59.56931         7     0.823     0.639  20.74   0
       305    887.3707    344.1758 300.3814403 +22.7542331     543.9772     72.30745      1.049     2.03      3.89855     20.40013     95.98946         7     0.689     0.597  61.74   0
       306    334.0094    336.0530 300.2117514 +22.5861338     2162.303     72.30745      1.375     2.92     4.405429     20.40013     248.9857        22     1.254     0.888  65.07   0
       307    546.3285    334.5980 300.2782944 +22.6493397     308.8392     72.25217      1.269     3.20     4.262373     20.40013     45.45209         7     0.821     0.665  72.67   0
       308    773.1549    328.6772 300.3508694 +22.7155790     623.4379     72.28903      1.100     2.36     4.373958     20.40013     128.7446        10     0.847     0.723  24.07   0
       309    655.4716    326.6092 300.3148756 +22.6797396     459.1611     72.28903      1.099     2.13     4.406652     20.40013      78.9284         6     0.737     0.506  45.40   0
       310    672.7476    326.2445 300.3203753 +22.6848094     219.0505     72.32587      1.092     3.36      4.43685     20.40013     47.16534         5     0.927     0.353  45.63   0
       311    623.3430    325.5838 300.3052018 +22.6698213      377.119     72.28903      1.581     3.72     4.355045     20.40013     55.19904         6     0.909     0.587  64.13   0
       312    409.9649    315.3462 300.2421027 +22.6029512     1140.491     72.32587      1.190     2.10     4.331414     20.40013     180.9359        13     0.939     0.735 -77.72   0
       313    216.5307    316.0242 300.1817218 +22.5451689     342.6083     72.30745      1.407     2.58      4.52852     20.40013     43.68266         6     0.763     0.497 -85.98   0
       314    792.7932    308.8708 300.3634197 +22.7157668     178.5626     72.27061      1.033     4.06     4.336204     20.40013     46.40864         5     0.977     0.483 -25.04   0
       315    654.7697    307.1652 300.3209692 +22.6739423     2170.797     72.32587      1.183     2.05     4.421613     20.40013     379.1726        19     1.024     0.812  63.08   0
       316     53.9687    306.3722 300.1343350 +22.4936582     149.9137     72.30745      0.934     3.51     4.619435     20.40013      42.2817         5     0.831     0.428 -18.43   0
       317    916.0372    301.5159 300.4042285 +22.7505506     3093.204     72.28903      1.218     1.97     4.031446     20.40013     553.1006        24     1.023     0.939  79.13   0
       318    977.4433    295.9073 300.4252002 +22.7673186     394.5188     72.32587      1.256     3.52     3.991307     20.40013     68.55395         7     0.972     0.479 -81.13   0
       319    363.1482    291.0302 300.2354303 +22.5819383     606.3712     72.34428      1.245     2.60      4.26759     20.40013     89.45081         9     0.770     0.712  66.27   0
       320    985.5394    289.4375 300.4298257 +22.7678813     1525.952     72.32587      1.140     2.13     4.024327     20.40013     217.1457        15     0.904     0.830 -79.41   0
       321     68.7541    285.5089 300.1457000 +22.4921043     513.2279     72.28903      1.408     4.09     4.633807     20.40013     60.34638        12     1.130     0.739  58.76   0
       322     38.1497    285.3692 300.1362377 +22.4828872     1422.333     72.34428      1.548     3.24     4.702662     20.40013     149.4091        20     1.215     0.956 -19.26   0
       323    931.9946    281.8563 300.4155865 +22.7496746     501.1344     72.27061      1.275     2.52     4.054182     20.40013     76.55271        10     0.833     0.735 -83.41   0
       324    775.4512    278.2894 300.3679420 +22.7017838     328.2249     72.32587      1.362     3.21     4.373581     20.40013     44.33174         7     0.810     0.667 -16.35   0
       325    122.0915    277.0689 300.1650123 +22.5056741     525.5251     72.43626      1.381     3.84     4.471574     20.40013     64.21085         9     0.909     0.770  80.09   0
       326    798.0822    270.7442 300.3774441 +22.7063909     341.1032     72.36269      1.312     2.16     4.337141     20.40013     66.65226         6     0.718     0.600  63.56   0
       327    726.2892    268.4503 300.3558161 +22.6842349     678.0359     72.30745      1.146     2.49     4.438138     20.40013     113.1955        10     0.836     0.730  33.34   0
       328    316.7346    268.1869 300.2284074 +22.5614689      375.621     72.25217      1.210     2.15     4.502058     20.40013     72.84499         7     0.729     0.587  83.07   0
       329    817.1814    261.6682 300.3863429 +22.7095001     384.3257     72.30745      1.308     2.13      4.33957     20.40013     56.78434         5     0.700     0.445 -16.38   0
       330    824.6546    257.7050 300.3899587 +22.7105980     2222.698     72.38109      1.180     2.13     4.344675     20.40013     355.1502        21     1.006     0.895  81.07   0
       331    243.1517    255.1709 300.2097493 +22.5356779     2083.846     72.32587      1.274     2.19     4.654043     20.40013     297.7161        21     0.973     0.956 -60.11   0
       332    321.1766    250.1986 300.2356268 +22.5576344     934.6747     72.25217      1.287     2.61     4.684226     20.40013     135.4802        14     1.040     0.809 -43.28   0
       333     72.8139    250.8864 300.1581975 +22.4833847     390.7701     72.25217      1.582     3.92     4.744027     20.40013     55.27394         8     1.115     0.698   0.43   0
       334    723.0929    249.3821 300.3610090 +22.6777971     497.1755     72.23374      1.088     2.37     4.435894     20.40013     96.57534         8     0.798     0.640  49.04   0
       335    829.9094    246.0334 300.3953847 +22.7088157     398.0492     72.28903      1.184     2.46      4.35906     20.40013     69.26849         9     0.792     0.720 -89.28   0
       336    368.0017    246.2660 300.2514685 +22.5705368      258.964     72.28903      1.437     3.80     4.645904     20.40013     29.46518         5     0.819     0.507 -57.19   0
       337    137.8530    242.4286 300.1811521 +22.5004559     654.8882     72.32587      1.283     2.72      4.42571     20.40013     94.03378        12     1.025     0.702  84.03   0
       338    256.3177    242.0829 300.2180904 +22.5358660     154.8677     72.43626      0.969     2.26     4.716568     20.40013     49.29345         5     0.743     0.408  68.79   0
       339    675.6255    239.1132 300.3495535 +22.6606317     1645.981     72.25217      1.197     2.17     4.433487     20.40013     241.3222        16     0.926     0.838  77.01   0
       340    740.7241    238.5421 300.3700206 +22.6799606     656.8834     72.34428      1.366     2.44     4.430038     20.40013     97.81799         8     0.759     0.723 -53.53   0
       341    159.2532    235.5698 300.1900289 +22.5049021     601.9411     72.32587      1.327     3.01     4.316617     20.40013     68.81821         9     0.999     0.572  67.98   0
       342    947.0814    231.3400 300.4366873 +22.7396636     928.7397     72.38109      1.295     2.54     4.265139     20.40013     139.6173        15     1.080     0.769  74.07   0
       343    449.3222    231.9649 300.2814121 +22.5907942     348.5431     72.27061      1.320     3.32     4.422826     20.40013     58.40434         5     0.806     0.396  69.31   0
       344    679.7542    230.6623 300.3535821 +22.6594391      798.894     72.34428      1.263     2.13     4.433487     20.40013      126.166        12     0.841     0.790  85.51   0
       345    600.2562    229.8918 300.3290716 +22.6354101     1129.742     72.36269      1.147     2.03     4.432504     20.40013     206.7894        12     0.850     0.728 -85.06   0
       346    421.4074    226.2096 300.2745931 +22.5807777     350.6635     72.15996      1.255     2.75      4.47247     20.40013     45.30136         7     0.784     0.615 -65.94   0
       347    795.7395    221.3727 300.3927371 +22.6914963     1465.284     72.32587      1.156     1.99      4.36816     20.40013     236.0713        15     0.958     0.756  78.21   0
       348    526.4659    221.6291 300.3087776 +22.6109343     931.6912     72.32587      1.226     2.34     4.424715     20.40013      126.734        12     0.869     0.767  82.83   0
       349    953.5949    220.9744 300.4420826 +22.7386320     104.4656     72.27061      1.257     3.05     4.316704     20.40013     35.05535         5     0.763     0.571   3.40   0
       350    807.7769    220.2753 300.3968451 +22.6947844     666.2921     72.34428      1.140     2.38     4.366795     20.40013     91.92394        10     0.822     0.736 -68.18   0
       351    854.2623    219.1669 300.4116953 +22.7083813     259.8163     72.30745      1.248     3.68      4.41175     20.40013     46.56911         6     0.853     0.610  58.39   0
       352    817.4353    216.9127 300.4009468 +22.6967090      174.198     72.28903      1.475     4.79      4.37686     20.40013      32.2972         5     1.395     0.467 -82.71   0
       353    968.6221    211.2195 300.4499351 +22.7403236     1656.896     72.30745      1.247     2.31     4.414933     20.40013     202.0783        17     0.948     0.898   8.11   0
       354    924.4411    210.5760 300.4363649 +22.7269163     1064.169     72.34428      1.087     1.91     4.359941     20.40013     165.1813        13     0.848     0.716  56.42   0
       355    158.2408    203.8950 300.1999919 +22.4955050     764.8312     72.32587      1.331     2.51     4.566958     20.40013     109.2923        12     0.912     0.793  23.82   0
       356    827.1664    202.5041 300.4086556 +22.6954793     140.6117     72.30745      1.312     5.20     4.399535     20.40013     28.78466         5     1.056     0.724 -82.41   0
       357     20.4144    198.8115 300.1588162 +22.4527276     2138.615     72.23374      1.435     2.65     5.155266     20.40013     274.5154        23     1.136     1.041  89.81   0
       358    843.3828    195.7123 300.4159145 +22.6983806      620.873     72.23374      1.082     2.11     4.433642     20.40013     105.1708        11     0.805     0.728  10.19   0
       359    177.7842    192.0805 300.2098996 +22.4979707     5518.639     72.30745      1.327     2.24       4.7416     20.40013     799.1503        34     1.158     1.054  56.11   0
       360    159.5621    193.0976 300.2039057 +22.4928010     313.5277     72.30745      1.096     2.63     4.686465     20.40013     49.29447         7     0.821     0.590 -14.79   0
       361    161.1627    183.0066 300.2076770 +22.4903835     571.1353     72.32587      1.339     2.46     4.800045     20.40013     87.90466        10     0.867     0.713 -16.64   0
       362    976.6486    179.3286 300.4627867 +22.7335530     18257.77     72.28903      1.270     2.24     4.774013     20.40013     2450.492        53     1.228     1.115 -86.55   0
       363    821.8956    173.4440 300.4164416 +22.6855458     3496.112     72.32587      1.220     2.07     4.413228     20.40013     560.5339        25     1.080     0.907  82.05   0
       364    925.5352    172.1319 300.4491802 +22.7161874     2692.345     72.36269      1.240     2.23     4.505768     20.40013     355.4455        19     1.015     0.852  82.96   0
       365    371.0431    168.5878 300.2776188 +22.5491362      614.392     72.30745      1.180     2.98     5.087554     20.40013     92.83164        11     0.928     0.833  52.01   0
       366    485.6222    166.5723 300.3139273 +22.5828808     225.7732     72.30745      1.101     3.49     4.955807     20.40013     46.12955         8     0.960     0.616  19.33   0
       367    295.5980    160.7642 300.2566897 +22.5242843     757.0668     72.28903      1.483     2.10     5.170604     20.40013     93.74639         9     0.788     0.674  16.91   0
       368    299.5516    159.2105 300.2584233 +22.5250227     419.7774     72.32587      1.633     2.76     5.170129     20.40013     41.76351         5     0.716     0.459 -69.64   0
       369     61.5079    157.6243 300.1849435 +22.4532247     631.8642     72.25217      1.437     2.93     5.083785     20.40013     78.56738        11     0.907     0.786   5.84   0
       370    422.6217    155.8913 300.2977857 +22.5609406     1645.405     72.23374      1.188     2.22     5.067392     20.40013     273.2248        15     0.987     0.740  65.65   0
       371    350.6243    156.3554 300.2752351 +22.5395049     506.7169     72.32587      1.235     2.43     5.146688     20.40013      71.1388         7     0.779     0.586  63.99   0
       372    484.0243    155.0124 300.3171801 +22.5790806      312.628     72.30745      1.248     3.46     4.982592     20.40013     63.84332         7     1.046     0.508  37.27   0
       373    166.1948    151.5905 300.2194326 +22.4828712     453.4017     72.15996      1.515     2.65     5.056806     20.40013     58.99537         7     0.830     0.619  73.77   0
       374    711.1336    145.4097 300.3910191 +22.6443285     264.1836     72.30745      1.223     2.87      4.80972     20.40013      46.5813         5     0.718     0.467  16.50   0
       375    558.8777    141.8060 300.3447665 +22.5977037     218.7769      72.2153      1.057     3.73     4.891699     20.40013     46.97876         5     0.809     0.493 -42.15   0
       376    857.0884    139.9624 300.4382746 +22.6864512     212.0306     72.28903      1.121     4.04     4.572242     20.40013     42.24068         7     0.901     0.519  48.23   0
       377    987.1481    136.6372 300.4799121 +22.7244144     3510.407     72.32587      1.315     2.23     5.076591     20.40013     551.9297        26     1.066     0.986  63.39   0
       378    196.6841    135.9540 300.2339821 +22.4875185     5926.594     72.28903      1.327     2.38     5.057029     20.40013     852.2406        31     1.131     1.011  67.55   0
       379    703.0259    136.2803 300.3914546 +22.6392766      245.817     72.28903      1.096     3.05      4.79197     20.40013     55.44799         7     0.884     0.646   3.85   0
       380     47.8031    135.5428 300.1878483 +22.4427774     744.1693     72.27061      1.475     2.60     5.132115     20.40013     96.13667        11     0.869     0.850  27.13   0
       381    825.9746    133.0107 300.4308303 +22.6751399     309.1243     72.30745      1.107     1.99      4.46202     20.40013     76.77476         6     0.697     0.631  86.99   0
       382    168.7195    129.7149 300.2273130 +22.4773463     348.9124     72.45464      1.361     3.14     5.058396     20.40013     55.84217         6     0.982     0.388 -14.77   0
       383    672.7260    126.9812 300.3850316 +22.6275320     210.8065     72.30745      1.159     3.75     4.890128     20.40013     32.37887         5     0.807     0.501 -35.69   0
       384    212.2100    127.3657 300.2415944 +22.4897049     369.6237     72.27061      1.083     1.70     5.056688     20.40013     62.16314         5     0.654     0.456  19.40   0
       385    442.7315    121.2133 300.3152923 +22.5570007     6027.443     72.32587      1.248     2.18     4.937036     20.40013     883.3049        31     1.134     0.938  74.89   0
       386    499.7017    115.9444 300.3347327 +22.5725495     161.5471     72.39948      1.064     2.99     4.791937     20.40013     42.89753         7     0.742     0.660  80.23   0
       387    328.0972    121.0956 300.2796651 +22.5226271     531.6656     72.49139      1.183     2.63     5.168628     20.40013     75.72318         8     0.758     0.666 -53.47   0
       388    695.1811    111.1711 300.3971552 +22.6297093     894.9354     72.30745      1.459     4.73      4.74844     20.40013     134.0886        15     1.591     0.745 -71.57   0
       389    787.8608    109.7340 300.4265009 +22.6570387     544.0471     72.34428      1.384     2.22      4.38198     20.40013       79.551         8     0.737     0.673 -27.74   0
       390    855.4858    106.8649 300.4485110 +22.6764529     292.3208     72.39948      1.028     1.84      4.63742     20.40013     65.59697         5     0.679     0.472  70.36   0
       391    135.7435    105.2012 300.2250145 +22.4604244     400.3376     72.23374      1.222     2.60     5.060834     20.40013     69.78057         9     0.827     0.728  15.06   0
       392    494.2161    103.7276 300.3369876 +22.5673958     479.4183     72.30745      1.230     1.76     4.720292     20.40013     85.83821         6     0.657     0.560  52.76   0
       393    571.1259    101.2316 300.3617409 +22.5897098     6056.674     72.32587      1.242     2.10      4.89234     20.40013     922.8451        32     1.094     0.998  83.00   0
       394    346.1749    100.2896 300.2920365 +22.5220657     1475.428     72.25217      1.272     2.20     5.153881     20.40013     218.8244        21     1.101     0.953  59.38   0
       395    612.2585     98.5304 300.3754258 +22.6012494     917.7031     72.32587      1.199     2.22     4.892311     20.40013     142.4138        12     0.912     0.718  68.37   0
       396    628.2043     94.6050 300.3816652 +22.6048952     723.2726     72.15996      1.515     3.06     4.899846     20.40013     80.99843        13     1.035     0.776 -68.28   0
       397     94.9982     92.9164 300.2163366 +22.4446853     540.3586      72.2153      1.289     2.83     5.069723     20.40013      83.3834        12     0.978     0.766 -68.10   0
       398    898.1061     92.1559 300.4665704 +22.6849763     535.3107     72.32587      1.427     1.81     4.902465     20.40013     92.35989         8     0.722     0.621 -34.85   0
       399    666.7762     89.9315 300.3951952 +22.6150994     499.6384     72.30745      1.471     2.79     4.901264     20.40013     63.96655         8     0.757     0.693 -75.06   0
       400    615.4092     86.1370 300.3804266 +22.5986301     2697.385     72.27061      1.216     2.11     4.941973     20.40013     405.7201        21     1.014     0.897  81.65   0
       401    256.1196     87.0274 300.2683294 +22.4912762     362.5862     72.32587      1.285     3.30     5.087861     20.40013     46.14912         8     0.811     0.754  87.79   0
       402    630.4492     84.7004 300.3855766 +22.6027200     860.5494     72.36269      1.696     5.14     4.935245     20.40013      90.5757        17     1.665     0.705  54.80   0
       403    701.7975     77.5532 300.4101199 +22.6220244     1708.864     72.30745      1.351     2.24     4.639709     20.40013     264.0233        22     1.098     0.986  60.20   0
       404    862.1134     76.1704 300.4605326 +22.6696080     105.5688     72.30745      0.984     3.54     4.695882     20.40013     38.04958         6     0.752     0.573  49.19   0
       405    183.8158     74.1900 300.2500131 +22.4659246     200.6279     72.23374      1.348     3.13     5.075866     20.40013     36.41866         6     0.765     0.542 -46.09   0
       406    639.7012     70.9539 300.3929163 +22.6015379     691.2429     72.32587      1.182     2.64     4.968933     20.40013     119.3216        11     0.906     0.785 -77.58   0
       407    445.3184     70.2017 300.3326415 +22.5431171     1049.325      72.2153      1.217     2.23     4.734317     20.40013     139.4525        15     0.944     0.886 -46.52   0
       408     18.2992     70.3265 300.1998332 +22.4152107     515.5222     72.45464      1.416     3.04     5.277829     20.40013     78.95335        10     0.946     0.751  61.48   0
       409    349.2042     68.3362 300.3033413 +22.5137930     806.1295     72.28903      1.229     1.99     4.799032     20.40013      126.904        11     0.931     0.656  86.49   0
       410    731.4619     66.9226 300.4228100 +22.6278470     551.4106     72.36269      1.197     2.52     4.347059     20.40013     76.49773         7     0.869     0.483  80.07   0
       411    992.2191     65.1307 300.5046872 +22.7053596     2400.717     72.30745      1.326     2.35     4.776033     20.40013     320.6004        20     0.992     0.961 -23.58   0
       412    120.6121     58.4957 300.2354579 +22.4424776     3582.285     72.23374      1.439     2.65     5.087963     20.40013     426.4766        26     1.170     1.032  61.02   0
       413    688.6361     58.8379 300.4120888 +22.6127034     666.4539     72.38109      1.131     2.28     4.761653     20.40013     103.8299         9     0.782     0.695  32.20   0
       414    446.6817     55.0772 300.3379702 +22.5391790     301.4376     72.41787      1.172     2.88     4.666443     20.40013     57.61819         6     0.839     0.581 -52.19   0
       415    681.8847     50.6393 300.4126441 +22.6083251      759.826     72.28903      1.230     2.44      4.83691     20.40013     148.8861        13     1.018     0.809  64.72   0
       416    236.6450     50.4532 300.2741341 +22.4749357     1155.805     72.32587      1.215     2.25     5.020173     20.40013     169.5429        12     0.954     0.759  65.05   0
       417    647.6686     49.4512 300.4023709 +22.5977411     442.1469     72.28903      1.566     3.50     5.009682     20.40013     41.85095         5     0.774     0.456 -18.61   0
       418    719.7828     45.6756 300.4260609 +22.6182416     609.1315     72.30745      1.243     3.34     4.423261     20.40013     91.64082        11     1.102     0.695  60.52   0
       419    643.1347     45.5384 300.4022275 +22.5952588     505.3528     72.34428      1.129     2.21     5.032914     20.40013     99.42345         7     0.817     0.554  82.48   0
       420    739.7570     42.0318 300.4334663 +22.6231721      2309.36     72.36269      1.316     2.27     4.227626     20.40013     342.3786        23     1.086     0.935  80.69   0
       421    445.3466     40.3265 300.3423377 +22.5345400     462.1356     72.32587      1.182     2.23     4.602413     20.40013     69.83971         8     0.811     0.592 -81.45   0
       422    122.9517     37.4956 300.2429940 +22.4371480     853.6841     72.34428      1.331     2.71     5.102207     20.40013     120.3185        14     1.056     0.815  45.28   0
       423    914.8281     35.2194 300.4902491 +22.6736010      721.762     72.30745      1.282     2.61     4.724514     20.40013     104.7364        11     0.943     0.685 -80.59   0
       424    688.0861     34.5692 300.4197869 +22.6055606     923.2539     72.28903      1.243     2.31     4.774579     20.40013     134.3531        12     0.892     0.730  89.02   0
       425    395.3999     32.9189 300.3291974 +22.5174530     414.7663     72.17841      1.375     3.57     4.468865     20.40013     48.50808         8     0.947     0.653  14.88   0
       426    110.2059     32.5710 300.2406297 +22.4319142     188.0299     72.30745      1.025     3.39      5.10492     20.40013     28.28324         5     0.757     0.439 -21.80   0
       427    445.6133     26.8299 300.3467969 +22.5307410     253.4544     72.30745      1.295     4.29     4.547713     20.40013     36.73276         7     0.944     0.554  32.91   0
       428    272.7496     24.0642 300.2939170 +22.4781712     443.8434     72.36269      1.302     2.85     4.596647     20.40013     68.56006         9     0.961     0.593  35.77   0
       429    540.7579     19.4910 300.3787923 +22.5571210     707.1225     72.30745      1.140     2.25     5.232768     20.40013     117.8834        13     0.910     0.758  84.96   0
       430    773.0199     18.3990 300.4514948 +22.6263304     300.9455     72.23374      1.231     2.98     4.169764     20.40013      45.1195         6     1.034     0.426  72.73   0
       431    675.9346     17.2634 300.4216125 +22.5969472     318.7149     72.34428      1.203     2.57     4.925766     20.40013     46.34875         5     0.760     0.487  56.94   0
       432    275.2925     17.1768 300.2969407 +22.4769543     233.0531     72.23374      1.261     4.14     4.516576     20.40013     35.80166         6     0.775     0.631  -3.63   0
       433    149.7865     17.0513 300.2579623 +22.4393173     475.0918     72.34428      1.420     3.43     5.115772     20.40013     62.91974        10     0.943     0.738 -20.71   0
       434    334.8022     15.1824 300.3160960 +22.4942068     262.8138      72.2153      1.189     4.26     4.196307     20.40013     42.57483         6     1.085     0.476 -62.24   0
       435     50.6361   1011.4093 299.9041201 +22.6948205     938.3566     72.30745      6.620     9.17      63.3169     20.40013     49.48785        13     2.251     1.042  -9.92  19
       436     27.7943    990.5261 299.9038235 +22.6819776     1753.254     72.25217      5.324    16.55     58.99037     20.40013     44.50438        67     3.203     2.377 -26.97   3
       437     34.0420   1010.7473 299.8991815 +22.6896473     2545.703     72.30745      6.920    29.39     72.55759     20.40013     56.76128       204     6.612     3.625  43.31  19
       438     48.8395   1021.2212 299.9003679 +22.6970921     636.3146     68.05698      5.300     4.39     71.37982     20.40013     34.76353         5     1.468     0.373   7.37  17
       439     75.9816   1007.8682 299.9131458 +22.7014175     1052.643     72.30745      5.566     7.57     48.18979     20.40013     37.72882        14     1.670     0.960 -18.94   3
       440     78.5323   1013.2734 299.9121785 +22.7037321     1141.465     72.38109      5.930     9.00      49.0811     20.40013     45.09455        13     2.760     0.820  56.84  19
       441     80.1564   1009.2543 299.9139914 +22.7030683     1246.517     72.30745      5.014     6.81     46.58294     20.40013     34.62123        13     1.497     0.868 -71.04   3
