#   1 NUMBER                 Running object number                                     
#   2 X_IMAGE                Object position along x                                    [pixel]
#   3 Y_IMAGE                Object position along y                                    [pixel]
#   4 ALPHA_J2000            Right ascension of barycenter (J2000)                      [deg]
#   5 DELTA_J2000            Declination of barycenter (J2000)                          [deg]
#   6 FLUX_APER              Flux vector within fixed circular aperture(s)              [count]
#   7 FLUXERR_APER           RMS error vector for aperture flux(es)                     [count]
#   8 FLUX_RADIUS            Fraction-of-light radii                                    [pixel]
#   9 FWHM_IMAGE             FWHM assuming a gaussian core                              [pixel]
#  10 BACKGROUND             Background at centroid position                            [count]
#  11 THRESHOLD              Detection threshold above background                       [count]
#  12 FLUX_MAX               Peak flux above background                                 [count]
#  13 ISOAREA_IMAGE          Isophotal area above Analysis threshold                    [pixel**2]
#  14 A_IMAGE                Profile RMS along major axis                               [pixel]
#  15 B_IMAGE                Profile RMS along minor axis                               [pixel]
#  16 THETA_IMAGE            Position angle (CCW/x)                                     [deg]
#  17 FLAGS                  Extraction flags                                          
         1    857.3256     13.8228 300.4333584 +22.6232578      2187.01     72.29341      1.457     2.73     4.827168     20.38578     244.5693        24     1.189     1.006 -82.92   0
         2    563.1276     12.3426 300.3422162 +22.5347460     572.3903     72.29341      1.573     3.50     3.962995     20.38578      58.3007         8     0.911     0.596  19.67   0
         3    240.6108      9.0860 300.2429641 +22.4371860     1056.325     72.20138      1.757     3.13     4.393768     20.38578      118.342        18     1.170     0.951  71.34   0
         4    805.7451      6.4811 300.4196647 +22.6057061     816.9026     72.29341      1.483     3.29     5.058676     20.38578     90.96454        16     1.109     0.938   7.97  16
         5    800.7672   1013.9366 300.0910569 +22.8936552     583.1185     72.25661      1.995     6.65     3.566227     20.38578     36.80507        14     1.151     1.078  69.91   0
         6    266.7686   1012.8813 299.9252557 +22.7330762     4408.892     72.25661      8.690    23.08     56.41428     20.38578     87.34207       310     5.395     4.755  -1.80  19
         7    286.5763   1011.4589 299.9318743 +22.7386167     5226.148     72.25661      9.323    30.41     53.48446     20.38578     97.25244       503     6.680     6.026 -49.33  19
         8    305.5419   1000.7053 299.9412668 +22.7412292     8134.425     72.33019      9.047    32.61     36.27966     20.38578      172.093       786    10.909     4.978  66.09  18
         9    233.7792   1003.2119 299.9181497 +22.7203976     2395.391      72.2382      8.353    42.84     53.95067     20.38578     58.25524       201    10.063     5.060  88.43  18
        10    248.3336   1023.5480 299.9160572 +22.7305972     1157.664     57.01026      7.462    14.56     64.16071     20.38578     67.72349        37     4.472     1.318   7.90  27
        11    236.0422   1022.3017 299.9126433 +22.7265486     2004.313      63.4152      2.938    10.67     64.09119     20.38578     76.62744        33     1.959     1.619 -59.66  27
        12    239.8915   1018.4423 299.9150948 +22.7265985     2641.248     72.25661      4.279    12.32     61.56646     20.38578     73.50779        50     3.001     1.408 -72.86  19
        13    143.6030    942.6011 299.9098474 +22.6759439     3347.041     72.03542     15.551    49.28     17.47919     20.38578     83.54118       780    10.619     6.346 -35.65   3
        14    144.1351   1016.4244 299.8860031 +22.6972597     4763.167      72.2382     11.176    41.13     50.21151     20.38578     86.93712       600     9.342     5.497   0.13  27
        15    142.6013    980.7410 299.8971330 +22.6865734     4367.657      72.2198     23.640    76.98      34.0368     20.38578     97.06948      3018    17.326    15.372 -19.48  27
        16    993.4473    997.7731 300.1563603 +22.9468039     541.8294     72.27501      1.852     4.78     3.201041     20.38578     46.45025         9     1.323     0.490 -15.37   3
        17    992.4759    995.7504 300.1567155 +22.9459319     524.4578     72.25661      2.052     5.92     3.212782     20.38578     34.96279         8     1.300     0.759 -19.04   2
        18     22.1394    985.8182 299.8580763 +22.6518422     412.4391     72.21979      1.310     3.40      2.52736     20.38578     41.07592         6     0.900     0.586  69.72   0
        19    718.7466    980.0881 300.0765230 +22.8593366     6752.677     72.27501      1.922     4.01     3.355345     20.38578      361.037        42     1.474     1.391  16.58   0
        20    599.6436    975.4056 300.0409685 +22.8222568     501.1826     72.25661      2.292     3.93     3.148273     20.38578     29.75314         5     1.033     0.428 -14.78   0
        21    626.9940    970.8340 300.0509680 +22.8291524     1641.071     72.25661      1.848     4.72     3.154446     20.38578     107.9709        27     1.416     1.304  58.79   0
        22    521.0980    967.2581 300.0191772 +22.7963480      1220.94     72.34857      1.974     4.28     3.214858     20.38578     72.07111        21     1.318     1.081  37.17   0
        23    451.3939    965.5425 299.9980523 +22.7749347     7114.562      72.2198      1.997     9.31     3.428764     20.38578     722.8691        46     1.755     1.377 -41.32   0
        24    217.5888    978.7205 299.9210850 +22.7085157     629.0006      72.2382     11.381    11.22     41.84005     20.38578     42.71489        15     2.589     1.355 -17.68   3
        25    484.0951    952.6525 300.0124160 +22.7810533     629.8745     72.33019      2.095     6.85     3.341582     20.38578     50.82599        14     1.546     0.984 -42.34   0
        26    213.4471    984.0714 299.9180579 +22.7088056     1607.629      72.2382      5.407    11.15        44.53     20.38578     48.06049        24     2.007     1.726 -87.46   3
        27    211.0076    981.0347 299.9182876 +22.7072026      1321.08     72.25661      6.412     8.00     42.89433     20.38578     45.87436        11     1.914     0.934  15.53   3
        28    169.2149    943.4631 299.9175227 +22.6838828     758.2153     72.21979      5.552     5.41     21.56027     20.38578     34.19238         5     1.132     0.729  70.05   2
        29    997.8900    943.9385 300.1752565 +22.9326794     2057.609     72.34857      2.076     5.02     3.532768     20.38578     97.15159        32     1.459     1.410  37.74   0
        30    178.0105   1023.4150 299.8942516 +22.7094381     375.7033     57.52116      1.716     4.49     66.03642     20.38578     34.80249         5     0.823     0.695  88.18  24
        31    648.2292    941.6246 300.0670780 +22.8271437     254.9938     72.25661      1.259     4.47     3.161648     20.38578     33.93346         7     1.283     0.443 -40.59   0
        32    496.5784    940.2263 300.0203404 +22.7812358     412.2399      72.2382      1.698     6.00     3.317975     20.38578     29.44854        10     1.124     0.899  82.97   0
        33    786.5217    933.0417 300.1129321 +22.8661664     728.3713      72.2382      1.763     5.53     3.236407     20.38578      48.9833        15     1.273     0.953  -6.62   0
        34    821.7927    927.0868 300.1258559 +22.8750360     878.7462     72.16453      1.778     5.41      3.15842     20.38578     58.32825        22     1.431     1.173  63.17   0
        35    599.5572    928.2083 300.0562913 +22.8086909     341.4986     72.27501      1.557     4.92     3.150072     20.38578     38.58865         5     1.016     0.675 -15.00   0
        36    176.2791    928.2498 299.9246641 +22.6816438     831.8853     72.25661      3.339     4.20     13.76354     20.38578     40.88739         5     1.334     0.377  38.46   1
        37     31.0603    923.9260 299.8809724 +22.6367888     574.1865     72.29341      1.826     6.18      3.73099     20.38578     61.67341         9     1.237     0.867  59.21   0
        38    843.8416    920.7806 300.1347760 +22.8798384     11317.51     72.27501      1.873     3.94     3.106009     20.38578     620.9949        63     1.557     1.511 -30.53   0
        39    889.0571    921.1630 300.1487405 +22.8935076     389.9096     72.25661      1.671     4.97     3.134781     20.38578     31.98479         7     0.841     0.832  87.60   0
        40    275.1031    913.4207 299.9601922 +22.7070667     687.4972     72.18295      5.177     5.20     7.513697     20.38578     33.87314         5     1.078     0.709 -67.49   0
        41    155.3046    912.2966 299.9233359 +22.6707723     922.8468     72.44042      3.616     5.65     10.56131     20.38578     59.09163        15     1.513     1.114  21.49   0
        42    896.5134    908.8248 300.1550765 +22.8922013     312.9024     72.20138      1.708     5.71     3.215563     20.38578     28.79889         8     1.460     0.629  65.05   0
        43    549.3796    909.1167 300.0468845 +22.7881574     462.7711     72.20138      1.946     5.23     3.184247     20.38578     36.83504         7     1.364     0.567  13.15   0
        44    852.1513    902.7787 300.1432191 +22.8771628     1335.321     72.25661      1.728     4.22     3.128281     20.38578     99.20522        23     1.339     1.107 -53.56   0
        45    199.8803    983.9800 299.9138726 +22.7047050     1172.003      72.2382     10.407     9.80     44.49153     20.38578     37.14539        16     2.575     1.040  18.22   3
        46    704.7410    899.9249 300.0982324 +22.8321315     385.9874     72.31181      1.565     5.40     3.187205     20.38578      41.9453        10     1.085     0.950  75.76   0
        47    890.4525    896.1661 300.1573040 +22.8867496     849.7391     72.27501      1.995     6.59     3.240525     20.38578     60.12234        21     1.464     1.156  55.69   0
        48    939.1186    886.9874 300.1754559 +22.8987061     467.3545      72.2382      1.859     6.08     3.490372     20.38578     37.33609         9     1.255     0.852 -82.33   0
        49    995.0700    886.3934 300.1930910 +22.9153097     7967.043     72.21979      0.647     0.80     3.600619     20.38578     3996.465        11     0.551     0.426  87.64   0
        50    790.1927    886.5654 300.1291888 +22.8539275     708.7944     72.25661      1.883     5.22     3.220119     20.38578     49.36031        11     1.055     0.810 -16.05   0
        51     50.6147    886.2117 299.8993051 +22.6318548     330.9937     72.18295      1.262     3.52     3.797454     20.38578     30.26234         5     0.814     0.440 -72.28   0
        52    502.8992    882.9026 300.0409464 +22.7666897     4172.088     72.45878      1.693     3.35     3.405644     20.38578     339.6847        39     1.363     1.310  46.99   0
        53    801.5266    883.7897 300.1336218 +22.8565299      606.291     72.25661      1.617     5.24     3.219219     20.38578     46.28851        15     1.238     0.983  16.17   0
        54    546.2869    871.1728 300.0582592 +22.7763437     457.4441     72.25661      2.066     4.35     3.252596     20.38578     33.37163         5     0.745     0.721 -39.94   0
        55    228.0289    868.6249 299.9601277 +22.6800902      792.446     72.25661      2.001     5.30      5.30601     20.38578     64.51226        14     1.308     0.909  28.28   0
        56    205.1304    865.6708 299.9539732 +22.6723681     1449.658     72.33019      1.749     4.37     4.823782     20.38578     135.4165        23     1.348     1.158 -27.26   0
        57    565.0301   1001.7878 300.0216152 +22.8194369     378.1751     72.25661      1.560     4.59     3.148273     20.38578     36.79087         7     0.813     0.734 -66.04   0
        58    736.7241    853.1874 300.1233877 +22.8283108     550.7501     72.27501      2.058     6.73     3.274176     20.38578     40.19761        10     1.550     0.821 -75.61   0
        59    814.9662    847.1852 300.1497094 +22.8500522     553.7797      72.2382      1.656     5.13     3.349405     20.38578     44.06839        12     1.078     0.908  21.71   0
        60    682.8669    841.0411 300.1105660 +22.8086710     4890.708      72.2382      1.601     3.17     3.283379     20.38578     406.6739        37     1.309     1.238  41.32   0
        61    172.7450    842.1540 299.9515565 +22.6559024     417.6857     72.29341      1.721     4.69     4.422211     20.38578     37.63475         7     1.010     0.619   4.41   0
        62    485.3051    838.0670 300.0500489 +22.7485479     653.9617     72.38533      1.623     3.39     3.552927     20.38578     61.90265         9     0.975     0.648 -89.02   0
        63    233.1839    834.8087 299.9727219 +22.6719422     1513.584     72.18295      1.767     3.67     4.363745     20.38578     127.5306        20     1.251     0.993  -6.94   0
        64    703.3323    833.6723 300.1193336 +22.8126944     655.1144     72.31181      1.487     3.15     3.336466     20.38578     80.75894        13     0.981     0.890  20.96   0
        65    253.0355    832.6202 299.9796021 +22.6772742      333.698     72.27501      1.565     4.41     4.273212     20.38578     35.00109         6     0.852     0.651 -34.64   0
        66    858.9324    820.8956 300.1719537 +22.8556874     4019.471     72.40369      1.658     3.40     3.577028     20.38578     284.9258        35     1.315     1.266   0.79   0
        67    590.4932    817.0209 300.0896194 +22.7740685     329.2592     72.18295      1.489     5.03     3.340908     20.38578     31.01626         6     1.360     0.526 -52.39   0
        68    267.0155    814.9016 299.9897058 +22.6763900       582.15     72.16453      1.620     4.25     4.083427     20.38578     53.33382         9     0.986     0.911 -72.78   0
        69    575.8777    813.2060 300.0863109 +22.7685892     642.9413     72.16453      1.480     3.94     3.347368     20.38578     65.65244        13     1.127     0.820  50.56   0
        70    222.1971    811.2902 299.9769522 +22.6619003     1075.842     72.16453      1.778     3.88     4.144013     20.38578     105.7383        18     1.155     1.092  41.32   0
        71    371.9715    803.3752 300.0260780 +22.7045863     53256.42     72.25661      1.641     3.14     3.919496     20.38578     4251.845       106     1.517     1.458  25.22   0
        72    637.2863    806.4321 300.1076258 +22.7850662     485.8427      72.2382      1.577     4.57     3.411427     20.38578     41.49027        12     1.182     0.783  14.98   0
        73    629.7166    802.3286 300.1066032 +22.7816179     1635.135     72.38533      1.578     3.36     3.410235     20.38578     152.2869        22     1.171     1.096  52.01   0
        74    300.3816    801.2845 300.0045018 +22.6825003     504.3127     72.20138      1.557     3.90     3.937263     20.38578     51.92697        10     1.036     0.728  12.13   0
        75    658.9323    798.4932 300.1169446 +22.7892802     864.4732     72.40369      1.475     3.49     3.488706     20.38578       107.22        16     1.156     0.973  32.07   0
        76     58.1460    797.8757 299.9303561 +22.6087984     723.1586     72.29341      1.800     5.76     3.842885     20.38578     70.03533        14     1.237     1.108 -44.32   0
        77     25.6566    798.2806 299.9201374 +22.5991579     775.0394     72.29341      1.920     2.81     3.750312     20.38578     67.79443         9     0.845     0.727  16.45   0
        78    669.8348    796.9900 300.1208274 +22.7921188     495.5705     72.21979      1.458     2.86     3.518174     20.38578     59.10201         8     0.778     0.693  40.09   0
        79    775.3318    793.3462 300.1548641 +22.8227106     497.9271     72.27501      1.520     2.45     3.612688     20.38578     62.32789         6     0.813     0.471 -89.84   0
        80    421.6658    780.6409 300.0489195 +22.7129774     30946.46      72.2198      1.614     2.99      3.90933     20.38578     3042.433        88     1.449     1.412  69.88   0
        81    812.7677    783.3911 300.1697610 +22.8310774     669.5667     72.25661      1.537     4.30     3.729765     20.38578     61.26822        14     1.091     0.908  53.77   0
        82    435.9857    781.2222 300.0531842 +22.7174410     2042.258      72.2382      1.620     3.01     3.860379     20.38578     173.2348        26     1.259     1.113  46.61   0
        83    944.7930    776.5920 300.2131124 +22.8687045     2747.919     72.10922      1.727     3.50      3.89325     20.38578     203.1236        31     1.331     1.229  70.84   0
        84    432.7922    774.8616 300.0542581 +22.7146580     688.3408      72.2382      1.680     4.45     3.879032     20.38578     64.40749        10     1.010     0.774  49.61   0
        85    702.4359    772.5189 300.1389312 +22.7948718     894.5414     72.20138      1.523     3.63     3.592699     20.38578     81.30816        17     1.086     1.038 -78.70   0
        86    304.1071    772.6107 300.0149783 +22.6753947      850.577     72.20138      1.675     4.04     3.938075     20.38578     80.22016        18     1.275     0.969   0.84   0
        87    109.0767    768.0735 299.9558564 +22.6155479     495.7142     72.34857      1.744     5.57     4.009279     20.38578     40.19711        11     1.252     0.751 -46.60   0
        88    549.9461    767.3779 300.0931356 +22.7476590     914.1656     72.27501      1.512     3.12      3.49569     20.38578      95.5806        14     1.014     0.903  87.44   0
        89    950.7492    764.1400 300.2190159 +22.8669134     377.3456     72.31181      1.517     5.39     3.950889     20.38578     34.77053        11     0.947     0.878  39.64   0
        90    452.0527    763.7736 300.0638517 +22.7172558     221.4645     72.27501      1.195     4.20     3.848641     20.38578      40.8878         6     1.202     0.418   0.54   0
        91    495.6820    762.3365 300.0778904 +22.7299333     439.9502     72.36695      1.445     4.28      3.72546     20.38578     52.02251         8     1.181     0.535  31.69   0
        92    137.0828    761.4951 299.9666923 +22.6220702     525.7126     72.44042      1.900     4.62     4.039206     20.38578     45.93997        11     1.181     1.026  24.71   0
        93    539.1521    772.7084 300.0880446 +22.7459506     519.6493     72.27501      1.885     5.06     3.501272     20.38578     42.56708         9     1.183     0.693  32.26   0
        94    928.6098    759.0416 300.2137719 +22.8588130     348.5494     72.25661      1.656     2.98     4.152212     20.38578     47.89572         5     0.959     0.564  19.31   0
        95    301.9568    756.6770 300.0194876 +22.6701792     516.9169      72.2382      1.597     4.99      3.93946     20.38578     61.73839        12     1.407     0.823 -21.44   0
        96    625.2994    746.8930 300.1232441 +22.7643821     395.5245     72.44042      1.285     4.69     3.548401     20.38578     44.06679         9     0.897     0.731  26.21   0
        97    595.0515    745.4952 300.1142835 +22.7549086     667.8144     72.33019      1.484     3.56     3.511691     20.38578      58.1959        12     0.933     0.901 -56.77   0
        98   1011.2311    741.8380 300.2451194 +22.8786340     4523.619     72.25661      1.799     3.56     3.520633     20.38578     326.3045        39     1.395     1.312  26.76   0
        99    616.7391    742.7454 300.1219273 +22.7606242     1470.344     72.31181      1.606     3.05     3.527186     20.38578     147.5324        23     1.171     1.085 -17.52   0
       100    504.0677    744.5394 300.0862824 +22.7273421     332.6823     72.29341      1.439     3.68     3.764809     20.38578     39.61111         6     0.797     0.489   8.76   0
       101    536.6148    742.4109 300.0971005 +22.7364950      196.258     72.16453      1.099     2.91     3.633376     20.38578     59.30326         6     0.907     0.620  28.86   0
       102    697.9763    737.9835 300.1487653 +22.7836202     390.9721     72.25661      1.461     3.25     3.708312     20.38578     41.43055         7     0.838     0.670  32.71   0
       103    999.5986    733.3591 300.2442478 +22.8727121      1749.95     72.25661      1.789     4.08     3.686255     20.38578     118.9925        24     1.335     1.085   5.82   0
       104    362.7357    727.0665 300.0480035 +22.6799248     843.1443     72.31181      1.516     3.26     3.944661     20.38578     77.60057        15     1.078     0.882 -89.41   0
       105    825.9993    724.4225 300.1930462 +22.8181115     2654.268     72.18295      1.742     3.33     3.924124     20.38578     227.8869        36     1.525     1.290  34.73   0
       106     48.6692    714.6764 299.9544470 +22.5821022     646.1506     72.34857      1.699     4.82     3.973317     20.38578     68.23772        16     1.267     1.039 -27.78   0
       107    211.2526    710.9204 300.0061659 +22.6298322     604.8749     72.27501      1.547     4.71     4.024981     20.38578     49.35252        12     1.167     0.852 -40.89   0
       108    908.6731    710.4501 300.2233479 +22.8388806     608.1323     72.27501      1.762     4.25     4.157887     20.38578     51.93584         9     1.088     0.674  22.29   0
       109    789.3694    709.0001 300.1866461 +22.8027014     898.9172     72.21979      0.601     1.02     3.776345     20.38578      488.693         5     0.488     0.311  11.13   0
       110    944.4252    701.4764 300.2374071 +22.8470182     146460.5     72.27501      1.694     3.27     4.145039     20.38578      12143.9       176     1.598     1.560  62.36   0
       111    706.5387    705.4565 300.1620002 +22.7768493     294.7916     72.33019      1.144     3.74     3.855316     20.38578     37.74606         6     0.919     0.438 -72.87   0
       112    796.8979    701.9460 300.1912832 +22.8029327     649.1271     72.34857      1.530     3.76     3.779138     20.38578      69.3569        13     1.147     0.883   8.24   0
       113    977.4437    694.4778 300.2499740 +22.8549029     415.9043      72.2382      1.787     5.34     4.185184     20.38578     36.95457         8     1.024     0.787  53.44   0
       114    630.8868    690.2861 300.1433756 +22.7498086     1573.824     72.38533      1.472     2.81     3.939911     20.38578     170.1136        21     1.164     0.999  12.97   0
       115    811.9028    687.6367 300.2006065 +22.8033215     9351.629     72.25661      1.513     2.82     3.798625     20.38578     960.3572        42     1.252     1.221  56.01   0
       116    313.3722    682.7224 300.0470633 +22.6523908     4975.446     72.27501      1.560     2.76     3.965945     20.38578     531.3977        36     1.294     1.195  65.27   0
       117     27.1467    681.1396 299.9586590 +22.5660253     1584.069     72.31181      1.764     3.79     3.943517     20.38578     132.9346        27     1.319     1.242  -1.82   0
       118    395.5275    680.7120 300.0732593 +22.6764643     1135.178     72.42207      1.446     2.50     3.949272     20.38578     152.1361        15     0.982     0.891  41.83   0
       119    271.4577    678.4812 300.0354129 +22.6385964     521.6669     72.29341      1.887     3.74     3.983243     20.38578     51.99099        10     1.102     0.725  42.40   0
       120    603.5985    676.3809 300.1393989 +22.7376334     695.1688     72.18295      1.410     2.87     4.034342     20.38578     84.65971        12     0.961     0.782 -40.73   0
       121    595.3778    668.4230 300.1394253 +22.7328836     3088.492     72.25661      1.444     2.69     4.076255     20.38578     330.7938        27     1.156     1.072 -33.23   0
       122    585.8160    662.2661 300.1384494 +22.7282487     1468.461      72.2382      1.445     2.85     4.097104     20.38578     154.7828        19     1.073     0.989  26.44   0
       123    979.1152    660.8546 300.2614185 +22.8457439     364.1402     72.33019      1.356     4.32     4.373644     20.38578     47.23697         7     0.740     0.720  -6.41   0
       124    496.7195    659.5712 300.1116009 +22.7007534     261.3336     72.27501      1.107     3.18     3.946954     20.38578     36.74405         5     0.716     0.486  10.31   0
       125    248.9166    658.2099 300.0349920 +22.6260171      703.685     72.20138      1.599     3.48     4.002294     20.38578     68.73441        13     1.003     0.940 -66.17   0
       126    263.0590    656.7960 300.0398464 +22.6298554     545.8514      72.2198      1.447     4.37     3.991241     20.38578      60.9209        10     1.015     0.759  40.30   0
       127    510.3219    651.9031 300.1183235 +22.7026323     1783.601     72.38533      1.542     2.79     3.999499     20.38578     209.0495        26     1.214     1.118  49.99   0
       128    320.0825    653.8148 300.0585391 +22.6461110     333.9591      72.2382      1.243     2.95     3.964818     20.38578      51.2528         5     0.640     0.587  76.04   0
       129    288.8528    653.6874 300.0488729 +22.6367038     526.5806     72.29341      1.507     3.14     3.970715     20.38578     70.32327         8     0.918     0.685  53.52   0
       130    609.5503    652.5743 300.1489846 +22.7325839     353.3864     72.27501      1.373     3.23      4.14881     20.38578     43.17615         7     0.820     0.668  78.79   0
       131    544.4800    651.7850 300.1289901 +22.7128432     223.2546      72.2382      1.048     2.20     4.114178     20.38578     43.39537         5     0.689     0.460 -67.55   0
       132    164.3932    646.8170 300.0124301 +22.5973826        19561     72.20138      1.675     3.04     4.060653     20.38578     2004.629        71     1.499     1.390  32.62   0
       133     85.5515    648.4274 299.9874189 +22.5741794     732.4313     72.27501      1.894     3.46     4.042799     20.38578     58.99607        12     0.959     0.885  45.87   0
       134    595.4288    647.4317 300.1462597 +22.7268729     1035.198     72.25661      1.691     3.19     4.166927     20.38578     95.67586        18     1.148     0.964  -7.28   0
       135    630.6676    646.4219 300.1575563 +22.7371500     352.4035     72.25661      1.450     3.29     4.178973     20.38578      52.9803         6     0.955     0.472 -55.82   0
       136    513.5771    644.4548 300.1217556 +22.7014708     264.4795     72.27501      1.283     4.24      4.03093     20.38578     36.07386         5     0.960     0.535  41.12   0
       137    679.0587    635.6908 300.1761071 +22.7485783     260.0528     72.33019      1.565     5.06     4.216795     20.38578     32.23397         7     1.071     0.675 -15.46   0
       138   1013.3071    633.6042 300.2809308 +22.8481590     971.2836      72.1461      1.606     3.46     4.518088     20.38578     85.20283        16     1.136     0.872  29.25   0
       139    110.3099    630.9236 300.0007926 +22.5765915     1585.449     72.40369      2.086     4.92     4.077518     20.38578     102.4358        29     1.657     1.135  85.79   0
       140    880.1631    631.3831 300.2401487 +22.8076237     470.0555     72.25661      1.508     5.67     4.007056     20.38578     43.15311        10     1.053     0.860 -83.16   0
       141    176.6825    631.6420 300.0211763 +22.5967184      477.817      72.2198      1.748     4.83     4.062749     20.38578     53.30898        10     1.284     0.775  42.28   0
       142    558.6939    627.8357 300.1411919 +22.7102311     463.4811     72.25661      1.417     3.43     4.229493     20.38578     59.74924         9     0.894     0.733   9.91   0
       143    952.5634    625.9387 300.2644827 +22.8277558     859.0381     72.27501      2.107     8.70     4.375356     20.38578     56.45123        20     2.102     1.006  17.53   0
       144    698.5023    624.2491 300.1858774 +22.7511222     281.2498     72.31181      1.281     4.61     4.253466     20.38578     44.54239         6     0.940     0.642 -19.57   0
       145    515.4523    620.1328 300.1302385 +22.6950518     769.0146     72.27501      1.556     2.83     4.090293     20.38578     94.43315        13     1.075     0.731  41.17   0
       146    663.0688    618.6148 300.1766748 +22.7388810     526.0856     72.27501      1.476     2.82     4.295316     20.38578     58.21495        10     0.975     0.631  57.07   0
       147    710.5823    617.4462 300.1918484 +22.7527902     491.5251     72.29341      1.412     3.81     4.276408     20.38578     48.47094        10     0.966     0.817  87.73   0
       148    681.4731    616.9545 300.1829442 +22.7439221     429.0022     72.25661      1.324     2.93     4.298139     20.38578     62.89713         9     0.892     0.677  24.56   0
       149    559.8876    616.0987 300.1453753 +22.7072197     929.4257     72.42207      1.512     2.83     4.282107     20.38578     119.2151        15     1.072     0.912  56.18   0
       150    746.9856    615.3646 300.2038614 +22.7631053     270.7907     72.25661      1.214     3.68     4.219894     20.38578     36.79982         6     0.841     0.614 -39.97   0
       151    993.5180    611.4230 300.2819651 +22.8358561     3328.332      72.2198      1.631     3.22     4.458761     20.38578     305.6118        30     1.297     1.174  10.38   0
       152    525.2195    611.3727 300.1361224 +22.6954664     1720.329     72.25661      1.404     2.56     4.172674     20.38578      203.678        21     1.122     0.991 -59.26   0
       153    890.3704    609.0251 300.2505913 +22.8042597     202.7014     72.25661      1.204     3.97     4.165533     20.38578     39.78397         6     0.934     0.520 -15.37   0
       154     87.1527    605.0198 300.0020128 +22.5622118     5024.372     72.29341      1.692     3.11     4.067596     20.38578     477.7796        40     1.409     1.304  55.93   0
       155    553.9915    602.2839 300.1480269 +22.7014856     196.1649     72.20138      1.262     5.70     4.325163     20.38578     35.40814         8     0.999     0.917  -7.36   0
       156    388.6151    598.1229 300.0979338 +22.6506910     9009.788     72.27501      1.463     2.65     3.904474     20.38578     1006.136        43     1.276     1.188  65.78   0
       157    511.0383    595.1769 300.1369697 +22.6865643      8924.37     72.27501      1.412     2.57     4.111894     20.38578     983.6435        49     1.289     1.215  85.44   0
       158    757.5388    591.9924 300.2147387 +22.7595560     317.4862      72.2382      1.422     3.74      4.23808     20.38578     33.87401         6     0.805     0.498 -87.29   0
       159   1007.3892    586.5886 300.2943555 +22.8328754     12275.46      72.1461      1.651     3.14     4.496101     20.38578     1157.814        53     1.380     1.327  85.10   0
       160    922.6964    589.2346 300.2670935 +22.8082605     1795.901     72.25661      1.522     2.83     4.270826     20.38578     171.0614        21     1.078     1.015 -72.52   0
       161    571.6157    584.7761 300.1591970 +22.7017441     11566.92     72.25661      1.438     2.53      4.42219     20.38578     1470.049        49     1.262     1.181  53.31   0
       162    299.1955    580.2445 300.0759385 +22.6187353     1377.874     72.25661      1.475     3.03     3.946952     20.38578     131.1282        20     1.138     1.044  33.25   0
       163    741.1216    580.9062 300.2132256 +22.7514509     358.4356     72.38533      1.266     2.21     4.324709     20.38578     72.38385         8     0.745     0.664  49.10   0
       164    457.1739    579.4703 300.1253131 +22.6659014     254.1043     72.25661      1.110     2.80     3.921148     20.38578     50.76085         5     0.754     0.447 -21.47   0
       165    545.6479    578.2022 300.1532507 +22.6920701     403.7072      72.2382      1.588     4.60     4.347158     20.38578     41.86662         9     1.029     0.645  -8.94   0
       166      1.4598    577.3377 299.9843942 +22.5285509     1054.699     57.03358      1.083     2.54     3.915945     20.38578     211.8374        12     1.038     0.618  77.28  24
       167    503.2805    572.9169 300.1417843 +22.6778477     4366.848     72.40369      1.423     2.61     4.097503     20.38578     486.4438        35     1.260     1.101  50.37   0
       168    846.2449    572.9408 300.2485596 +22.7806697     711.8154     72.27501      1.339     3.85     4.032232     20.38578     86.72244        12     1.026     0.812 -81.57   0
       169    481.4886    571.4491 300.1354813 +22.6708911     1151.815     72.25661      1.424     2.67     3.969142     20.38578     133.5451        18     1.076     0.938  25.10   0
       170    923.1449    568.6200 300.2739277 +22.8024717     1614.183      72.2382      1.648     3.06     4.136115     20.38578     143.0123        23     1.178     1.106 -83.50   0
       171    236.2153    570.8485 300.0594152 +22.5971435     742.6689     72.29341      1.540     3.81     3.983595     20.38578     77.22245        14     1.299     0.717 -19.74   0
       172    619.9362    560.5333 300.1821085 +22.7092713     198156.7     72.31181      1.432     2.53     4.685591     20.38578      24103.7       210     1.510     1.494  15.22   0
       173    803.5806    565.5988 300.2376513 +22.7657745     656.0995     72.18295      1.263     2.37     4.183521     20.38578     89.55488        12     0.844     0.824 -10.59   0
       174    443.7746    566.6332 300.1253135 +22.6581979     269.8949     72.27501      1.234     2.93     3.903307     20.38578     37.37469         5     0.712     0.466  13.01   0
       175    306.0128    560.4402 300.0844879 +22.6150978     3342.224     72.25661      1.510     2.79     3.931477     20.38578     325.2623        28     1.189     1.114  -1.18   0
       176    871.9681    557.8405 300.2614784 +22.7840398     662.2465     72.31181      2.135     6.82      3.98668     20.38578     52.92933        11     2.035     0.641  78.60   0
       177    890.6527    554.5759 300.2683611 +22.7887006     239.6342     72.27501      1.247     3.45     4.005452     20.38578     37.09884         5     0.767     0.449  19.35   0
       178    510.5455    540.8207 300.1544657 +22.6708120     2665.381     72.25661      1.463     2.55     4.196296     20.38578     292.9055        26     1.195     1.009 -84.22   2
       179    355.0465    543.2324 300.1053186 +22.6248685     507.9243     72.29341      1.290     2.87     3.900284     20.38578     75.06942         9     0.944     0.624 -54.19   0
       180    922.0679    537.5585 300.2836777 +22.7932236     458.8087      72.2382      1.551     3.65     3.981011     20.38578     48.03485         7     0.892     0.573 -80.82   0
       181    828.2315    529.3807 300.2570908 +22.7627570     310.4916     72.25661      1.237     4.56     4.210777     20.38578     59.77655         9     1.217     0.779  -4.88   0
       182    907.5157    527.1136 300.2825332 +22.7858622     1676.247     72.38533      1.459     2.91     4.009391     20.38578     187.8371        19     1.094     0.965 -35.29   0
       183     37.6088    525.5987 300.0124139 +22.5245636     802.5173     72.07233      1.743     4.35     3.977168     20.38578      69.4968        13     1.156     0.905 -73.58   0
       184    778.7837    524.7258 300.2431976 +22.7466014     2563.223     72.25661      1.397     2.51       4.3759     20.38578     329.8117        28     1.135     1.109 -27.08   0
       185    138.6071    525.1484 300.0439258 +22.5547444     187.1446     72.25661      1.306     5.00     4.006167     20.38578     28.48968         5     0.999     0.710 -17.05   0
       186   1022.8823    521.9919 300.3201616 +22.8189512     440.1541     60.45201      1.357     4.84     4.486675     20.38578     51.57975         8     1.005     0.721 -11.53  27
       187   1021.5069    518.0325 300.3210182 +22.8174012      670.382     66.84548      1.638     3.74     4.447186     20.38578     63.65546        13     1.086     0.863 -80.48  18
       188    987.7311    521.3342 300.3094148 +22.8082327     200.4246     72.31181      1.165     3.83     4.294411     20.38578     39.27709         6     1.034     0.408  14.46   0
       189    683.7599    520.9279 300.2148370 +22.7170301     518.0876      72.2382      1.596     2.85     4.534171     20.38578      47.2777         6     0.750     0.545  48.55   0
       190    566.0969    520.6072 300.1783140 +22.6816648     771.6827      72.1461      1.483     2.59     4.477923     20.38578     94.66622        12     0.896     0.822 -84.73   0
       191    907.7128    517.1887 300.2858169 +22.7830692     2303.568     72.20138      1.678     3.63     4.028798     20.38578     248.3293        30     1.536     1.039  72.59   0
       192    661.3133    515.4590 300.2096236 +22.7087310     740.7496     72.34857      2.101     3.43     4.598472     20.38578     64.95493        10     1.107     0.593  84.12   2
       193    447.2220    515.6580 300.1429354 +22.6445991     267.9547     72.25661      1.269     4.16      4.02249     20.38578     33.64463         6     0.749     0.660  86.13   0
       194    945.9454    512.1893 300.2993570 +22.7930867     4203.565     72.25661      1.472     2.71     4.063197     20.38578     423.5799        31     1.228     1.097 -76.50   0
       195    499.8317    514.1500 300.1597909 +22.6599422     408.8018     72.29341      1.328     2.58     4.217235     20.38578     59.79912         6     0.735     0.531 -22.57   0
       196    177.9394    502.4424 300.0635150 +22.5600320     944.2333      72.2382      1.525     3.37     4.050466     20.38578     103.0749        18     1.223     0.884  19.56   0
       197    838.8714    496.5119 300.2710765 +22.7565015     211.0366     72.42207      1.197     4.09     4.282976     20.38578     46.39749         6     0.994     0.489  -6.98   0
       198    170.6775    492.7514 300.0644044 +22.5550727     416.2081     72.25661      1.478     4.15     4.070045     20.38578     49.61941         6     0.743     0.661 -34.54   0
       199    778.5475    486.6889 300.2554719 +22.7356031     526.7902     72.27501      1.360     2.99     4.464444     20.38578     56.25579         7     0.922     0.476 -79.48   0
       200    386.9087    484.7784 300.1342011 +22.6176470       304.42     72.18295      1.378     5.22     3.968261     20.38578     41.67412         9     1.092     0.706 -82.59   0
       201    666.6830    483.9440 300.2215257 +22.7012887     282.8983     72.33019      1.282     2.41     4.730002     20.38578     42.25087         7     0.698     0.661  70.90   0
       202    719.3724    482.7037 300.2383349 +22.7167244     735.0096     72.18295      1.417     2.61     4.648252     20.38578     85.27923        12     0.904     0.813 -26.55   0
       203    780.2888    474.8524 300.2598564 +22.7327241     812.4385     72.27501      1.362     2.66     4.469133     20.38578     114.6925        11     0.938     0.742 -42.80   0
       204    937.5162    470.9826 300.3101059 +22.7787188     975.7065      72.2198      1.508     4.30     3.999298     20.38578     104.9586        19     1.303     1.039 -78.79   0
       205    921.9861    467.3152 300.3064555 +22.7730126     620.8132     72.20138      1.397     2.97     4.012051     20.38578     70.78677        11     0.858     0.851   2.47   0
       206    665.9548    465.3949 300.2273197 +22.6957425     3198.712     72.25661      1.392     2.57      4.65298     20.38578     401.2905        25     1.128     0.999  64.87   0
       207    996.0815    459.2519 300.3321715 +22.7928895     1286.844     72.29341      0.635     1.32      4.00913     20.38578     632.4415         7     0.563     0.362 -84.83   0
       208    141.9767    456.8369 300.0671445 +22.5361570     336.0172     72.27501      1.459     4.55     4.043401     20.38578     33.22147         6     0.839     0.701   1.60   0
       209    505.9354    452.6740 300.1816441 +22.6441206     364.0034     72.29341      1.425     4.29     4.316737     20.38578     42.55976         7     0.900     0.582 -27.85   0
       210    949.3728    444.3867 300.3224341 +22.7746262     514.5242     72.25661      1.361     2.95     3.956346     20.38578     65.87594        10     0.894     0.802  59.62   0
       211    776.7194    439.5257 300.2702103 +22.7215045       1025.8     72.36695      1.410     2.62     4.436565     20.38578     124.2205        16     1.006     0.894  22.97   0
       212    572.6105    440.1807 300.2064463 +22.6605211     452.3597     72.21979      1.370     2.97      4.33365     20.38578     64.76692         7     0.916     0.506 -26.48   0
       213    280.5222    437.8322 300.1163621 +22.5722644     633.7578      72.2382      1.454     3.15     4.016556     20.38578     82.32421        15     1.094     0.875  78.17   0
       214    342.9024    433.2917 300.1372275 +22.5896699     3737.527     72.44042      1.434     2.66     4.213534     20.38578     400.3271        30     1.188     1.092  45.71   0
       215    290.1407    428.0440 300.1225281 +22.5723398     7723.567     72.27501      1.465     2.77     4.033715     20.38578     810.2904        40     1.257     1.148  69.92   0
       216    430.8884    422.3099 300.1681522 +22.6129011     4780.268     72.42207      1.393     2.51     4.302525     20.38578     540.1074        30     1.151     1.061  62.87   0
       217    675.0690    419.0080 300.2452117 +22.6851488     18446.16      72.2382      1.382     2.45     4.420834     20.38578      2355.69        67     1.381     1.241  45.01   0
       218    522.4740    420.7859 300.1971383 +22.6399216     214.4029     72.27501      1.217     2.76     4.319698     20.38578     42.85161         5     0.725     0.481 -75.61   0
       219    692.5492    419.0730 300.2506335 +22.6904060     812.0792     72.27501      1.794     5.64     4.419382     20.38578     88.23905        20     1.556     0.981 -37.50   0
       220    668.4896    427.4251 300.2404317 +22.6855951     336.9944     72.20138      1.485     3.80     4.454978     20.38578     38.17624         6     0.953     0.435  73.07   0
       221    872.0992    409.7491 300.3095903 +22.7415234     355.2197     72.34857      1.207     3.69     3.963069     20.38578     52.75461         9     0.992     0.626 -54.81   0
       222    295.4988    406.3331 300.1312385 +22.5677148     486.1652     72.34857      1.611     4.14      4.13547     20.38578     44.63085         6     1.015     0.483  35.19   0
       223   1008.6417    401.7200 300.3547591 +22.7801121     777.2429      72.2382      1.649     3.36     3.829545     20.38578     82.15737        15     1.133     0.898 -84.95   0
       224    545.5588    400.8323 300.2107963 +22.6411110      304.337     72.31181      1.620     3.42     4.322926     20.38578     34.04806         5     0.746     0.455  70.27   0
       225    229.8035    399.2293 300.1131251 +22.5459722     2031.138     72.21979      1.487     3.07     4.150832     20.38578     220.1898        24     1.226     1.085  38.37   0
       226    615.8369    388.4529 300.2366860 +22.6586197     6536.463     72.27501      1.365     2.35     4.216088     20.38578     869.3802        39     1.236     1.132  73.13   0
       227    330.5427    387.8372 300.1481337 +22.5729146     584.0498     72.25661      1.483     3.44     4.321749     20.38578     71.86492        11     1.024     0.812 -27.68   0
       228    875.4033    380.9386 300.3199685 +22.7342324     431.2853      72.2382      1.665     4.53     3.936038     20.38578     48.80503         7     1.126     0.653 -43.72   0
       229    188.3754    381.1972 300.1061024 +22.5283707     606.2099     72.20138      1.647     3.49     4.098244     20.38578     59.03966        11     0.984     0.885  16.04   0
       230     35.6622    378.7130 300.0594758 +22.4818442     1149.742     72.34857      1.573     2.93     4.308128     20.38578     144.2808        21     1.233     1.079 -23.60   0
       231    819.9382    377.4984 300.3038019 +22.7166287     1366.414     72.34857      1.552     2.92     4.051055     20.38578     151.9867        21     1.217     1.011 -78.86   0
       232    729.4672    378.5885 300.2752666 +22.6898368      485.015     72.25661      1.189     2.23     4.019448     20.38578     82.10098         8     0.742     0.726  80.34   0
       233      4.4191    376.3700 300.0505357 +22.4717975     1394.525     70.16502      2.042     5.51      4.44671     20.38578     95.37339        28     1.720     1.149 -56.38  16
       234    522.4391    374.7449 300.2120663 +22.6266882     6140.775     72.25661      1.363     2.37     4.322491     20.38578     725.9402        35     1.164     1.084  83.96   0
       235   1011.8062    369.3852 300.3662377 +22.7717631     564.4254     72.16453      1.519     3.50     3.828377     20.38578     61.90532        12     1.019     0.910  -0.38   0
       236    914.4507    369.2433 300.3359328 +22.7425663     1328.432     72.29341      1.408     2.49     3.913938     20.38578     147.5606        16     0.993     0.914  17.96   0
       237    507.1707    363.8212 300.2108596 +22.6189741     411.0392     72.25661      1.343     3.18     4.322745     20.38578     61.89566        10     1.020     0.644  72.82   0
       238     12.5882    363.1227 300.0573692 +22.4704481     341.1562     72.25661      1.780     6.25     4.454198     20.38578     42.82427         8     1.361     0.807  51.42   0
       239    589.5515    361.3509 300.2372973 +22.6429564     404.6531     72.29341      1.290     2.52     4.214354     20.38578     59.73431         7     0.785     0.623  25.02   0
       240     33.8656    360.0435 300.0649743 +22.4759487     1060.822      72.2382      1.506     3.50      4.36472     20.38578     101.7253        20     1.225     1.009  52.42   0
       241    867.5150    359.9007 300.3243360 +22.7258226      279.359     72.42207      1.393     5.10     3.919465     20.38578     36.80523         6     1.172     0.628 -62.74   0
       242    887.0081    356.9142 300.3313798 +22.7308028     554.4696     72.18295      1.292     2.89     3.913034     20.38578     88.59294        10     0.935     0.727  86.78   0
       243    410.0223    353.9765 300.1838332 +22.5870237     2557.143     72.21979      1.457     2.60     4.360761     20.38578       298.29        25     1.143     1.038  57.70   0
       244    128.3058    351.4944 300.0970768 +22.5018277     1040.538     72.42207      1.639     2.93     4.067498     20.38578     101.4151        16     1.016     0.954  89.32   0
       245    758.2033    348.3377 300.2940311 +22.6897536     297.8205     72.25661      1.662     5.35     3.803769     20.38578      37.3909         6     1.082     0.747 -40.66   0
       246    379.3228    343.3766 300.1777247 +22.5747759      29366.2     72.25661      1.406     2.49     4.388033     20.38578      3111.38        74     1.363     1.223  61.70   0
       247    913.9757    340.9384 300.3449677 +22.7342873     1319.614     72.25661      1.424     2.64     3.898901     20.38578     177.9941        19     1.124     0.926  59.45   0
       248     75.5911    331.1456 300.0873047 +22.4801748     4907.884     72.25661      1.627     3.00     4.248789     20.38578     475.7032        44     1.449     1.268  34.70   0
       249    253.7060    330.0543 300.1429943 +22.5332847     352.5135     72.31181      1.315     3.53     4.422772     20.38578     58.13332         9     1.070     0.612  40.07   0
       250    829.1061    329.8758 300.3221083 +22.7056875     515.5706     72.40369      1.374     3.28     3.909865     20.38578     64.81828         9     0.930     0.747 -52.53   0
       251    477.9730    328.5391 300.2132210 +22.6000885      552.382     72.25661      1.446     3.31     4.363265     20.38578     61.82405        10     0.985     0.657 -63.41   0
       252    789.6972    323.1221 300.3120213 +22.6919415     1944.054     72.38533      1.424     2.43      3.87992     20.38578     235.5856        23     1.115     1.025 -35.82   0
       253    597.7961    317.7123 300.2540196 +22.6328907     335.9456     72.18295      1.206     3.07     4.321039     20.38578     49.98517         5     0.745     0.435  12.03   0
       254   1004.9489    316.0945 300.3813879 +22.7543867     474.6704     72.33019      1.279     3.15     3.840614     20.38578     59.83328        11     0.996     0.706  -2.36   0
       255    451.4535    307.7933 300.2117003 +22.5861808     2076.113     72.25661      1.567     2.90      4.38622     20.38578     246.5351        21     1.254     0.883  75.54   0
       256    663.7023    306.9833 300.2780167 +22.6495566     368.1387     72.18295      1.262     2.94     3.837523     20.38578     47.91351         7     0.717     0.675 -79.50   0
       257    890.8097    300.5284 300.3508557 +22.7157320     634.4591      72.2382      1.421     3.10       3.8897     20.38578     78.25386        12     1.073     0.719  75.45   0
       258     23.4678    298.7473 300.0816271 +22.4552414     841.5734     72.27501      1.977     7.37     4.422685     20.38578     57.90312        17     2.066     0.736 -33.24   0
       259    773.2617    298.2006 300.3149851 +22.6798553     421.8758      72.2198      1.202     3.07     3.828899     20.38578     54.66266         9     0.874     0.694 -21.13   0
       260    527.4115    287.0003 300.2420760 +22.6029746     1037.553     72.07233      1.307     2.68     4.435087     20.38578     130.5024        17     1.062     0.846  72.47   0
       261    334.3171    287.1693 300.1819615 +22.5451428     318.9364     72.27501      1.343     5.35     4.405905     20.38578      34.0262         7     1.245     0.649  80.22   0
       262    612.4235    285.1299 300.2691405 +22.6279125     301.2315     72.27501      1.259     2.86     4.409398     20.38578     37.01912         5     0.728     0.452  69.60   0
       263    772.3617    278.9408 300.3209513 +22.6740499      2242.91     72.27501      1.410     2.60     3.811173     20.38578     261.6049        26     1.119     1.088 -67.73   0
       264      5.3625    264.3522 300.0871596 +22.4399401     72270.02     72.16453      1.732     3.13     4.844128     20.38578     7161.675       117     1.661     1.465  55.90  24
       265    480.7035    262.6235 300.2354487 +22.5819735     634.9708     72.18295      1.340     3.33     4.428537     20.38578     83.93679        12     1.051     0.810  61.69   0
       266    155.4224    256.8607 300.1361919 +22.4827991     1308.571     72.21979      1.700     4.09     4.438812     20.38578     121.8958        24     1.335     1.172 -33.06   0
       267    186.1326    256.9988 300.1456884 +22.4920483     638.7224     72.21979      1.482     3.71     4.467947     20.38578     71.55842        10     0.935     0.751 -50.39   0
       268    239.6178    248.9850 300.1649071 +22.5057856     586.5143      72.2382      1.438     2.75     4.510602     20.38578     66.54008         7     0.703     0.681  55.48   0
       269     95.3694    246.1173 300.1210215 +22.4617048     384.8195     72.25661      1.946     2.98     4.515969     20.38578     37.28959         5     0.744     0.435  69.68   0
       270    915.5707    242.6632 300.3773397 +22.7065095     295.5952     72.27501      1.322     2.98     3.893368     20.38578     49.44033         6     0.837     0.507 -42.84   0
       271    843.8129    240.4974 300.3556789 +22.6843989     547.1118      72.1461      1.238     3.48     3.863654     20.38578     68.17368         7     0.925     0.497   3.88   0
       272    434.2075    239.9118 300.2283496 +22.5615141     480.7257     72.16453      1.519     3.33     4.385345     20.38578     57.31396         8     0.857     0.728  15.05   0
       273    942.0073    229.5559 300.3898307 +22.7106560      2132.82     72.27501      1.491     2.66     3.891317     20.38578     250.5117        27     1.224     1.066  45.30   0
       274    360.4908    226.8620 300.2096553 +22.5356702     2030.522     72.34857      1.353     2.66     4.312038     20.38578     251.8688        19     1.073     0.906  49.50   0
       275    438.5882    221.8822 300.2355581 +22.5576480     949.7924     72.21979      1.415     3.02     4.389178     20.38578     105.1291        16     1.072     0.924 -30.74   0
       276    840.6607    221.1624 300.3609662 +22.6778959     609.5004     72.27501      1.493     4.14     3.866938     20.38578     53.39255        11     0.936     0.840  60.28   0
       277    190.2224    222.4246 300.1581693 +22.4833488     397.9373      72.2198      1.475     4.02     4.550942     20.38578     49.43373         8     0.928     0.656  12.21   0
       278    946.8426    218.0151 300.3950802 +22.7087848     322.4501     72.27501      1.253     2.65     3.950672     20.38578     42.92628         5     0.782     0.485  36.87   0
       279    255.4505    214.1217 300.1811315 +22.5005223     821.8574     72.25661      1.649     3.09     4.519452     20.38578     82.69526        14     1.022     0.887  10.97   0
       280     36.0168    215.0068 300.1126763 +22.4349739     396.7887     72.20138      1.848     4.77     5.183851     20.38578     34.45386         6     0.934     0.690  39.30   0
       281    373.5796    213.2679 300.2181328 +22.5356891     168.4841     72.25661      0.973     3.43     4.343776     20.38578      31.0967         5     0.740     0.459 -71.83   0
       282    793.0862    210.8241 300.3494958 +22.6606763     1612.352      72.2198      1.390     2.73     3.797392     20.38578     216.8381        21     1.159     0.949  44.01   0
       283    858.0906    210.4227 300.3698797 +22.6800275     601.7341     72.18295      1.504     2.96     3.987064     20.38578     86.75529        12     1.084     0.708  78.34   0
       284    276.7513    207.0010 300.1900607 +22.5048635     520.6032      72.2382      1.463     3.21     4.493486     20.38578     69.49609        13     1.050     0.827  71.27   0
       285    797.0195    201.9871 300.3535863 +22.6593137      783.358     72.21979      1.556     5.31     3.826951     20.38578     90.64852        13     1.441     0.747  79.47   0
       286    566.7609    203.0560 300.2815414 +22.5906476     255.8309     72.25661      1.185     4.08     4.444041     20.38578     42.28861         6     1.058     0.450 -62.39   0
       287    717.5666    201.5058 300.3289940 +22.6353791     1212.026      72.2198      1.357     2.49     3.912311     20.38578     156.8828        15     0.990     0.849  67.48   0
       288    538.8557    197.7070 300.2745912 +22.5807495     476.3791     72.31181      1.662     4.36     4.422933     20.38578      37.6903         6     0.981     0.552  65.10   0
       289    913.0372    193.2126 300.3925840 +22.6915309     1398.045      72.2382      1.350     2.74     4.134554     20.38578     169.0209        20     1.142     0.942 -61.27   0
       290    643.9824    193.4516 300.3086925 +22.6110224     933.1417      72.2382      1.385     2.88     4.233606     20.38578     117.1796        10     0.968     0.647 -69.98   0
       291    925.3359    192.2953 300.3967150 +22.6949493     772.5634     72.34857      1.523     3.44     4.142436     20.38578      95.4762        16     1.071     1.019 -17.38   0
       292     65.5772    179.3038 300.1334294 +22.4335918     361.6324     72.16453      1.369     3.11     4.920502     20.38578     45.20748         7     0.878     0.556 -35.05   0
       293    276.0757    175.3891 300.2000985 +22.4955828     770.0734     72.27501      1.425     3.26     4.487054     20.38578     93.34603        15     1.130     0.914 -25.18   0
       294    609.6508    172.1083 300.3049239 +22.5946036     838.6746     72.29341      0.670     1.20      4.45893     20.38578     385.1722         5     0.597     0.329  30.41   0
       295    137.8521    170.4144 300.1587593 +22.4527133     2028.961     72.29341      1.510     2.73     4.578151     20.38578     228.9667        24     1.119     1.072 -51.48   0
       296    960.9647    167.2407 300.4159442 +22.6984099     882.2383     72.31181      1.874     3.06     4.436008     20.38578     77.68886        13     0.954     0.935 -79.44   0
       297    295.2198    163.6187 300.2098647 +22.4979411     5607.938     72.25661      1.465     2.60     4.464213     20.38578     621.4798        40     1.309     1.172  72.27   0
       298     87.1955    167.2865 300.1440386 +22.4366252     443.8423     72.18295      1.334     4.25     4.738885     20.38578     55.95156         7     0.984     0.620 -18.69   0
       299    277.2157    164.5025 300.2039817 +22.4927980     319.6192     72.16453      1.048     2.90     4.483358     20.38578     58.71356         7     0.884     0.585 -72.75   0
       300     79.2216    157.7513 300.1446526 +22.4314967     1261.836     72.25661      1.530     3.02     4.832437     20.38578     168.2397        20     1.190     1.085  49.60   0
       301    278.5878    154.6404 300.2076048 +22.4903769     632.4316     72.25661      1.468     3.03     4.479527     20.38578     72.31198        10     0.954     0.696  -1.76   0
       302    939.3366    145.2710 300.4163235 +22.6856164     3396.745     72.29341      1.492     2.68     4.405303     20.38578     362.3066        31     1.225     1.107 -65.94   0
       303    489.0063    140.4903 300.2776274 +22.5493726     497.1665     72.16453      1.266     2.29     4.424844     20.38578     87.38006        10     0.885     0.667  59.05   0
       304    241.9571    141.0489 300.2006246 +22.4754929     363.1924     72.29341      1.471     4.97     4.526993     20.38578      32.1945         8     1.013     0.689  64.35   0
       305    412.8208    132.2933 300.2565849 +22.5241889     719.8419     72.18295      1.581     4.36     4.428309     20.38578     59.61982        10     1.207     0.697 -80.39   0
       306    540.1221    127.8631 300.2976252 +22.5610586      1589.36     72.33019      1.348     2.47     4.366549     20.38578     231.7283        19     1.036     0.900  57.04   0
       307    178.6331    129.0903 300.1848226 +22.4530751     600.8641     72.21979      1.550     4.02     4.542723     20.38578     76.40165        11     1.171     0.804  36.09   0
       308    468.1474    128.0173 300.2751806 +22.5395388     510.3641      72.2382      1.581     2.57     4.430723     20.38578     60.43054         8     0.777     0.654  49.32   0
       309    601.5174    126.9986 300.3170137 +22.5792022     371.3659      72.1461      1.354     3.74     4.376954     20.38578     42.44215         6     0.808     0.497  85.67   0
       310    283.6834    122.8860 300.2194804 +22.4827840      361.604     72.36695      1.358     3.32     4.472418     20.38578     54.13412         5     0.781     0.410  70.65   0
       311    828.4785    117.0302 300.3909271 +22.6443058     376.1237     72.25661      1.598     3.93     4.212858     20.38578     38.07686         7     0.937     0.587  38.17   0
       312    974.9896    112.1685 300.4381677 +22.6867667     249.2679     72.25661      1.275     3.57     4.547123     20.38578     39.55406         5     1.091     0.337  -9.01   0
       313    314.1483    107.5583 300.2339183 +22.4875123     5766.005     72.25661      1.470     2.64     4.461608     20.38578     635.5919        38     1.242     1.183  76.66   0
       314    820.6132    108.1722 300.3913473 +22.6394036     454.9838     72.25661      1.306     3.11     4.205262     20.38578     51.46223         6     0.735     0.626  17.06   0
       315    165.3607    107.1766 300.1878004 +22.4428034     645.1442     72.29341      1.478     2.95     4.541225     20.38578     78.89565        10     1.023     0.653  11.15   0
       316    943.5275    105.0311 300.4306723 +22.6752964     269.1674     72.25661      1.259     3.72     4.421868     20.38578     40.60587         6     0.974     0.620  32.84   0
       317      9.0447    104.2861 300.1401881 +22.3951039     651.9321      72.2382      1.466     3.49     5.338589     20.38578     77.58308        12     1.028     0.864  87.50   0
       318    286.1042    101.4725 300.2271723 +22.4773590     345.6825     72.38533      1.259     2.48     4.469747     20.38578     50.12513         5     0.724     0.449  22.57   0
       319    789.8253     98.9655 300.3847389 +22.6275378     230.3226     72.27501      1.339     4.19     4.192145     20.38578     32.99902         5     1.016     0.531  57.58   0
       320    329.5241     98.7968 300.2415378 +22.4896036     384.3202     72.16453      1.237     3.24     4.459916     20.38578     52.55373         9     0.930     0.696  56.70   0
       321     75.8810     97.8060 300.1630421 +22.4132852     392.6804     72.18295      1.626     3.56      5.08786     20.38578     41.89171         5     1.097     0.334 -11.73   0
       322    560.2811     92.9430 300.3152157 +22.5570615     6182.039     72.29341      1.422     2.51     4.294816     20.38578     720.5984        39     1.253     1.099  73.44   0
       323    445.4835     92.7143 300.2795710 +22.5226041     673.7559     72.36695      1.538     3.88     4.427387     20.38578     84.29452        11     1.129     0.836  69.38   0
       324    616.9664     87.3030 300.3346873 +22.5724196     374.8606      72.2382      2.125     2.97     4.293868     20.38578     55.73481         5     0.999     0.515  43.29   0
       325    754.5823     84.0192 300.3786040 +22.6126875     325.1699     72.25661      1.555     4.14     4.376713     20.38578     34.99675         5     0.777     0.630  -3.11   0
       326    812.7455     82.6910 300.3971537 +22.6297202      726.629     72.31181      1.462     3.41     4.333639     20.38578     84.53666        14     1.030     0.985  69.25   0
       327    904.8619     81.5131 300.4262412 +22.6569578     409.1454     72.34857      1.414     4.29     4.370109     20.38578     58.23009         7     0.977     0.538  54.53   0
       328    253.3745     76.6001 300.2250585 +22.4604048     586.1855     72.20138      1.636     4.65     4.483498     20.38578     54.92135        10     1.175     0.735 -63.26   0
       329    611.8620     75.6619 300.3368705 +22.5675444     413.3941     72.29341      1.179     3.29       4.2696     20.38578      56.5089         7     0.843     0.596 -30.82   0
       330    688.6859     73.0154 300.3616469 +22.5897912     6247.134     72.20138      1.441     2.51     4.394345     20.38578     717.8992        41     1.265     1.194 -84.11   0
       331    463.5982     71.9377 300.2919385 +22.5220610     1394.488      72.2382      1.382     2.73     4.314993     20.38578     173.3415        17     1.007     0.890 -89.46   0
       332    729.7225     70.4325 300.3752636 +22.6013369      837.841      72.2382      1.412     2.67     4.475694     20.38578     102.6057        13     0.930     0.845 -51.65   0
       333    799.4668     68.0964 300.3977459 +22.6215475     303.5566     72.38533      1.356     3.49     4.460779     20.38578     45.67796         6     0.832     0.605  53.08   0
       334    745.5339     66.7103 300.3813944 +22.6050010     525.1754     72.38533      1.401     3.63     4.499972     20.38578     66.27878        11     1.077     0.810  39.44   0
       335    212.1062     63.9919 300.2163182 +22.4444140     706.3914     72.16453      1.736     4.61     4.483225     20.38578     61.60284        14     1.301     0.891 -88.78   0
       336     59.1224     64.9770 300.1684746 +22.3988347     289.8518      72.2382      1.301     3.33     5.084748     20.38578     40.13475         5     0.958     0.383 -29.34   0
       337   1015.6543     63.7934 300.4665242 +22.6850198     640.5042     72.25661      1.684     4.06     4.452778     20.38578     65.06229        12     1.227     0.962 -72.61  16
       338    784.3773     61.8837 300.3950580 +22.6152432     436.9543     72.21979      1.353     2.78      4.52315     20.38578     63.55622         9     0.950     0.671  10.19   0
       339    732.8660     57.9231 300.3802960 +22.5986812     2753.155     72.34857      1.474     2.60     4.548284     20.38578     325.6725        29     1.249     1.093  78.93   0
       340    373.8697     58.6417 300.2683380 +22.4913561     453.3425     72.21979      1.586     3.82     4.468525     20.38578     45.24958         7     0.855     0.682 -70.85   0
       341    747.9602     56.8895 300.3853322 +22.6029035     949.5045     72.25661      1.716     4.65     4.563875     20.38578     74.53233        17     1.499     0.779  44.68   0
       342     26.5053     52.0025 300.1625497 +22.3853298     846.1763     72.16453      1.671     4.30     5.090916     20.38578     79.23293        14     1.252     0.858  23.95   0
       343    819.2904     49.4032 300.4099791 +22.6221062     1577.342     72.16453      1.485     2.68     4.639587     20.38578     176.2417        20     1.122     0.986  79.39   0
       344    979.5989     47.5036 300.4605599 +22.6695430     272.7177     72.16453      1.381     4.19     4.296672     20.38578     31.04128         5     1.024     0.490  89.46   0
       345    756.8793     42.4459 300.3927902 +22.6014204     600.9598     72.25661      1.406     5.23     4.671065     20.38578     70.13088        15     1.374     0.902  53.73   0
       346    562.8881     41.9886 300.3325373 +22.5431964     1110.814     72.20138      1.430     2.98     4.086073     20.38578     128.5576        17     1.062     0.957  31.44   0
       347    136.0132     41.9732 300.1998096 +22.4152810     681.7272     72.25661      1.894     4.31     4.668976     20.38578     59.62816        11     1.097     0.904  41.73   0
       348    466.8085     39.9479 300.3033020 +22.5138295     734.7499     72.25661      1.314     2.66     4.142214     20.38578     96.85142        11     0.875     0.777  65.41   0
       349    848.6363     38.9310 300.4225161 +22.6278790     393.0073     72.25661      1.510     3.60      4.68929     20.38578     48.17121         7     0.909     0.634  31.25   0
       350    806.0798     30.6254 300.4119470 +22.6127507     593.3373      72.2382      1.315     3.10     4.818839     20.38578     85.69318         9     0.988     0.823 -34.45   0
       351    357.5645     30.9555 300.2722375 +22.4785155      1006.16     72.31181      0.652     0.69     4.480387     20.38578     477.5274         6     0.558     0.397 -13.31   0
       352    238.1382     30.0934 300.2353905 +22.4424795     3802.757     72.34857      1.539     2.75     4.424296     20.38578     369.3319        30     1.262     1.132  29.19   0
       353     30.0690     30.3691 300.1706645 +22.3801870       362.66      72.2382      1.713     4.51     5.008076     20.38578     32.46735         8     1.196     0.483   0.15   0
       354    660.1548     26.7155 300.3677641 +22.5679354     406.7211      72.2382      1.474     4.45     4.443754     20.38578     42.52212         7     0.900     0.627 -78.27   0
       355    564.1828     26.8135 300.3378566 +22.5392219     385.8525     72.21979      1.852     4.56     4.027405     20.38578     29.59766         6     1.207     0.490 -28.81   0
       356    799.4702     22.5422 300.4125066 +22.6084472     954.4274     72.27502      1.488     3.23     4.902881     20.38578     102.7024        16     1.142     0.908  89.82   0
       357    354.0426     22.2809 300.2739526 +22.4749678     1217.524      72.2382      1.466     2.84     4.483599     20.38578     135.3024        19     1.056     0.952  11.93   0
       358    579.8919     19.9714 300.3449625 +22.5419600     404.0329     72.21979      1.647     3.89     4.049505     20.38578     32.50251         5     1.269     0.342 -25.50   0
       359    837.3982     17.4753 300.4259654 +22.6183436     488.0785     72.16453      1.272     3.54     4.865798     20.38578     59.82744        10     1.030     0.708 -41.00   0
       360    760.8149     17.5758 300.4020735 +22.5954465     502.7914     72.27501      1.515     3.53     4.851722     20.38578     59.03263         9     0.989     0.702  17.09   0
       361    613.8536   1017.8533 300.0315834 +22.8386973     2324.275     72.29341      1.908     4.31     3.149988     20.38578       142.64        33     1.453     1.311  -6.88  16
       362    700.4062   1012.9649 300.0601177 +22.8632669     8618.173     72.25661      2.026     4.48     3.335569     20.38578     446.0563        54     1.595     1.516  50.69   3
       363    705.9551   1010.6334 300.0626039 +22.8642629     9366.272     72.29341      1.996     4.42     3.368114     20.38578     520.9081        53     1.599     1.475  41.98   3
