#   1 NUMBER                 Running object number                                     
#   2 X_IMAGE                Object position along x                                    [pixel]
#   3 Y_IMAGE                Object position along y                                    [pixel]
#   4 ALPHA_J2000            Right ascension of barycenter (J2000)                      [deg]
#   5 DELTA_J2000            Declination of barycenter (J2000)                          [deg]
#   6 FLUX_APER              Flux vector within fixed circular aperture(s)              [count]
#   7 FLUXERR_APER           RMS error vector for aperture flux(es)                     [count]
#   8 FLUX_RADIUS            Fraction-of-light radii                                    [pixel]
#   9 FWHM_IMAGE             FWHM assuming a gaussian core                              [pixel]
#  10 BACKGROUND             Background at centroid position                            [count]
#  11 THRESHOLD              Detection threshold above background                       [count]
#  12 FLUX_MAX               Peak flux above background                                 [count]
#  13 ISOAREA_IMAGE          Isophotal area above Analysis threshold                    [pixel**2]
#  14 A_IMAGE                Profile RMS along major axis                               [pixel]
#  15 B_IMAGE                Profile RMS along minor axis                               [pixel]
#  16 THETA_IMAGE            Position angle (CCW/x)                                     [deg]
#  17 FLAGS                  Extraction flags                                          
         1    232.8275     22.1549 300.2355115 +22.4424826     3839.746     72.44788      1.530     2.78     4.836676     20.42934     393.0438        35     1.271     1.199  55.59   0
         2    794.1072     14.6062 300.4126197 +22.6083677     988.9987     72.31872      1.460     3.06     4.920573     20.42934      139.471        14     1.041     0.873  73.76   0
         3    348.7305     14.2843 300.2740948 +22.4749400     1180.798     72.52158      1.399     3.09     4.906484     20.42934     158.5031        18     1.140     0.917  65.92   0
         4    832.0157      9.7279 300.4260127 +22.6183081      639.501       72.411      1.509     3.29     4.934883     20.42934     80.78875        15     1.097     0.974  45.64   0
         5    755.2649      9.5755 300.4021494 +22.5952974     534.2094     72.39255      1.449     2.68     4.743263     20.42934     68.54903        10     0.929     0.696  88.91   0
         6    851.9931      6.0348 300.4334352 +22.6232233     2288.866       72.411      1.415     2.51     4.915318     20.42934     303.0706        26     1.253     0.968  78.75  16
         7    557.6712      4.1857 300.3423700 +22.5346041     526.7211     69.55103      1.423     3.45      4.96471     20.42934     64.28131         7     0.864     0.658 -80.73  16
         8    235.4238      1.6673 300.2429584 +22.4373760      846.161      58.2204      1.150     2.71     4.826688     20.42934      103.688        11     0.935     0.690  11.72  24
         9    237.1280   1004.4620 299.9178203 +22.7255861     706.6781     72.44788      3.230     4.56     66.30814     20.42934     32.55196         5     1.219     0.485   5.95   1
        10    291.9339   1018.9322 299.9301438 +22.7461849     1475.905     72.46631      7.460    14.46      66.2865     20.42934     63.14139        48     3.007     2.466  -5.19  19
        11    260.6742   1021.3527 299.9196405 +22.7374948     1773.272     67.66277      5.643    17.99       74.704     20.42934     59.26768        67     4.140     2.171   2.05  27
        12    261.3926   1004.9281 299.9252092 +22.7330036     4012.895      72.3741      7.148    19.60     63.56482     20.42934     85.86759       228     4.663     4.076 -45.98  19
        13    300.1624    992.7748 299.9412142 +22.7411580     7673.406     72.42944      8.301    32.39      43.3168     20.42934      173.293       715    10.733     4.909  66.95  18
        14    232.6319   1017.3750 299.9122207 +22.7279367     3022.088       72.411      5.830    22.17     75.95702     20.42934     83.64491       137     5.165     2.699  17.17  19
        15    192.9146   1023.3038 299.8979504 +22.7177115     702.8442     58.56348      2.368     7.34     74.60255     20.42934     55.71527        16     1.742     0.903 -20.97  26
        16    141.6083   1014.0001 299.8850400 +22.6996413      5350.78     72.22632     13.170    51.20      51.4678     20.42934     119.1794      1153    12.617     7.559  15.98  27
        17    138.6816    974.2791 299.8970567 +22.6873820     5225.696     72.53999     24.128    90.43     31.83553     20.42934     184.9978      3407    19.345    15.476 -15.96  27
        18    574.1066    980.9669 300.0302599 +22.8199742     5092.552     72.35564      0.983     3.62     3.014672     20.42934     1554.918         9     0.847     0.446 -81.65   0
        19    304.9827    966.5566 299.9512442 +22.7350900    -336.4249     72.42944      0.858     3.98     26.09168     20.42934     44.98447         5     1.071     0.424 -61.90   0
        20    206.6728    974.2389 299.9181921 +22.7077825     1445.084      72.3741      5.262    12.57     45.26342     20.42934     58.13911        40     3.101     1.657  34.32   2
        21    592.8832    966.2350 300.0408978 +22.8213814     451.2473      72.3741      1.909     5.42     3.124453     20.42934     39.10059         7     1.027     0.806   1.11   0
        22    621.8467    963.0936 300.0509352 +22.8291680     1405.969     72.42944      1.761     4.38     3.219054     20.42934     96.43842        24     1.304     1.228 -70.74   0
        23    280.2654   1004.2199 299.9313052 +22.7384659     4875.957     72.39255      9.125    30.09     60.14566     20.42934     99.22884       422     7.229     4.782 -54.36  19
        24    515.7069    959.4261 300.0190972 +22.7962773     1089.531      72.3741      1.773     5.10     3.136379     20.42934     78.29297        24     1.531     1.136  -8.31   0
        25    446.2238    957.5125 299.9981047 +22.7748820     6521.526     72.35564      1.785     3.94     3.632042     20.42934     522.9807        44     1.495     1.360  48.11   0
        26    536.9753    976.8761 300.0200365 +22.8076620      1092.84     72.42944      0.465    -7.54      3.02177     20.42934     785.5588         6     0.426     0.289  76.36   0
        27    478.8450    944.8143 300.0123837 +22.7810282     520.8688     72.42944      1.759     3.73     3.317806     20.42934     47.62357         9     0.983     0.714 -50.52   0
        28    919.7275    940.6991 300.1510071 +22.9120596     390.1375      72.5584      1.780     5.04     3.312536     20.42934     27.79872         6     1.310     0.547  37.05   0
        29    992.6141    936.2827 300.1751656 +22.9326373     2020.539     72.39255      1.944     4.84      3.30338     20.42934     110.1146        29     1.429     1.350   9.41   0
        30    228.6479    993.6149 299.9187151 +22.7199319     1553.881     72.44788      5.212    12.15     60.47066     20.42934     42.82168        20     3.008     1.367  67.95   3
        31    781.7457    924.8696 300.1131635 +22.8661521     812.8413     72.44788      1.970     5.92     3.439974     20.42934     50.93882        18     1.480     1.089  72.37   0
        32    642.7577    933.9313 300.0669337 +22.8270745     419.0316     72.39255      1.889     5.02     3.484002     20.42934     34.07084         7     1.038     0.800 -22.36   0
        33    816.0850    919.3532 300.1256559 +22.8748643     1083.062     72.39255      1.851     4.83     3.393119     20.42934     76.92104        20     1.297     1.125  67.98   0
        34    593.5582    920.4321 300.0560112 +22.8084462      318.638     72.46631      1.264     4.18     3.391557     20.42934     35.09852         6     1.046     0.476  33.35   0
        35    559.8489    994.7048 300.0213521 +22.8196369      280.164     72.46631      1.505     3.55     2.950111     20.42934      36.4171         5     1.021     0.355 -87.21   0
        36     26.2222    916.6514 299.8808825 +22.6371050     553.1343       72.411      2.209     5.86     3.856757     20.42934     38.32059        10     1.286     0.751  24.81   0
        37    838.5072    913.0645 300.1346878 +22.8797813     11502.12     72.52158      1.796     3.85     3.396702     20.42934     731.9828        55     1.459     1.444 -16.17   0
        38    269.1611    911.6064 299.9579883 +22.7085879     781.3206     72.44788      7.589     8.76     8.243118     20.42934     27.29899         9     2.186     0.980 -52.69   0
        39    883.6264    913.1346 300.1487245 +22.8933265     450.3546     72.39255      1.770     4.95     3.367714     20.42934     45.43733         7     1.013     0.684  79.99   0
        40    229.4716    999.0093 299.9172156 +22.7217251     1295.488     72.39255      2.147     5.93     63.96265     20.42934     46.88296        11     2.528     0.392 -34.29   2
        41     44.0919    991.6623 299.8620255 +22.6639597     379.2996     72.52158      1.532     3.92     6.697469     20.42934     42.06192        10     1.063     0.712  74.78   0
        42    150.2915    904.9031 299.9232340 +22.6709875       861.68      72.5952      2.490     4.70     10.24984     20.42934     55.52995        14     1.406     0.823  84.55   0
        43    543.7975    901.2185 300.0467761 +22.7880098     411.0397     72.31872      1.457     5.69     3.332264     20.42934     53.28061        10     1.204     0.758 -35.89   0
        44    890.2241    900.5771 300.1548662 +22.8916996     419.2821      72.3741      1.653     5.15     3.389307     20.42934     31.70703         7     1.119     0.670 -33.43   0
        45    847.1060    895.1705 300.1431888 +22.8772232     1433.311     72.33718      1.705     3.99     3.447009     20.42934     116.6662        23     1.242     1.201 -11.17   0
        46    198.9691    895.7248 299.9413424 +22.6829685     496.6535       72.411      3.029     4.47     10.09625     20.42934     41.48044         5     1.325     0.429 -31.67   0
        47    140.4131    895.8482 299.9231110 +22.6654272     391.0692     72.42944      2.070     4.41     8.100256     20.42934     38.25539         5     0.968     0.705  -9.05   0
        48    697.7886    891.7557 300.0977890 +22.8314770     461.5657       72.411      1.824     3.90     3.626523     20.42934      42.9119         5     1.278     0.341  65.57   2
        49    713.3293    972.3298 300.0764117 +22.8592546     6840.613     72.48473      1.865     4.00     3.312787     20.42934     415.6741        45     1.493     1.377  54.56   0
        50    884.8876    888.5884 300.1571035 +22.8866588     827.8309     72.35564      1.874     4.54     3.422069     20.42934     53.95933        15     1.159     0.941 -23.58   0
        51    994.4095    885.8742 300.1921263 +22.9187030     370.1877       72.411      1.893     5.08     3.321778     20.42934     26.92133         7     1.190     0.614 -65.59   0
        52    933.6287    879.8265 300.1751453 +22.8987519     651.3116     72.39255      1.813     5.78     3.358276     20.42934     44.94805        16     1.308     0.998  61.57   0
        53    784.7818    878.7657 300.1291085 +22.8538316     638.2041       72.411      1.667     4.96     3.552319     20.42934     49.11901        16     1.216     0.989  32.70   0
        54     45.5892    877.9160 299.8994953 +22.6318217     560.3243      72.3741      2.223     4.21     3.542957     20.42934     37.90695         6     0.801     0.632 -45.29   0
        55    796.1992    875.7264 300.1336539 +22.8563821     654.1038     72.30025      1.812     5.95     3.547338     20.42934     50.01029        15     1.314     1.036  65.65   0
        56    497.4136    875.1764 300.0408155 +22.7666273     4255.842       72.411      1.653     3.29     3.522608     20.42934     372.8729        34     1.283     1.257 -18.22   0
        57    541.4797    863.5226 300.0583171 +22.7765019     382.6746     72.52158      1.489     3.70      3.59439     20.42934     38.44967         6     0.941     0.418  71.11   0
        58    276.4060    863.8588 299.9757715 +22.6970744     359.6966      72.3741      1.538     3.44     4.543841     20.42934     38.25436         5     0.749     0.457 -72.47   0
        59    158.9094    863.6778 299.9393205 +22.6617594     433.1755      72.5584      1.664     4.19     4.503781     20.42934     43.63794         7     1.141     0.772 -47.48   0
        60    987.5452    989.3104 300.1563282 +22.9463405     727.1216     72.44788      1.771     4.17     3.166234     20.42934     62.22277        13     1.327     0.971 -36.37   0
        61    409.6000    861.4887 300.0179529 +22.7363591      1905.82     72.31872      0.810     1.01     4.089107     20.42934     821.3917         7     0.652     0.423  43.16   0
        62    222.7291    860.5881 299.9601539 +22.6800283     812.7562     72.42944      1.814     6.10     5.095541     20.42934     61.73489        14     1.131     0.964 -30.44   0
        63    199.9202    857.8945 299.9539427 +22.6724107     1595.542     72.53999      1.623     3.59     4.846051     20.42934     161.2138        24     1.232     1.160  59.28   0
        64    731.1569    846.0679 300.1230419 +22.8283713     501.7505     72.39255      1.832     7.51     3.629355     20.42934       37.009        11     1.706     0.926 -52.63   0
        65     75.9840    847.5229 299.9188183 +22.6322374     406.4595       72.411      1.727     3.71      3.96131     20.42934     31.99108         6     1.186     0.334 -50.91   0
        66   1024.0000    845.8568 300.2143707 +22.9160789       310.88     54.30363      1.095     3.52      3.27664     20.42934     87.66013         5     1.237     0.289  90.00  24
        67    809.7265    839.5156 300.1496467 +22.8500439     553.0877     72.52158      1.562     4.49     3.570121     20.42934      50.8836        13     1.047     0.888  23.81   0
        68    232.1961    839.5631 299.9699336 +22.6768423     470.9359     72.44788      1.818     3.59     4.778213     20.42934     48.79831         7     0.921     0.775 -51.04   0
        69    677.5157    833.3438 300.1104766 +22.8086375     4835.517     72.50316      1.579     3.10     3.648649     20.42934     422.3256        36     1.298     1.184  64.00   0
        70    167.3490    833.8037 299.9516580 +22.6557298     430.5732       72.411      1.428     4.91     4.449339     20.42934     63.00714        11     1.206     0.996  19.43   0
        71    479.6105    830.3401 300.0498599 +22.7484270     566.5795      72.3741      1.532     5.42     3.720555     20.42934     52.04749        11     1.021     0.812  15.10   0
        72    227.8919    826.9474 299.9726988 +22.6719340     1250.164     72.46631      1.671     3.86      4.64512     20.42934     103.4174        21     1.197     1.120 -14.27   0
        73    698.1522    825.9296 300.1193137 +22.8126971     696.3287     72.39255      1.476     3.38     3.637762     20.42934     68.38018        13     1.043     0.830  54.65   0
        74    247.0933    824.4620 299.9794741 +22.6769835     437.7672     72.50316      1.484     2.96     4.494883     20.42934     50.44269         6     0.768     0.496  -5.10   0
        75    853.6376    813.1084 300.1719168 +22.8556249     4162.555     72.39255      1.654     3.45     3.567916     20.42934      311.228        33     1.273     1.255  86.30   0
        76    584.3412    809.9781 300.0890704 +22.7739950     241.0462       72.411      1.433     4.48     3.702637     20.42934     29.62964         6     0.849     0.673 -60.73   0
        77    261.9968    807.0417 299.9897707 +22.6764611     474.8817     72.42944      1.456     4.21     4.276999     20.42934      49.2742         9     0.997     0.881  49.18   0
        78    570.7512    805.7006 300.0862318 +22.7686924     575.2927     72.44788      1.399     4.58     3.672487     20.42934     62.52587        11     1.156     0.801 -21.32   0
        79    217.0066    803.3891 299.9769770 +22.6619136     1014.495     72.28178      1.684     4.46     4.343452     20.42934     87.31003        18     1.262     1.016 -60.10   0
        80    366.6089    795.6149 300.0260070 +22.7045706     53529.31     72.31872      1.607     3.18     4.025478     20.42934     5545.553        97     1.452     1.377  48.51   0
        81    632.2613    798.7333 300.1076431 +22.7851373     440.8514     72.44788      1.481     3.53       3.7442     20.42934     60.87257        11     0.964     0.901   5.66   0
        82    624.4061    794.5894 300.1065454 +22.7815930     1569.284     72.28178      1.574     3.11     3.778029     20.42934     161.4632        23     1.223     1.089  43.82   0
        83    339.8467    793.4583 300.0183872 +22.6959236     315.3956     72.46631      1.557     5.65     4.046541     20.42934     33.61449         6     0.997     0.903 -63.40   0
        84    294.8540    793.9820 300.0042299 +22.6825752     391.0454     72.39255      1.369     4.93     4.132799     20.42934     50.50948         9     0.935     0.736  88.56   0
        85    653.5197    790.8168 300.1168355 +22.7892393     857.2086       72.411      1.482     3.17     3.725914     20.42934     93.94737        13     0.985     0.895  80.28   0
        86     52.7757    790.0909 299.9302869 +22.6088116      949.405     72.35564      1.968     4.76     3.466591     20.42934     80.22133        18     1.220     1.139 -73.84   0
        87     19.9412    790.0764 299.9200969 +22.5989512     848.5932     72.46631      2.190     4.42     2.880012     20.42934     75.66281        15     1.328     1.019  72.61   0
        88    664.3566    789.2987 300.1207032 +22.7920527       550.75       72.411      1.273     2.74     3.714934     20.42934     67.54998        10     0.880     0.734 -44.09   0
        89    984.2322    786.5081 300.2212728 +22.8871206     344.1246     72.35564      1.556     4.65     3.440192     20.42934     45.57091         7     0.966     0.753 -53.01   0
        90    769.8153    785.4216 300.1548058 +22.8225536     444.8405     72.39255      1.365     5.61     3.604369     20.42934     53.63254        10     1.117     0.793  40.48   0
        91    564.9831    782.2733 300.0920546 +22.7602411      294.744       72.411      1.410     3.92     3.733985     20.42934     41.11402         5     0.848     0.519 -57.82   0
        92    807.2083    775.5769 300.1696556 +22.8309351     731.4294       72.411      1.622     4.12      3.59706     20.42934     71.36436        16     1.226     0.931  52.89   0
        93    416.2972    772.8661 300.0488556 +22.7129509     31463.45     72.50316      1.532     2.95     3.988428     20.42934     3505.713        69     1.370     1.278  45.29   0
        94    430.5310    773.3478 300.0531259 +22.7173584     1970.121       72.411      1.565     2.99     3.961467     20.42934     207.8298        25     1.241     1.076   8.62   0
        95    939.4543    768.8412 300.2130581 +22.8686310     2640.097      72.3741      1.668     3.51     3.701901     20.42934     207.6221        32     1.332     1.213  38.36   0
        96    427.1336    766.8427 300.0541843 +22.7144735     623.7434     72.39255      1.729     5.10     3.961838     20.42934     66.53577        10     1.047     0.703  47.04   0
        97    298.8930    764.6979 300.0150068 +22.6753896     835.4979      72.5952      1.557     3.41     4.040499     20.42934     87.41574        15     1.111     0.916  61.24   0
        98    697.3106    764.7730 300.1389389 +22.7948931     963.3391     72.39255      1.455     3.41      3.75774     20.42934       99.593        14     1.045     0.899  25.78   0
        99    533.3271    764.3815 300.0880210 +22.7456151     412.3165       72.411      1.568     5.75     3.784752     20.42934     36.77273        10     1.254     0.743  88.61   0
       100    544.5059    759.7971 300.0929902 +22.7476519     852.5386     72.31872      1.590     3.71     3.782963     20.42934     79.02987        14     1.134     0.820  -9.23   0
       101    104.2217    760.6131 299.9558471 +22.6158040     238.9841     72.39255      1.166     2.55     4.256925     20.42934     43.20883         5     0.689     0.476 -11.92   0
       102    945.8267    756.6649 300.2190037 +22.8670436     637.1555     72.39255      1.753     4.52     3.756921     20.42934     59.57923        12     0.990     0.945 -53.18   0
       103    446.5107    755.9587 300.0637500 +22.7171631     375.0392       72.411      1.563     4.08     3.921646     20.42934     34.96071         5     0.736     0.645  -9.40   0
       104    402.2903    755.6954 300.0500821 +22.7038245      313.265      72.5952      1.455     4.38     3.966226     20.42934     39.05926         7     0.946     0.577 -58.64   0
       105    489.9903    754.6014 300.0777169 +22.7298133     488.7633     72.22632      1.545     3.40     3.866633     20.42934     49.48804         9     0.897     0.747 -80.70   0
       106    698.5659    753.9348 300.1428537 +22.7921586     223.2587       72.411      1.301     4.84     3.789361     20.42934     42.43423         7     0.932     0.713  -3.35   0
       107    132.4548    753.8923 299.9668013 +22.6223506     448.5914     72.46631      1.341     3.39     4.270253     20.42934     67.06934         8     1.056     0.595  15.22   0
       108    923.5671    751.7324 300.2136688 +22.8589578     441.4582       72.411      1.515     4.51       3.8355     20.42934     44.01616        10     1.081     0.692   6.64   0
       109    296.6360    748.9837 300.0194140 +22.6702061     446.1761       72.411      1.407     2.35     3.994521     20.42934     69.18694         8     0.780     0.668   5.27   0
       110    619.8700    739.2108 300.1231393 +22.7643411     419.2441     72.39255      1.341     2.76     3.958815     20.42934      65.6837         8     0.835     0.625  54.80   0
       111    589.3116    737.6926 300.1141210 +22.7547437     685.2772     72.57681      1.482     3.39     3.932508     20.42934     85.82536        12     0.993     0.837  39.86   0
       112    611.3363    735.1335 300.1218084 +22.7606126     1469.308     72.46631      1.467     2.74     3.962545     20.42934     164.6327        22     1.156     1.048  28.53   0
       113    498.7457    736.9720 300.0861723 +22.7273811     269.4465       72.411      1.552     4.52     3.887401     20.42934     34.09336         5     1.191     0.488  17.54   0
       114   1005.8532    734.1749 300.2450307 +22.8785676     4632.252     72.42944      1.686     3.54     3.711512     20.42934     336.4925        32     1.288     1.231  23.48   0
       115    531.2314    734.9146 300.0969490 +22.7365320     252.0318       72.411      1.309     3.95     3.889593     20.42934     38.23899         6     0.771     0.581 -51.18   0
       116    693.1393    730.3597 300.1488285 +22.7837652     331.8314       72.411      1.350     3.15     3.883735     20.42934     53.75045         7     0.992     0.492  48.97   0
       117    994.1849    725.5025 300.2442119 +22.8725813     1648.507     72.30025      1.707     3.73     3.814625     20.42934     138.9109        26     1.289     1.156  50.61   0
       118    357.2279    719.3456 300.0478862 +22.6798819     839.1951       72.411      1.413     3.14     3.950113     20.42934     98.95033        16     1.069     0.953  38.19   0
       119    820.7972    716.8677 300.1929771 +22.8181522         2480     72.39255      1.597     3.24     3.713697     20.42934      232.076        31     1.460     1.103  14.94   0
       120   1023.9077    715.3539 300.2567794 +22.8785698     437.7193     54.96367      1.300     3.56     3.837561     20.42934     82.76305         6     1.277     0.285 -87.79  24
       121     42.9489    706.6864 299.9543487 +22.5819568     735.7869       72.411      1.586     4.69     3.614316     20.42934     82.79926        17     1.337     1.131  39.80   0
       122    903.1414    703.0266 300.2231368 +22.8388509     548.4885       72.411      1.603     4.52     4.002865     20.42934     58.34352        12     1.185     0.830  58.62   0
       123    206.1161    703.3580 300.0061128 +22.6299651     709.9268      72.3741      1.565     3.24     4.119932     20.42934     60.46964        12     0.948     0.865   1.61   0
       124    939.1089    693.7325 300.2373692 +22.8469572     147982.5     72.53999      1.597     3.20     4.134109     20.42934     13478.75       163     1.498     1.483  47.28   0
       125    701.7053    697.8015 300.1620797 +22.7769870     338.1614     72.31872      1.530     5.68     3.832792     20.42934     40.81872        10     1.202     0.756  53.99   0
       126    791.3689    694.0341 300.1912314 +22.8027774     710.4898     72.42944      1.633     4.11     3.701473     20.42934     75.24089        12     1.015     0.845  71.32   0
       127    544.0231    694.8885 300.1139407 +22.7288820     197.6641     72.33718      1.277     4.42     3.933439     20.42934     33.83094         6     0.774     0.718  -0.46   0
       128    971.9423    687.1071 300.2497586 +22.8548900     351.3121     72.46631      1.488     4.23     4.146336     20.42934     31.74669         6     0.800     0.668  -1.20   0
       129    625.4160    682.5317 300.1432902 +22.7497366     1664.145     72.39255      1.406     2.77     4.044576     20.42934     193.4858        20     1.089     1.018 -10.96   0
       130    806.5439    679.8466 300.2005706 +22.8032511     9475.025     72.44788      1.476     2.72     3.760219     20.42934     1066.545        42     1.242     1.185 -73.67   0
       131    288.2499    681.5386 300.0387304 +22.6483475     339.6916     72.46631      1.657     4.14     3.886024     20.42934     28.74872         5     0.802     0.697  48.58   0
       132    308.0618    674.9640 300.0470257 +22.6524045      4933.65     72.42944      1.467     2.82     3.892277     20.42934     529.3287        36     1.250     1.180  52.21   0
       133     21.8716    673.2613 299.9586675 +22.5660498      1543.81     72.44788      1.707     3.69     3.874965     20.42934     138.3888        24     1.255     1.186  33.21   0
       134    390.2570    672.9747 300.0732288 +22.6764861     1042.767       72.411      1.340     2.84     3.932478     20.42934     122.3373        13     0.952     0.815  39.84   0
       135    265.8539    670.4260 300.0353807 +22.6384422     457.2386     72.42944      1.391     3.93     3.913486     20.42934     62.14425         9     0.997     0.672  43.62   0
       136    598.2094    668.2853 300.1394516 +22.7374919     772.7039     72.35564      1.352     3.00     4.113232     20.42934     96.47635        14     1.051     0.838  70.39   0
       137    590.0157    660.6277 300.1393899 +22.7328378      3137.25     72.42944      1.388     2.54     4.170238     20.42934      393.528        27     1.147     1.024  70.57   0
       138    580.3862    654.5042 300.1383829 +22.7281936     1328.963     72.33718      1.323     2.71      4.20392     20.42934     171.9126        17     1.011     0.931  12.41   0
       139    775.8062    654.1891 300.1993340 +22.7866732     167.7737     72.28178      1.374     3.40     3.764001     20.42934     28.13413         5     0.974     0.344  44.27   0
       140    508.9116    653.9764 300.1163121 +22.7066145     284.0054     72.33718      1.221     2.57     4.058316     20.42934     53.78368         7     0.844     0.614  31.88   0
       141    973.8336    652.3667 300.2616400 +22.8454773     382.0813     72.48473      1.436     3.94     4.257644     20.42934     41.80547         9     0.919     0.702  69.80   0
       142    491.3194    651.4318 300.1116655 +22.7006097     414.4671       72.411      1.687     3.29     4.046761     20.42934     46.79173         7     0.959     0.700  52.39   0
       143    243.6752    650.5995 300.0349307 +22.6261028     599.5395     72.28178      1.425     2.74     4.074899     20.42934     75.45307        11     0.962     0.768  18.12   0
       144    257.8539    648.8749 300.0398978 +22.6298614     567.3739     72.42944      1.447     3.29     4.022224     20.42934     62.25172        11     0.938     0.801  52.88   0
       145    143.5061    648.6144 300.0044518 +22.5954828     291.8829     72.33718      1.385     4.62     4.342825     20.42934      39.5387         6     1.240     0.489 -27.39   0
       146    314.7961    645.5877 300.0586659 +22.6459979     232.2809      72.2633      1.336     3.15     3.933133     20.42934     42.52855         5     0.911     0.390 -82.83   0
       147    283.7487    645.8679 300.0489235 +22.6367661     444.1634     72.39255      1.396     3.91     3.903123     20.42934     68.23907        11     0.993     0.903  14.19   0
       148    604.3782    644.7450 300.1490221 +22.7325844     409.0475     72.42944      1.260     4.08     4.392076     20.42934     45.83904         8     1.091     0.591  45.07   0
       149    505.0600    644.1527 300.1183061 +22.7026405     1783.016     72.46631      1.377     2.62     4.103303     20.42934     211.6288        22     1.062     1.003  39.78   0
       150     79.9389    640.8459 299.9872321 +22.5741823     705.1943     72.42944      1.783     3.37      4.17004     20.42934     67.53194        13     1.039     0.922  52.56   0
       151    158.9903    639.0034 300.0123852 +22.5973724      19610.2     72.22632      1.565     3.08     4.412056     20.42934     1987.248        59     1.383     1.289  34.94   0
       152    589.8806    639.5741 300.1461900 +22.7267544     1009.136     72.39255      1.430     2.54     4.394091     20.42934     123.1217        14     0.947     0.846 -48.52   0
       153    625.2512    638.5709 300.1575261 +22.7370687     392.8413     72.42944      1.699     5.19     4.472496     20.42934     34.24068         9     1.237     0.614  83.35   0
       154    507.0411    636.2379 300.1214946 +22.7009631     247.4588     72.50316      1.177     4.50     4.148642     20.42934     39.02517         8     1.040     0.823 -77.10   0
       155   1008.1971    625.9146 300.2809512 +22.8481703     1107.172     72.33718      1.612     3.49      4.21841     20.42934     94.39503        19     1.157     1.069 -17.09   0
       156    105.1001    623.1609 300.0007928 +22.5766611     1595.218     72.42944      1.956     4.76     4.285203     20.42934     102.0426        27     1.565     1.093  81.36   0
       157    874.7839    623.8161 300.2400437 +22.8076058     588.0207      72.3741      1.586     3.08     4.032393     20.42934     61.93679         9     0.944     0.751 -26.35   0
       158    171.2300    623.7625 300.0211400 +22.5966737     360.0429     72.44788      1.449     2.80       4.4695     20.42934     56.41537         8     0.896     0.607   2.52   0
       159    553.4896    620.1663 300.1411705 +22.7102752     341.4693     72.39255      1.265     2.91      4.41297     20.42934     53.03121         8     0.846     0.646 -40.31   0
       160    346.1256    619.5228 300.0768759 +22.6479166     255.4036     72.52158      1.275     3.76     4.070035     20.42934     40.28499         7     0.863     0.631 -75.21   0
       161    947.1973    618.4753 300.2643499 +22.8277631     916.4252     72.31872      2.048     7.68     4.333374     20.42934     77.38699        20     1.823     0.906  -2.21   0
       162    692.5565    616.7966 300.1855572 +22.7509897     231.4052     72.42944      1.354     5.09     4.423338     20.42934     32.30437         7     1.176     0.623  70.54   0
       163    509.9829    612.3774 300.1301631 +22.6949974     938.9194     72.39255      1.586     2.77     4.285283     20.42934     94.26392        13     0.948     0.834  14.03   0
       164    658.1013    610.9396 300.1767320 +22.7389822     502.9653     72.48473      1.287     3.34     4.812014     20.42934     70.80357        10     0.956     0.792 -83.24   0
       165    705.3713    609.5439 300.1919045 +22.7527476     395.4294       72.411      1.225     3.86     4.290155     20.42934     62.10432        10     1.053     0.754  -8.01   0
       166    675.6555    609.0310 300.1828179 +22.7436951     618.8713     72.42944      1.460     3.30     4.786986     20.42934     79.98647        10     1.007     0.697  24.94   0
       167    554.4625    608.2472 300.1453462 +22.7071458     1066.075     72.42944      1.714     4.47     4.515464     20.42934     109.6544        18     1.343     0.987  19.51   0
       168    988.1063    603.7314 300.2818952 +22.8357800     3450.083     72.53999      1.555     3.02     4.266791     20.42934      352.213        30     1.224     1.146  40.72   0
       169    519.8605    603.6377 300.1360763 +22.6954502     1630.771     72.42944      1.299     2.49     4.372339     20.42934     241.4613        17     1.010     0.864  26.57   0
       170    885.1752    600.9960 300.2506975 +22.8041640     205.6809      72.3741      1.204     2.61     4.170725     20.42934     44.93406         5     0.781     0.482  35.51   0
       171     81.7873    597.1308 300.0020094 +22.5622027     5177.841     72.42944      1.644     3.18     4.124166     20.42934     489.4216        36     1.304     1.241  40.13   0
       172    548.9343    594.2487 300.1481741 +22.7014706     269.6438       72.411      1.383     3.35     4.564487     20.42934     36.16455         5     0.995     0.327  43.52   0
       173    383.2892    590.4200 300.0978876 +22.6507110     8985.102     72.35564      1.384     2.51     4.202813     20.42934     996.9171        37     1.223     1.095  33.44   0
       174    505.7354    587.4813 300.1369305 +22.6865787      8832.55     72.52158      1.329     2.34     4.392573     20.42934     1218.224        35     1.125     1.076  53.56   0
       175    909.9744    585.0246 300.2636162 +22.8070046      314.677      72.3741      1.297     3.05      4.39953     20.42934     33.48414         5     0.613     0.612  33.64   0
       176    751.9856    584.0142 300.2147174 +22.7593846     262.2703     72.33718      1.377     1.90     3.998269     20.42934     44.89865         5     0.579     0.578   6.80   0
       177    149.7819    583.4006 300.0275899 +22.5786643     297.1103     72.33718      1.457     4.59     4.285587     20.42934     32.10907         7     0.866     0.690  71.92   0
       178   1002.0640    578.8291 300.2943387 +22.8328052     12422.77     72.42944      1.536     2.99     4.284936     20.42934     1230.012        52     1.337     1.263 -89.29   0
       179    917.4534    581.4552 300.2671071 +22.8082193     1831.037     72.44788      1.460     2.74     4.448345     20.42934      203.661        20     1.078     1.002  59.48   0
       180    566.3018    577.0366 300.1591712 +22.7017357     11600.88       72.411      1.350     2.47      4.71241     20.42934     1377.114        44     1.168     1.111  56.38   0
       181    736.0157    572.7587 300.2134001 +22.7513674     493.4085     72.42944      1.237     2.44     4.074529     20.42934     69.72079         7     0.731     0.603  -7.83   0
       182    293.7563    572.3813 300.0759107 +22.6186870     1387.116     72.42944      1.437     2.52     3.904653     20.42934      157.148        17     1.044     0.887  81.93   0
       183    451.2712    571.7065 300.1251113 +22.6657236      216.865     72.52158      1.318     3.80      4.30071     20.42934     45.80767         7     0.977     0.606 -71.25   0
       184    540.9153    570.0825 300.1535300 +22.6921303     382.7765     72.53999      1.347     2.56     4.667083     20.42934      55.1806         5     0.629     0.567   5.39   0
       185    600.4380    568.0045 300.1727304 +22.7093742     215.9657     72.44788      1.243     3.96     4.827572     20.42934     30.29681         5     0.904     0.496 -88.87   0
       186    497.9937    565.2684 300.1417382 +22.6778824     4424.332      72.3741      1.342     2.39     4.456969     20.42934     552.2418        28     1.105     0.992  44.53   0
       187    840.4678    565.3235 300.2483556 +22.7805252     900.6291     72.50316      1.435     3.13     4.313723     20.42934     102.3129        14     1.053     0.842  -8.46   0
       188    476.4488    563.5333 300.1355988 +22.6709259     1119.668       72.411      1.237     2.40     4.360274     20.42934     162.8472        15     0.967     0.846  11.42   0
       189    230.4972    562.9409 300.0593157 +22.5970069      772.972     72.48473      1.435     2.95     4.054003     20.42934     109.2264        12     1.077     0.761  48.32   0
       190    917.7491    560.7812 300.2739161 +22.8023686     1594.899     72.39255      1.520     3.18     4.547332     20.42934     157.5048        19     1.101     1.000 -16.89   0
       191    438.0650    559.0514 300.1251144 +22.6581326     295.6718     72.44788      1.353     3.42     4.327273     20.42934     47.84615         5     0.784     0.517 -61.26   0
       192    798.2198    557.5546 300.2377162 +22.7656375     839.2019     72.44788      1.319     2.31     4.207714     20.42934     116.8156        13     0.956     0.771  42.51   0
       193    614.6026    552.7643 300.1820906 +22.7092439       200108     72.39255      1.337     2.36     4.850877     20.42934     28819.48       193     1.412     1.378  11.47   0
       194    300.5933    552.7228 300.0844220 +22.6150973     3510.198     72.33718      1.435     2.65     3.952728     20.42934     457.9713        31     1.230     1.069  54.34   0
       195    867.6799    553.6306 300.2606341 +22.7853177     282.4143       72.411      1.335     4.48     4.510195     20.42934     40.82556         6     1.056     0.541  55.85   0
       196    575.8076    553.4384 300.1697960 +22.6978105     276.8048     72.42944      1.436     3.39     4.820152     20.42934     31.78148         5     1.189     0.280  54.74   0
       197    866.6782    549.0770 300.2618012 +22.7837095     474.1819     72.52158      1.501     2.94     4.555562     20.42934     55.00789         7     0.815     0.600  72.69   0
       198    885.5944    547.1251 300.2683305 +22.7888147     202.1439     72.33718      1.277     3.42     4.589047     20.42934     32.28836         5     0.790     0.429 -68.89   0
       199    645.9881    539.8511 300.1960561 +22.7149418     184.6402     72.42944      1.232     4.03     4.838282     20.42934     32.03403         6     1.005     0.462 -39.67   0
       200    505.3196    533.0360 300.1544880 +22.6708266     2710.948     72.35564      1.399     2.38      4.57212     20.42934     328.3577        24     1.091     0.980 -80.38   2
       201    349.6348    535.4780 300.1052705 +22.6248548     428.2413      72.3741      1.453     3.00     4.312598     20.42934     50.79115         7     0.818     0.654 -10.50   0
       202    955.2500    533.4582 300.2944825 +22.8057496     192.5233     72.46631      1.118     4.41     4.546216     20.42934     37.61277         7     0.977     0.565  57.05   0
       203    661.5291    530.9344 300.2037912 +22.7170383      466.584     72.44788      2.281     4.01      4.81848     20.42934     38.09885         5     0.892     0.517 -43.22   0
       204    916.8616    529.3653 300.2838452 +22.7930771     470.8296     72.42944      1.407     2.90     4.581168     20.42934     60.42967         7     0.726     0.692 -55.51   0
       205    934.2096    525.3942 300.2905428 +22.7971315     198.6451      72.2633      1.537     4.48      4.60606     20.42934     24.37823         5     1.176     0.484  -3.43   0
       206    822.5749    521.9225 300.2568791 +22.7626986      420.304     72.42944      1.327     3.67     4.195015     20.42934     50.90959         9     1.006     0.707 -36.39   0
       207    902.3057    519.2605 300.2825905 +22.7858146     1574.739     72.50316      1.345     2.76     4.480906     20.42934     179.9388        21     1.111     1.058  -5.20   0
       208    773.4006    517.0039 300.2431568 +22.7465553     2564.138     72.18933      1.341     2.31     4.182886     20.42934     346.4803        23     1.053     0.990  -5.32   0
       209     32.6904    517.8035 300.0125304 +22.5247253     934.4946     72.31872      1.878     4.96      3.71913     20.42934     88.49834        18     1.592     0.790 -25.48   0
       210    133.0810    517.0339 300.0439588 +22.5546200     324.6194      72.3741      1.283     2.85     3.898399     20.42934     40.72705         7     0.843     0.542 -45.99   0
       211    412.1683    516.6140 300.1308441 +22.6381896     258.1256       72.411      1.180     2.07     4.328145     20.42934     43.52097         5     0.685     0.457 -19.34   0
       212    983.0604    513.7264 300.3095626 +22.8084077     344.8974     72.44788      1.374     2.58     4.522279     20.42934     47.62125         7     0.716     0.668  -6.73   0
       213    678.1870    513.5275 300.2146320 +22.7170311     504.2559     72.42944      1.418     2.24     4.744856     20.42934     72.36604         7     0.785     0.573  67.90   0
       214    560.7422    512.9080 300.1782723 +22.6816596     763.6138     72.46631      1.342     2.43     4.790504     20.42934       122.74        12     0.932     0.763  84.06   0
       215   1016.3776    510.1624 300.3211092 +22.8173595      969.214     72.42944      2.244     3.77     4.489088     20.42934     73.44519        14     1.074     0.990  64.49   0
       216    902.5475    509.3389 300.2858885 +22.7830364     2172.963     72.46631      1.661     3.96      4.43638     20.42934       253.05        27     1.580     0.961  77.78   0
       217    656.0560    507.3038 300.2097625 +22.7086128     556.3333     72.50316      1.338     3.05     4.786533     20.42934     68.92337         8     0.797     0.687 -35.27   2
       218    655.5415    503.7182 300.2107669 +22.7074290     425.4779     72.46631      1.342     3.50      4.78215     20.42934     51.28592         7     0.988     0.533  16.12   2
       219    494.4035    506.2620 300.1597877 +22.6598690     370.0623       72.411      1.257     3.71     4.455853     20.42934     56.12591         7     1.045     0.477  82.88   0
       220    940.6789    504.4751 300.2993544 +22.7930582     4196.054     72.52158      1.429     2.67      4.59388     20.42934     508.1838        29     1.181     1.075  24.61   0
       221    502.1510    503.4284 300.1631185 +22.6613778     287.0132     72.42944      1.230     3.43     4.498313     20.42934      35.4544         5     0.748     0.455  19.04   0
       222    678.5320    500.6343 300.2189270 +22.7134319     405.1336       72.411      1.451     3.69     4.716404     20.42934     37.49259         6     0.966     0.405  70.56   0
       223    601.2036    500.5673 300.1948741 +22.6902419     369.1349       72.411      1.100     3.84     4.818671     20.42934     52.05545         6     0.895     0.602 -67.79   0
       224    172.6699    494.5967 300.0635445 +22.5600581     1098.858     72.35564      1.469     2.80      3.92343     20.42934     141.8069        19     1.219     0.958  47.51   0
       225    971.8338    492.6580 300.3129054 +22.7989917     334.9741     72.42944      1.046     2.78     4.589466     20.42934     41.18401         5     0.729     0.446  16.23   0
       226    220.0586    487.0292 300.0807270 +22.5720989     430.8982       72.411      1.569     3.56     4.105861     20.42934     38.89903         5     0.983     0.372 -31.77   0
       227    165.5391    484.8527 300.0644933 +22.5551242     557.7283     72.46631      1.786     3.96     3.884926     20.42934     52.93785         9     1.159     0.562 -21.18   0
       228    772.8633    479.1141 300.2552955 +22.7355109     475.6794     72.50316      1.363     2.14     4.064214     20.42934     77.19411         8     0.764     0.655  43.81   0
       229    661.7629    476.7932 300.2214484 +22.7015609      303.519     72.42944      1.342     2.83      4.72518     20.42934     58.02834         6     0.952     0.517  53.90   0
       230    381.1830    476.7832 300.1341432 +22.6174691     304.9693      72.3741      1.720     4.35      4.31575     20.42934     28.21851         5     0.776     0.695  36.18   0
       231    714.1333    475.0722 300.2383153 +22.7167566     842.4424     72.44788      1.366     2.33     4.444614     20.42934     111.7534        10     0.878     0.652  30.31   0
       232     74.6561    468.4120 300.0416013 +22.5231493     401.3166       72.411      2.030     5.47     3.770831     20.42934     28.82393         5     1.213     0.695  43.61   0
       233    774.8214    467.1339 300.2597960 +22.7326560     848.6732     72.39255      1.259     3.21      4.09731     20.42934     112.4908        12     1.052     0.725  38.09   0
       234    932.1531    463.3754 300.3100447 +22.7786952     960.4846     72.42944      1.349     2.63     4.541748     20.42934     127.4291        17     1.074     0.895  30.96   0
       235    916.4893    459.6717 300.3063647 +22.7729405     550.3966     72.57681      1.271     3.06     4.418073     20.42934     77.31123        11     0.950     0.825 -72.68   0
       236    660.6509    457.6761 300.2273102 +22.6957375     3267.692       72.411      1.295     2.35     4.657579     20.42934     486.0516        22     1.081     0.923  34.48   0
       237    136.5655    448.6526 300.0672465 +22.5360501     466.5182     72.42944      1.713     5.59     3.838573     20.42934     42.11363        10     1.000     0.967  -6.06   0
       238   1020.8494    456.3590 300.3399778 +22.8032352     458.6729     69.39725      1.368     3.83     4.679788     20.42934     61.71835         8     1.028     0.686  16.75  16
       239    500.6819    444.5503 300.1817814 +22.6440345     443.7926     72.42944      1.400     2.92     4.280353     20.42934     53.02877         8     0.803     0.740  40.92   0
       240    432.5058    445.3261 300.1603200 +22.6238242     322.2568      72.5584      1.425     3.45     4.223813     20.42934      40.2378         5     0.737     0.467 -71.67   0
       241    943.6979    436.6666 300.3223167 +22.7744765     552.2632     72.50316      1.351     2.87     4.498972     20.42934     70.29335        11     0.905     0.784 -21.06   0
       242    680.2151    433.6167 300.2412143 +22.6946886     305.4032      72.3741      1.144     1.95     4.507452     20.42934     52.00479         5     0.696     0.434 -23.77   0
       243    771.2640    431.5822 300.2702321 +22.7213775     1139.028     72.39255      1.461     2.58     4.241135     20.42934     153.3549        16     0.979     0.927  28.86   0
       244    566.8196    432.1866 300.2063772 +22.6603037       272.66      72.3741      1.237     2.72      4.43961     20.42934     52.87214         8     0.817     0.641  51.49   0
       245    275.0508    429.9248 300.1163605 +22.5722030     633.1455       72.411      1.378     2.86     4.250008     20.42934      75.5546        10     0.882     0.730  -9.18   0
       246    115.1903    427.5609 300.0674544 +22.5235889     361.3343       72.411      1.838     3.03      3.84437     20.42934      44.0141         5     0.819     0.557  51.22   0
       247    337.6449    425.4924 300.1372589 +22.5896963     3654.227       72.411      1.318     2.31     4.273344     20.42934     515.9045        24     1.122     0.940  64.80   0
       248    284.7545    420.2003 300.1225340 +22.5723215     7667.811       72.411      1.405     2.51     4.261573     20.42934     893.7368        41     1.242     1.117  68.27   0
       249    425.5948    414.5077 300.1681763 +22.6129058     4856.162     72.31872      1.282     2.23     4.148495     20.42934     688.2336        32     1.115     1.052  39.21   0
       250    669.8234    411.2249 300.2452486 +22.6851441     18722.37      72.3741      1.281     2.33     4.458352     20.42934     2572.482        54     1.245     1.099  57.10   0
       251    687.3137    411.4403 300.2506249 +22.6904453     862.8668     72.39255      1.887     5.39     4.421837     20.42934     67.20403        17     1.563     0.824 -33.19   0
       252    175.4404    409.1509 300.0921485 +22.5363751     123.3439     72.42944      1.443     4.14     3.984026     20.42934     29.23203         5     1.159     0.422 -76.00   0
       253    913.1390    407.4084 300.3222905 +22.7569184     192.0217     72.39255      1.065     2.43     4.346404     20.42934     49.88322         6     0.690     0.625 -67.70   0
       254    866.7525    401.6713 300.3096957 +22.7413803     376.0352     72.39255      1.237     3.00     4.230354     20.42934     56.16893         8     0.895     0.630  16.47   0
       255    873.7892    397.8000 300.3131455 +22.7423749     2455.494     72.22632      0.628     0.93     4.246685     20.42934     1360.134         7     0.497     0.454  36.38   0
       256    289.8351    398.3163 300.1312177 +22.5675642     287.2644      72.3741      1.210     3.41     4.321577     20.42934     37.11024         5     0.780     0.430 -15.69   0
       257   1003.6123    393.8276 300.3549064 +22.7801012     814.4885       72.411      1.574     3.73     4.657937     20.42934      82.0357        15     1.163     0.915 -34.05   0
       258    540.2625    392.8672 300.2108774 +22.6410554     406.1822     72.46631      1.433     2.78     4.149556     20.42934     55.85058         8     0.893     0.703  66.43   0
       259    712.7857    392.0252 300.2648604 +22.6924982     329.3526     72.42944      1.534     3.29     4.366467     20.42934     52.94847         5     0.983     0.426  22.58   0
       260    224.5157    391.2594 300.1132061 +22.5459560     2167.105     72.52158      1.430     2.53     4.230314     20.42934     249.2285        22     1.107     1.046  46.47   0
       261    830.0528    384.0239 300.3039885 +22.7253196     1146.947     72.42944      0.441    -5.65     4.277108     20.42934     891.9498         6     0.360     0.297  53.16   0
       262    610.4665    380.7065 300.2366760 +22.6585967      6700.58      72.5584      1.267     2.20     4.438898     20.42934     912.1375        35     1.163     0.995  66.92   0
       263   1023.5884    380.9596 300.3653133 +22.7823818     694.5287     56.82737      1.136     3.18     4.729887     20.42934     134.9603         9     1.086     0.537 -79.95  24
       264    325.1875    380.1779 300.1480961 +22.5729557     779.0927     72.39255      1.362     2.38     4.330429     20.42934     106.3415        10     0.850     0.716  58.00   0
       265    870.0681    372.8446 300.3200872 +22.7340891      338.693      72.3741      1.297     3.68     4.234979     20.42934     53.85763         6     0.881     0.491 -27.24   0
       266    183.1285    372.9892 300.1062756 +22.5283043     571.5749       72.411      1.648     3.15     4.273546     20.42934     59.48323         9     0.886     0.722 -77.52   0
       267     30.1148    370.9626 300.0594052 +22.4818376     1313.219     72.39255      1.512     3.31      4.62371     20.42934     161.2451        20     1.198     1.071  54.48   0
       268    724.0123    370.9388 300.2752021 +22.6898030     549.3052      72.3741      1.321     3.11     4.358137     20.42934     82.43703        10     0.969     0.662  52.07   0
       269    814.6772    369.6685 300.3038577 +22.7165904     1089.596     72.52158      1.338     2.54     4.316914     20.42934     164.1874        16     1.036     0.853 -70.05   0
       270    517.0875    366.9417 300.2120813 +22.6266666     6131.071     72.48473      1.305     2.20     4.128065     20.42934     934.7657        34     1.093     1.055  64.74   0
       271   1006.5203    361.9901 300.3661486 +22.7718195     601.7373      72.3741      1.419     4.06     4.653699     20.42934     82.69006        10     1.172     0.690 -31.42   0
       272    909.1898    361.2921 300.3360306 +22.7424822     1507.314     72.35564      1.354     2.54      4.29924     20.42934     193.1778        19     1.049     1.005 -33.19   0
       273    501.5764    355.4266 300.2109925 +22.6187122     552.0995      72.3741      1.241     2.74     4.107633     20.42934     66.31429         9     0.879     0.690  69.65   0
       274      8.1738    356.0494 300.0574328 +22.4709791     466.5079     72.42944      1.838     2.62     5.038638     20.42934     46.39647         8     0.794     0.659 -39.29   0
       275    584.1912    353.3943 300.2373625 +22.6428806     600.9521      72.2633      1.499     4.03     4.197556     20.42934     62.18639         8     1.094     0.567  44.54   0
       276     28.5952    352.4578 300.0649392 +22.4760735     1010.243      72.3741      1.630     3.60      4.93411     20.42934     106.0406        17     1.130     0.977   6.72   0
       277    881.9079    348.9786 300.3315241 +22.7307751     540.5834     72.33718      1.313     2.78     4.255991     20.42934     73.22881        10     0.872     0.739 -80.26   0
       278    404.6581    346.0576 300.1838835 +22.5869796       2758.8     72.48473      1.336     2.29     4.339861     20.42934     389.5594        22     1.047     0.971  74.76   0
       279    123.0301    343.4811 300.0971815 +22.5018172     952.6574       72.411      1.532     3.81     4.453012     20.42934     104.6523        16     1.263     0.876  63.43   0
       280    373.9685    335.5188 300.1777594 +22.5747565     29625.15       72.411      1.364     2.40     4.424635     20.42934     4198.154        63     1.289     1.143  68.29   0
       281    908.6429    333.1355 300.3449993 +22.7342256     1433.396     72.39255      1.369     2.52     4.302349     20.42934     162.5426        22     1.187     0.976  59.70   0
       282     70.2524    323.3550 300.0873199 +22.4802168     4982.352     72.42944      1.535     2.78     4.733159     20.42934     574.6313        35     1.310     1.172  61.33   0
       283    824.0304    322.1277 300.3222028 +22.7057294     419.7292       72.411      1.079     2.36     4.341726     20.42934      79.1326         9     0.784     0.702   1.30   0
       284    248.1492    321.8404 300.1430819 +22.5331183     476.0669     72.42944      1.485     2.57     4.453315     20.42934     54.73573         6     0.730     0.560 -44.37   0
       285    472.4589    320.7713 300.2131806 +22.6000360     575.5269       72.411      1.325     2.42      4.20646     20.42934      85.2229        11     0.925     0.752 -85.33   0
       286    784.4684    315.4576 300.3120415 +22.6919666     1914.188     72.42944      1.280     2.22     4.382664     20.42934     233.6876        19     1.049     0.882  79.63   0
       287    592.5230    309.9745 300.2540478 +22.6329050     326.8569     72.42944      1.260     2.58      4.22069     20.42934     59.82345         6     0.759     0.473  74.40   0
       288    999.5040    308.2230 300.3814121 +22.7542620     584.7527     72.31872      1.527     3.60     4.576211     20.42934     71.93006        12     1.049     0.842  63.11   0
       289    853.6828    302.0919 300.3379451 +22.7088490     343.7227      72.5584      1.631     3.37     4.317847     20.42934     37.94598         5     0.948     0.347  44.04   0
       290    446.1849    299.7979 300.2118129 +22.5861407     2176.079      72.2633      1.522     3.22      4.45942     20.42934     217.8463        28     1.431     0.981  65.65   0
       291    658.4052    298.8631 300.2781641 +22.6494464     321.6007      72.3741      1.015     2.31     4.301164     20.42934     62.23986         7     0.821     0.531  -4.00   0
       292    885.3028    292.9180 300.3507766 +22.7156784     638.0728      72.5584      1.251     2.78     4.319171     20.42934      92.8555        10     0.942     0.694  51.34   0
       293     16.3768    292.3369 300.0806547 +22.4551617     467.4561     72.39255      1.973     4.66     5.128809     20.42934      35.7009         8     1.170     0.526 -48.73   2
       294     19.0402    290.0315 300.0822297 +22.4552990     515.9805     72.46631      1.296     3.84     5.117285     20.42934     69.68512         5     1.017     0.416  44.73   2
       295    767.7505    290.7626 300.3148474 +22.6798642     386.5743       72.411      1.311     3.66     4.390661     20.42934     61.20798         9     1.048     0.688  58.95   0
       296    735.9706    289.5448 300.3053433 +22.6699981     282.5816       72.411      1.209     2.07     4.389946     20.42934     51.22089         6     0.733     0.497  -3.34   0
       297    522.0110    279.3400 300.2420431 +22.6029830     1204.962      72.3741      1.238     2.22      4.22684     20.42934     185.2931        13     0.949     0.738  88.42   0
       298    329.2184    279.4243 300.1820471 +22.5452407      299.519       72.411      1.561     3.43      4.77001     20.42934     32.05058         5     0.777     0.439  20.79   0
       299    606.9860    277.2642 300.2691643 +22.6278407     366.1485      72.3741      1.497     4.37      4.22684     20.42934     40.56208         6     0.940     0.577 -62.42   0
       300    905.5034    272.9310 300.3635586 +22.7159800       227.26     72.53999      1.007     1.97     4.335352     20.42934      50.1464         6     0.716     0.498  85.33   0
       301    766.9730    271.1971 300.3209540 +22.6740087     2270.729     72.35564      1.324     2.25     4.394585     20.42934     320.5719        23     1.096     0.946  82.49   0
       302      1.4456    256.5959 300.0876145 +22.4404301     29089.72      56.9682      1.009     2.38     5.185149     20.42934     7768.901        50     1.391     0.750 -88.30  24
       303    475.2159    254.8931 300.2354147 +22.5819426     643.4078     72.33718      1.318     2.91     4.276201     20.42934     80.93848         9     0.876     0.668  66.18   0
       304    150.0183    249.1391 300.1361772 +22.4828353     1371.553      72.3741      1.597     3.30     4.661828     20.42934     134.1931        25     1.442     1.035 -32.00   0
       305    180.7935    249.0741 300.1457602 +22.4920419     672.7618     72.35564      1.490     5.16     4.645801     20.42934     62.44386        13     1.255     0.857 -84.31   0
       306    887.6562    242.9311 300.3677297 +22.7020136     451.8438     72.42944      1.772     2.75     4.359464     20.42934     51.43645         5     0.956     0.537  53.10   0
       307    233.9051    240.9535 300.1648994 +22.5056305     498.3694     72.42944      1.484     4.67     4.745122     20.42934     57.36237        14     1.293     0.892  -4.23   0
       308     88.8255    239.1362 300.1204133 +22.4616196      317.652     72.39255      1.867     4.86      4.83767     20.42934     32.19962         5     1.339     0.499 -62.67   0
       309     19.0383    236.9990 300.0994341 +22.4400825     266.4747     72.42944      2.000     3.78     5.104208     20.42934     27.82824         5     1.029     0.399 -30.88   0
       310    910.1273    234.7288 300.3773949 +22.7063816     399.0522     72.48473      1.471     2.70     4.363361     20.42934     60.97236         5     0.916     0.549  72.48   0
       311    838.7255    232.7767 300.3557750 +22.6844477     730.4424     72.44788      1.563     2.37     4.371017     20.42934     113.7341         9     0.910     0.599 -68.01   0
       312    428.8994    232.4165 300.2282979 +22.5616112     493.5441     72.31872      1.150     2.21     4.654637     20.42934     69.59933         6     0.741     0.493   2.13   0
       313    929.2505    225.7533 300.3862679 +22.7095247     378.2287     72.44788      1.351     3.51     4.367629     20.42934     45.33865         7     0.960     0.634   9.58   0
       314    936.8358    221.5742 300.3899883 +22.7105933     2084.082     72.42944      1.445     2.61     4.397432     20.42934     295.7429        20     1.054     1.046  79.99   0
       315    355.3012    218.9225 300.2097855 +22.5356848     2155.725     72.53999      1.314     2.54     4.837023     20.42934     279.4673        19     1.089     0.883  47.36   0
       316    433.0611    214.5050 300.2354029 +22.5577138     1113.013     72.50316      1.618     6.19     4.640114     20.42934     126.2555        14     1.437     0.750 -66.18   0
       317    835.2198    213.3591 300.3609819 +22.6778165     647.4451     72.44788      1.468     3.51     4.379565     20.42934     81.02934        11     1.093     0.750  49.41   0
       318    185.1936    214.2306 300.1584303 +22.4833594     353.8513       72.411      1.470     3.76     4.798386     20.42934      45.6538         6     0.871     0.636  -8.73   0
       319    942.2711    210.4818 300.3952813 +22.7090306     337.8421     72.53999      1.037     2.37      4.42283     20.42934     66.68867         6     0.791     0.510 -46.62   0
       320     31.4649    207.8878 300.1127354 +22.4354550     372.7408     72.50316      1.516     3.70     5.065508     20.42934     40.12671         6     1.012     0.463  31.31   0
       321    250.1082    206.2412 300.1811955 +22.5005213     838.5937       72.411      1.514     2.84     4.872296     20.42934     95.59055        13     1.004     0.783  65.84   0
       322    787.8599    202.9706 300.3495955 +22.6606530     1810.851     72.44788      1.357     2.59     4.389328     20.42934     219.2324        19     1.022     0.973 -84.38   0
       323    852.7322    203.0282 300.3697904 +22.6800887     526.2844     72.39255      1.200     2.73     4.391207     20.42934     87.24841        10     0.898     0.726 -12.20   0
       324    271.2885    199.3651 300.1900094 +22.5048945     562.3512     72.39255      1.307     3.58     4.888602     20.42934     68.94099        11     1.147     0.670  61.45   0
       325    791.8103    194.6839 300.3535143 +22.6594537      783.866      72.3741      1.488     2.81     4.386021     20.42934     119.5506        13     1.111     0.781 -86.67   0
       326    560.9636    195.1073 300.2814922 +22.5904537     356.3766      72.3741      1.301     2.34     4.268458     20.42934     59.19388         8     0.797     0.636  42.84   0
       327    712.3399    193.6859 300.3290831 +22.6353749     1159.543     72.52158      1.273     2.50     4.421933     20.42934     183.7041        17     1.114     0.852  47.59   0
       328    534.1189    190.2182 300.2747233 +22.5810090     349.3509     72.39255      1.379     4.69     4.252525     20.42934     48.41209         8     1.048     0.782  47.18   0
       329    907.7747    185.2919 300.3926988 +22.6914638     1485.147     72.35564      1.396     2.57     4.385831     20.42934     194.0365        20     1.155     0.927  53.29   0
       330    638.5606    185.6072 300.3087289 +22.6109620      951.842     72.44788      1.193     2.17     4.365234     20.42934     139.7601        13     0.897     0.751  56.46   0
       331    919.6456    184.3993 300.3966887 +22.6947598     763.5436       72.411      1.553     3.18     4.378992     20.42934     106.3663        16     1.189     0.885  55.97   0
       332    965.6218    183.1300 300.4114337 +22.7081535     281.4974       72.411      1.320     3.74     4.561214     20.42934     50.51311         6     1.144     0.350  42.55   0
       333      9.7775    173.6676 300.1170998 +22.4191329      340.817       72.411      1.619     4.39      5.12432     20.42934     31.74043         7     0.962     0.570  56.16   0
       334     59.9349    171.5662 300.1333566 +22.4335666     399.8037       72.411      1.423     3.39      5.02049     20.42934      45.0519         7     0.842     0.681 -69.35   0
       335    341.7942    169.4245 300.2216401 +22.5174234     195.7418     72.39255      1.004     3.39     4.880977     20.42934     27.67725         5     0.748     0.446 -20.85   0
       336    270.5431    167.7508 300.2000311 +22.4955938     707.4483     72.46631      1.334     2.94     4.895187     20.42934     109.4755        12     1.008     0.776  46.82   0
       337    132.4307    162.4121 300.1588433 +22.4526700     2115.214       72.411      1.503     2.72      4.92977     20.42934     249.2186        24     1.206     1.034  60.66   0
       338    955.6451    159.6137 300.4159506 +22.6984055     608.5568     72.42944      1.358     2.03     4.541857     20.42934     110.5742        11     0.865     0.729  72.91   0
       339     81.9861    159.1496 300.1442318 +22.4366131     527.8992     72.42944      1.877     5.19     4.993149     20.42934     51.93326         9     1.195     0.637  66.00   0
       340    289.8830    155.7805 300.2099251 +22.4979516     5569.418     72.35564      1.420     2.63     4.894429     20.42934     748.4345        35     1.254     1.069  73.09   0
       341     74.1928    150.2036 300.1447123 +22.4317093     1273.198     72.22632      1.464     3.37     4.993482     20.42934     120.9203        17     1.202     0.877  50.84   0
       342     35.4273    151.4243 300.1322776 +22.4204391     247.4993     72.39255      1.026     3.02     5.039671     20.42934     45.38302         5     0.736     0.466  16.84   0
       343    273.0043    146.6613 300.2076354 +22.4902755     671.4358     72.39255      1.492     3.62     4.895463     20.42934     68.31776        12     0.983     0.913  -1.37   0
       344    491.7053    143.0303 300.2768291 +22.5547492     31.66037     72.31872      0.974     4.60     4.413552     20.42934     32.02989         5     1.058     0.568  13.11   0
       345    933.9804    137.5360 300.4163566 +22.6855738     3576.565     72.39255      1.386     2.38      4.59043     20.42934     490.9675        26     1.164     1.006  78.59   0
       346    483.3191    132.5585 300.2776156 +22.5492290     557.3325      72.3741      1.391     3.78     4.489305     20.42934     83.37992        11     1.189     0.735  48.46   0
       347    236.1705    133.4631 300.2004662 +22.4754487     216.4503     72.42944      1.028     2.73     4.894269     20.42934     48.58441         6     0.780     0.493   7.24   0
       348    598.0235    130.2692 300.3140558 +22.5829216     343.9936       72.411      1.439     3.08     4.585904     20.42934     36.79722         5     0.795     0.484  57.30   0
       349    407.7105    124.3601 300.2567532 +22.5242273      660.718       72.411      1.315     2.84     4.984482     20.42934     86.51575        10     0.977     0.656  46.96   0
       350    412.1001    123.3426 300.2584484 +22.5252498     288.8268     72.50316      1.198     2.40     4.993978     20.42934     50.87481         5     0.733     0.426  20.47   0
       351    173.5670    121.3189 300.1849491 +22.4532017     640.3386     72.39255      1.565     3.65     4.932866     20.42934     68.55085        15     1.063     1.005  63.04   0
       352    534.7708    119.8971 300.2977317 +22.5610002     1731.077     72.33718      1.337     2.41     4.605293     20.42934     252.0815        19     1.010     0.901  61.89   0
       353    462.9529    120.4518 300.2752049 +22.5396511     379.0367     72.44788      1.278     3.07     4.707588     20.42934     57.18661         6     0.768     0.496   3.44   0
       354    596.5130    119.2184 300.3171690 +22.5792936     346.9061     72.35564      1.196     3.26     4.646911     20.42934     52.04854         5     0.739     0.450 -68.15   0
       355     13.1378    119.3759 300.1357480 +22.4045593     323.0462     72.39255      1.450     4.50     4.898561     20.42934     54.40955         6     0.851     0.676  19.19   0
       356    278.3674    115.2766 300.2194793 +22.4828699     433.7146       72.411      1.374     2.08     4.893651     20.42934     61.16074         5     0.685     0.453  71.39   0
       357    823.1975    109.5800 300.3908941 +22.6443824     283.5923     72.33718      1.053     2.41     4.659188     20.42934     44.40148         5     0.703     0.456 -20.69   0
       358    969.4261    103.8727 300.4383237 +22.6864981      443.742       72.411      1.543     3.73       4.8856     20.42934     49.33538         9     0.874     0.778 -41.63   0
       359    308.8545     99.7165 300.2340022 +22.4875351     6047.375     72.44788      1.416     2.48     4.894427     20.42934     842.2635        33     1.201     1.079  70.28   0
       360    815.2523    100.2947 300.3914292 +22.6393348     451.9222     72.48473      1.328     3.61     4.685438     20.42934     53.34364         8     0.920     0.593  -5.45   0
       361    159.9370     99.3837 300.1878261 +22.4428194     678.4415     72.39255      1.379     2.73     4.966459     20.42934     73.88133         9     0.831     0.707  67.56   0
       362    937.6796     97.4624 300.4305045 +22.6751560     182.4432     72.50316      1.063     3.38     4.919128     20.42934     53.72044         6     0.936     0.441  16.37   0
       363      3.7486     96.2318 300.1403363 +22.3951021     653.8714     68.01714      1.438     3.97     4.759934     20.42934     77.70528        11     1.063     0.823 -15.61  24
       364    280.5324     93.6280 300.2271713 +22.4773015     302.1415     72.39255      1.189     3.31     4.893365     20.42934     47.84549         6     0.910     0.426  71.09   0
       365    785.1725     91.3492 300.3849577 +22.6277602     332.0346     72.42944      1.822     5.01     4.670354     20.42934     35.68661         5     0.989     0.718  79.24   0
       366    324.2081     90.7817 300.2416727 +22.4895686     432.6388      72.3741      1.405     3.98      4.89544     20.42934     48.46678         9     0.981     0.746  46.44   0
       367     70.5651     90.4117 300.1629721 +22.4134592      527.455       72.411      1.541     5.18     4.892141     20.42934      51.1357         9     1.060     0.733 -20.66   0
       368    554.9378     84.9909 300.3153258 +22.5570088     6103.163     72.35564      1.376     2.53     4.815143     20.42934     835.9715        32     1.218     1.021  70.44   0
       369    440.1154     84.9878 300.2795987 +22.5226226     386.4014     72.35564      1.177     2.02     4.964883     20.42934     91.56087         9     0.731     0.710  18.49   0
       370    748.8203     76.3185 300.3785064 +22.6125586     219.4565      72.3741      1.139     2.48     4.668301     20.42934     45.16043         6     0.716     0.592  73.42   0
       371    807.3060     74.8895 300.3971903 +22.6296519     799.1472     72.57681      1.503     2.31     4.747218     20.42934     97.08548         9     0.823     0.661  88.84   0
       372    900.1109     73.6041 300.4265288 +22.6570535    -24.21369     72.31872      1.097     2.46     4.898197     20.42934     63.57511         8     0.827     0.627  44.79   0
       373    247.9306     68.7676 300.2250967 +22.4603943     423.9271     72.39255      1.194     1.84      4.87564     20.42934     80.73688         7     0.683     0.615   9.07   0
       374    606.2308     67.4777 300.3369697 +22.5673333     499.2877     72.39255      1.228     2.97      4.77017     20.42934     74.81931         8     0.845     0.717  79.00   0
       375    683.3000     65.1011 300.3617364 +22.5897220     6254.635     72.65038      1.342     2.51     4.837547     20.42934     763.4561        36     1.271     1.020  75.11   0
       376    458.2419     64.2225 300.2919697 +22.5220852     1438.913     72.44788      1.331     2.80     4.877312     20.42934     158.2067        14     1.000     0.802  75.19   0
       377    724.6218     62.4745 300.3754571 +22.6013356     854.4764       72.411      1.342     2.54     4.696056     20.42934     116.9794        12     0.945     0.778 -84.73   0
       378    794.6222     60.3992 300.3979361 +22.6216895     409.0527     72.33718      1.446     3.30     4.776352     20.42934     50.96452         7     0.900     0.572 -58.42   0
       379    740.3240     58.6742 300.3815800 +22.6049429     700.6579     72.50316      1.372     2.68     4.660428     20.42934     97.57896        11     0.962     0.727  31.15   0
       380   1010.4255     56.6799 300.4664092 +22.6851888     522.8661     72.39255      1.410     4.04     4.919128     20.42934      64.5784         9     1.126     0.664  13.10   0
       381    207.1207     56.2336 300.2164762 +22.4445677     723.7676      72.3741      1.576     3.70      4.86136     20.42934      71.1908        12     1.103     0.831  69.48   0
       382     54.2397     56.9304 300.1687555 +22.3989549     331.2237      72.3741      1.442     3.38     4.746079     20.42934     40.32887         7     0.825     0.680 -33.27   0
       383    778.7235     53.7802 300.3951286 +22.6150283      494.444       72.411      1.314     4.58     4.756955     20.42934     65.84874         8     1.332     0.503  54.68   0
       384    742.3871     48.8401 300.3854107 +22.6027330     902.8749       72.411      1.838     3.61     4.667616     20.42934     104.8673        14     1.322     0.690  60.70   0
       385    727.4865     49.9871 300.3803976 +22.5986030     2840.309     72.35564      1.407     2.56      4.69346     20.42934     315.1243        25     1.194     0.966  73.05   0
       386    368.5091     50.8466 300.2683946 +22.4913676     451.1169     72.39255      1.391     3.71     4.945077     20.42934     56.26926         8     0.917     0.635 -24.33   0
       387     21.0754     43.8018 300.1627121 +22.3852464      915.701     72.31872      1.819     3.99     4.586492     20.42934     84.24408        15     1.204     1.090 -83.09   0
       388    814.0403     41.5215 300.4101060 +22.6220724     1530.369     72.39255      1.392     2.53     4.860759     20.42934     233.6105        20     1.071     1.036 -63.64   0
       389    973.9730     40.6995 300.4602229 +22.6696873     224.4812     72.35564      1.184     4.26     4.919128     20.42934      32.3056         7     0.788     0.656   1.52   0
       390    751.9861     34.6803 300.3929908 +22.6015347     856.9029     72.39255      1.503     3.09      4.70698     20.42934     105.6006        14     1.021     0.919  81.77   0
       391    557.5765     34.0481 300.3326615 +22.5431586     1072.923       72.411      1.378     2.75     4.908291     20.42934     117.3268        17     1.127     0.975  61.03   0
       392    130.5292     33.9170 300.1999115 +22.4152101     541.1769     72.53999      1.548     3.09      4.83735     20.42934     82.15235        10     1.064     0.702 -85.60   0
       393    461.3921     32.1745 300.3033383 +22.5138201     594.5523       72.411      1.190     2.77     4.862717     20.42934     88.33559        10     0.960     0.686 -87.56   0
       394    843.6543     31.0485 300.4227288 +22.6279221     347.5736     72.44788      1.162     2.32     4.890475     20.42934     58.09975         7     0.703     0.649  74.70   0
       395    417.3537   1017.0231 299.9697592 +22.7832806     506.1067     72.42944      1.557     4.48     3.781044     20.42934     47.92573        11     1.143     0.681  21.46  16
       396    800.8083     22.9434 300.4120052 +22.6127704     583.7221     72.39255      1.292     2.86      4.92411     20.42934     89.38885        10     0.891     0.791 -45.77   0
       397    363.8050     23.0089 300.2759548 +22.4819614     155.8222      72.2633      0.988     2.71     4.934684     20.42934     43.14231         5     0.783     0.479 -28.86   0
       398     25.2520     22.3988 300.1709460 +22.3803541     478.3148      72.3741      1.735     6.27     4.513733     20.42934     49.54493        10     1.113     0.993 -63.70   0
       399    558.5533     19.6298 300.3376390 +22.5393071     291.0839     72.42944      1.279     3.45     4.931303     20.42934     44.08372         5     0.744     0.462  71.56   0
       400    655.5197     19.3897 300.3679035 +22.5682658     424.2384     72.39255      1.394     3.10     4.923082     20.42934     50.71712         7     0.812     0.685 -22.71   0
       401    233.7343   1011.3459 299.9145254 +22.7265399     2214.686     72.44788      6.053    14.08     71.62447     20.42934     66.45455        54     3.014     1.830 -24.33  19
       402    138.3262    936.2058 299.9093340 +22.6763658     3737.035     72.35564     17.079    49.74     14.68926     20.42934     82.47266       802    10.497     6.540 -38.26   3
       403    281.1019     14.4116 300.2530267 +22.4547198     179.1318     72.30025      0.982     2.36     4.895768     20.42934     40.21968         5     0.706     0.452  21.02   0
       404    760.1411     13.3028 300.4024603 +22.5978284     219.5648     72.48473      1.243     3.01     4.764143     20.42934     42.68903         5     0.731     0.659 -63.98   0
       405    608.6232   1010.0126 300.0315498 +22.8386586     2406.193       72.411      1.855     4.15     2.832104     20.42934     158.1344        31     1.427     1.234  25.01   0
       406    695.0673   1005.4320 300.0599520 +22.8632737     8359.383       72.411      1.891     4.30     3.106331     20.42934     517.8276        45     1.518     1.408  39.55   3
       407    700.6138   1002.9229 300.0624958 +22.8642174     9285.488     72.42944      1.936     4.41     3.119389     20.42934     523.1202        52     1.524     1.461  29.84   3
       408    795.6304   1006.2303 300.0910120 +22.8936608     646.0341      72.3741      1.784     5.40     3.140871     20.42934     46.63391        16     1.312     1.009 -58.20   0
