#   1 NUMBER                 Running object number                                     
#   2 X_IMAGE                Object position along x                                    [pixel]
#   3 Y_IMAGE                Object position along y                                    [pixel]
#   4 ALPHA_J2000            Right ascension of barycenter (J2000)                      [deg]
#   5 DELTA_J2000            Declination of barycenter (J2000)                          [deg]
#   6 FLUX_APER              Flux vector within fixed circular aperture(s)              [count]
#   7 FLUXERR_APER           RMS error vector for aperture flux(es)                     [count]
#   8 FLUX_RADIUS            Fraction-of-light radii                                    [pixel]
#   9 FWHM_IMAGE             FWHM assuming a gaussian core                              [pixel]
#  10 BACKGROUND             Background at centroid position                            [count]
#  11 THRESHOLD              Detection threshold above background                       [count]
#  12 FLUX_MAX               Peak flux above background                                 [count]
#  13 ISOAREA_IMAGE          Isophotal area above Analysis threshold                    [pixel**2]
#  14 A_IMAGE                Profile RMS along major axis                               [pixel]
#  15 B_IMAGE                Profile RMS along minor axis                               [pixel]
#  16 THETA_IMAGE            Position angle (CCW/x)                                     [deg]
#  17 FLAGS                  Extraction flags                                          
         1    772.4821     10.5938 300.4119762 +22.6127718     582.9348     72.22052      1.186     2.71     5.415865     20.39639     92.25694        10     0.981     0.666  20.37   0
         2    204.4490      9.5669 300.2354544 +22.4424759     3748.271     72.33103      1.644     2.93     5.927612     20.39639     432.9386        34     1.371     1.146  64.77   0
         3    530.5170      7.6321 300.3375479 +22.5395286     352.8288      72.2758      1.335     3.45     4.919304     20.39639     51.37494         5     0.758     0.453  69.77   0
         4    626.9495      6.5136 300.3679459 +22.5680618     224.5524     72.29421      1.278     3.61     5.472159     20.39639     45.37896         5     0.754     0.626 -81.94   0
         5    765.9138      2.4482 300.4125680 +22.6084637     775.2898     62.28352      1.215     2.65     5.473822     20.39639     122.3673        15     1.026     0.827   3.84  24
         6    320.5644      2.0880 300.2739941 +22.4750930     1063.156     60.39537      1.293     2.85      5.44687     20.39639     149.8669        16     1.136     0.788   1.22  24
         7    201.5730   1001.6623 299.9124654 +22.7263497     1343.397     72.29421      3.311     9.53     79.59237     20.39639     54.86275        18     1.815     1.395 -34.13   3
         8    281.8839   1020.0251 299.9314637 +22.7557119     2696.508     71.53525      6.703    37.64     32.32708     20.39639     64.34393       204     8.845     4.447  43.02  27
         9    233.5683    992.2089 299.9254888 +22.7332400     4479.836     72.29421      9.690    40.95     60.81836     20.39639     85.32789       484     9.540     4.879 -85.72  19
        10    271.8809    980.3488 299.9412609 +22.7413346     9256.436     72.31263     11.979    41.36      27.8388     20.39639      177.431      1061    13.514     5.834  68.97  19
        11    109.2249    923.1652 299.9092936 +22.6761351     4107.471     72.31263     18.225    53.25     11.36862     20.39639     1244.977       910    11.467     6.861 -32.26   3
        12    123.4540   1014.4621 299.8840186 +22.7065751     2719.525     72.34943     13.001    69.27     91.36098     20.39639      110.417      1074    18.240     7.300  40.97  27
        13    766.9745    993.7492 300.0910397 +22.8936448     691.4624     72.31263      2.030     7.46     3.760763     20.39639     47.05882        16     1.350     1.260  73.70   0
        14    959.2772    976.6784 300.1565543 +22.9463698     786.7994     72.40462      1.967     7.40     3.715356     20.39639     43.68148        19     1.288     1.190 -84.47   0
        15    252.9092    990.9017 299.9319281 +22.7386683     6558.132     72.47813     12.416    48.70     45.98252     20.39639     120.7178       771    11.183     6.848 -77.84  19
        16    198.0517    978.4992 299.9189060 +22.7186526     1096.565     72.38623      3.984     7.52      60.7548     20.39639     38.37425        12     1.491     1.063 -55.41   2
        17    520.5104   1007.5289 300.0097824 +22.8237071      287.853     72.45975      1.129     3.69        3.628     20.39639     30.94365         6     0.967     0.404 -70.42   0
        18     14.3165    979.9036 299.8613506 +22.6639132     1674.192     72.45975      9.328    30.61    -9.682651     20.39639     66.47463       119     6.381     4.078 -14.11  19
        19      4.8903   1015.4880 299.8468466 +22.6712806     3419.117     71.53525     11.507    50.94    -30.71971     20.39639     72.75406       481    10.800     6.669 -74.35  27
        20    684.8911    959.8179 300.0765003 +22.8593019     6924.361     72.22052      1.893     4.13     3.709607     20.39639     441.1887        46     1.476     1.428  18.75   0
        21    565.7003    954.0963 300.0412361 +22.8219276     463.8306     72.49649      1.821     4.23     3.718924     20.39639     37.51133         7     0.884     0.576  61.99   0
        22    111.0074    955.1185 299.8994551 +22.6858297     4898.812     72.22052     21.896    88.58      36.2032     20.39639     234.7437      2566    15.387    14.148   4.93  19
        23    158.3073    957.6920 299.9133191 +22.7007615     1255.825     72.45975      6.709    15.23     50.18762     20.39639     53.07798        31     4.205     1.533  43.51   3
        24    593.3200    950.5682 300.0509850 +22.8291961     1453.912     72.29421      1.806     4.27       3.7552     20.39639     112.0276        22     1.374     1.094 -23.29   0
        25    487.1386    947.0507 300.0190682 +22.7963496     1047.415     72.34943      1.775     4.69     3.489894     20.39639     80.33262        20     1.266     1.171 -87.27   0
        26    417.8499    944.9647 299.9981811 +22.7749722     6733.504     72.31263      1.827     4.00     3.696055     20.39639     504.1689        42     1.427     1.381 -62.06   0
        27    178.4735    962.3305 299.9180790 +22.7081425     1134.009     72.36784      3.650    12.74     51.20263     20.39639     44.83154        33     2.731     1.655  29.33   0
        28    450.2866    931.5582 300.0126366 +22.7808540     505.6498      72.2758      1.812     6.35     3.615656     20.39639     42.16871        11     1.199     0.946  75.43   0
        29    964.1341    923.7785 300.1752783 +22.9326327     2305.039     72.27579      2.107     5.46     3.891351     20.39639     108.8831        34     1.530     1.435 -77.69   0
        30    204.5952    983.8859 299.9191880 +22.7221603      715.048     72.22052      4.988     4.69     64.44453     20.39639     46.47186         5     1.897     0.329  68.08   3
        31    614.4468    921.2116 300.0671138 +22.8271051     387.6321     72.31263      1.647     5.38      3.72388     20.39639      36.1274         9     1.084     0.754  -3.44   0
        32    184.5174   1012.7966 299.9035407 +22.7244234     155.5137     72.22052      1.548     3.77     91.35206     20.39639     30.76817         5     1.048     0.390  -5.99   0
        33    752.6198    912.7472 300.1129162 +22.8660903     799.0613      72.2758      2.031     7.80      3.77611     20.39639     42.31889        18     1.506     1.131  66.88   0
        34    201.4514    984.2407 299.9180952 +22.7213187     1597.102     72.31263      4.322     9.61     65.12263     20.39639     59.75874        20     2.578     0.999  87.84   3
        35    787.6839    906.8129 300.1257750 +22.8748944     1134.174     72.23895      1.827     5.13     3.710169     20.39639      75.3438        24     1.403     1.203 -55.94   0
        36    565.1430    907.8975 300.0560892 +22.8085037     390.3246     72.38623      1.522     4.85     3.700321     20.39639     42.17886         9     1.130     0.683  -6.99   0
        37    810.0046    900.6381 300.1347412 +22.8798099     11437.06     72.31263      1.838     4.25     3.692176     20.39639     743.2414        56     1.500     1.442  46.76   0
        38    999.7540    902.0236 300.1934667 +22.9370539     351.8175     72.31263      1.582     4.29     4.085467     20.39639     34.97691         5     1.363     0.384  81.44   0
        39      3.6857    996.2630 299.8527267 +22.6654101         2713     67.73077     10.755    22.40    -24.20436     20.39639     71.07809       132     5.125     2.718  85.84  27
        40    855.5694    900.5371 300.1489796 +22.8934335     438.0428     72.31263      1.826     4.59     3.692176     20.39639     33.22963         6     1.186     0.551  44.67   0
        41    579.9630    997.4189 300.0315837 +22.8386344     2239.683     72.29421      1.872     4.91     3.821668     20.39639     161.7306        28     1.373     1.307  62.28   0
        42    121.5362    892.0625 299.9232343 +22.6709125     1060.729     72.33103      4.269     5.68      10.2924     20.39639     68.98838        16     1.387     1.167  53.56   0
        43    515.3694    888.4609 300.0469125 +22.7880037     428.2829     72.33103      1.467     4.76     3.804002     20.39639     51.72359         8     0.943     0.716 -87.96   0
        44     92.6063    885.5773 299.9163525 +22.6603726     687.5691      72.2758      3.049     4.33      6.05627     20.39639     39.50153         7     0.966     0.553  60.69   0
        45    818.4748    882.7306 300.1432056 +22.8772061      1511.67     72.36784      1.835     4.99     3.729442     20.39639     98.46082        27     1.435     1.314  -7.78   0
        46    666.5800    992.6239 300.0601227 +22.8632277     8619.819     72.29421      1.963     4.56     3.736431     20.39639     472.9456        49     1.568     1.437  58.28   3
        47   1002.9570    881.5826 300.2011141 +22.9321416      279.412     72.31263      1.809     4.19      4.08411     20.39639     26.70272         5     1.133     0.442  65.09   0
        48   1000.1069    881.8737 300.2001302 +22.9313716     309.6354       72.423      1.620     5.15     4.075771     20.39639      44.9154         5     1.214     0.616  72.70   0
        49    670.2332    879.8583 300.0979407 +22.8319577     502.8851     72.31263      1.941     5.81      3.75317     20.39639     37.47568         9     1.140     0.841  23.02   0
        50    856.7642    876.2227 300.1572597 +22.8868093     905.8105     72.31263      2.178     6.26     3.743934     20.39639     52.72126        14     1.155     0.953  54.61   0
        51    905.4749    867.6162 300.1752481 +22.8989304     610.2573     72.29421      1.906     6.49     3.872979     20.39639     38.37471        13     1.557     0.759  63.30   0
        52    756.6505    866.4601 300.1292257 +22.8540093     777.1206     72.34943      1.801     6.54     3.889669     20.39639      46.7535        17     1.209     1.102  10.06   0
        53    766.0571    863.9437 300.1329758 +22.8561055     1240.762     72.36784      1.311     5.97     3.867886     20.39639     656.8821        14     1.544     0.650  -6.69   0
        54    469.1454    862.7163 300.0408945 +22.7667575     4159.658     72.34943      1.701     3.47      4.17794     20.39639     392.0319        32     1.295     1.251 -60.14   0
        55    672.1620    990.5632 300.0625322 +22.8643098     9754.253     72.36784      1.991     4.79     3.721182     20.39639      582.457        54     1.575     1.518  13.74   3
        56    194.5579    848.4540 299.9601120 +22.6803162     708.6077     72.29421      1.725     3.45     6.600625     20.39639     92.19921        17     1.136     1.070  -7.90   0
        57    171.3231    845.1613 299.9539593 +22.6724017     1595.092     72.27579      1.885     3.99     6.881228     20.39639     147.2246        27     1.442     1.299  81.30   0
        58    103.6337    846.3249 299.9325419 +22.6524276     245.4712     72.29421      1.065     2.73     5.195706     20.39639     44.29129         5     0.724     0.444 -70.90   0
        59    997.5118    833.1897 300.2151520 +22.9166088     2119.598     72.23895      1.810     4.25      4.05778     20.39639     150.3461        30     1.377     1.289 -41.45   0
        60     46.2610    834.8724 299.9184376 +22.6319296     498.9646     72.33103      2.022     4.43     4.767461     20.39639     31.50286         7     0.911     0.612  59.27   0
        61    702.8544    832.8276 300.1233973 +22.8282325     512.7769     72.29421      2.023     5.47     3.904345     20.39639     32.12415         5     1.458     0.579 -20.62   0
        62    781.1642    826.7697 300.1497719 +22.8499579     785.4353     72.31263      1.825     4.03     3.898342     20.39639     66.78163        14     1.127     0.897  86.35   0
        63    203.6001    826.6716 299.9700049 +22.6767817     306.0717      72.1652      1.579     5.74      5.65623     20.39639     39.91109         9     1.190     0.780  56.23   0
        64    649.0872    820.9006 300.1105236 +22.8086955     4923.112     72.45975      1.593     3.43     3.981132     20.39639     417.1682        33     1.249     1.226  57.73   0
        65    139.2466    820.5806 299.9519797 +22.6557301      353.588     72.33103      1.558     5.99     5.461967     20.39639     30.53891         8     1.230     0.822  59.55   0
        66    451.1491    817.9877 300.0498356 +22.7485272     608.7936     72.33103      1.443     3.92     4.344986     20.39639     67.01488        12     1.038     0.859 -57.41   0
        67    199.2908    814.4380 299.9726422 +22.6719805     1373.872      72.2758      1.843     4.01     5.199254     20.39639     127.1773        22     1.373     1.173  65.71   0
        68    669.6175    813.4295 300.1193484 +22.8127032     679.2141      72.2758      1.605     4.01       3.9301     20.39639     60.95092        15     1.056     0.958  12.39   0
        69    218.9880    811.6028 299.9796880 +22.6770756     406.1653     72.10984      1.398     4.39     5.022223     20.39639     46.47594         8     0.903     0.608 -89.06   0
        70     97.5732    809.4191 299.9426562 +22.6400273     3912.419     72.31263      0.844     3.08     4.799768     20.39639     1598.195        10     0.804     0.344 -43.14   0
        71    586.0477    804.2403 300.0963045 +22.7850196     243.2385     72.34943      1.774     4.73     4.253674     20.39639     26.87589         5     0.959     0.663  28.73   0
        72    825.1953    800.6074 300.1720036 +22.8556361     4264.629     72.14675      1.672     3.66     4.013844     20.39639     367.2223        33     1.293     1.231 -87.99   0
        73    556.6112    797.4493 300.0893452 +22.7742473      180.489     72.31263      1.279     4.51     4.287637     20.39639     31.54095         5     0.973     0.778 -84.19   0
        74    542.1367    793.2870 300.0861911 +22.7687141        698.4     72.40462      1.640     4.35     4.302314     20.39639     69.85957        14     1.219     0.834  88.97   0
        75    233.3745    794.6755 299.9896639 +22.6765354     462.8674     72.31263      1.548     3.79      4.64982     20.39639     66.69382         9     1.181     0.774 -86.32   0
        76    188.5926    791.0613 299.9769150 +22.6620670     963.3383     72.27579      1.536     3.72     4.674017     20.39639     95.81099        17     1.080     1.046 -74.25   0
        77    603.4652    786.3122 300.1075572 +22.7850933     421.4469     72.38623      1.508     5.55      4.30812     20.39639     42.60542        10     1.090     0.868  49.07   0
        78    338.0862    783.0659 300.0260056 +22.7046070     53763.58     72.38623      1.616     3.24     4.606637     20.39639     5280.852        89     1.432     1.399  66.70   0
        79    596.0580    782.1805 300.1065933 +22.7816873     1709.725     72.27579      1.534     3.25     4.317308     20.39639     146.5032        21     1.100     1.052  -3.02   0
        80   1008.8206    781.5547 300.2354679 +22.9051603     856.0701     72.34943      1.648     4.94     4.144233     20.39639     78.56016        17     1.208     0.960  11.84   0
        81    266.7629    781.1697 300.0044369 +22.6826748     476.8016     72.31263      1.622     6.92     4.616024     20.39639      51.3616        12     1.445     0.940  22.49   0
        82    625.0048    778.1990 300.1169035 +22.7892193     886.7488     72.10984      1.437     3.93     4.260684     20.39639      85.3333        15     1.212     0.881 -82.20   0
        83     24.2692    777.7979 299.9301576 +22.6089676     789.1885     72.25738      1.709     4.13     4.759476     20.39639     88.24866        11     1.349     0.562 -16.46   0
        84    635.8929    776.5184 300.1208414 +22.7919997      671.149     72.44138      1.713     4.35     4.221268     20.39639     57.62858        13     1.084     0.916  88.38   0
        85    955.9854    774.0020 300.2214397 +22.8871683     212.5866      72.1283      1.269     2.18     4.250652     20.39639     48.58814         6     0.940     0.718  17.96   0
        86    741.1372    773.2124 300.1547078 +22.8225858     434.4116     72.27579      1.598     4.94     4.105907     20.39639     35.31262         8     1.065     0.672  -2.79   0
        87    536.8215    770.1838 300.0920460 +22.7604895     333.8972     72.27579      1.528     3.81      4.36251     20.39639     39.55845         6     0.778     0.544 -48.89   0
        88    778.6083    762.9097 300.1697355 +22.8308531     828.4309     72.20209      1.740     6.15     4.227058     20.39639     73.45573        14     1.365     0.903  54.61   0
        89    387.8258    760.3173 300.0488752 +22.7129933     31439.85     72.27579      1.587     3.16     4.467581     20.39639     2721.836        69     1.358     1.320  86.66   0
        90    402.1371    760.8301 300.0531619 +22.7174311     1856.512     72.31263      1.524     3.12     4.454699     20.39639      222.182        24     1.199     1.071 -10.09   0
        91    911.0825    756.3827 300.2131613 +22.8686588     2969.872     72.25738      1.684     3.46     4.389984     20.39639     229.2897        31     1.270     1.239 -11.94   0
        92    398.9790    754.9238 300.0540988 +22.7147894     666.8514     72.29421      1.960     5.79     4.450636     20.39639     48.06333        12     1.058     0.893  89.06   1
        93    941.8105    754.7938 300.2232619 +22.8774047     282.3584      72.1652      1.745     4.02     4.379106     20.39639     29.79841         5     0.756     0.684 -54.78   0
        94    668.7662    752.4944 300.1388912 +22.7949527     815.1871      72.2758      1.438     3.57     4.224426     20.39639     87.82684        17     1.097     1.021  17.85   0
        95    270.4008    752.2320 300.0149736 +22.6754642     811.1348     72.25738      1.633     3.72     4.532722     20.39639     87.63767        16     1.220     0.940 -16.43   0
        96    505.0941    752.5690 300.0878930 +22.7459236     439.5475     72.22052      1.505     3.95     4.414645     20.39639     52.48852         6     0.997     0.448 -13.75   0
        97    516.1777    746.9016 300.0931857 +22.7476190     902.0283     72.22052      1.452     3.39     4.420952     20.39639     79.73912        17     1.177     0.881  64.82   0
        98     74.9507    747.6079 299.9557162 +22.6155160      438.608     72.29421      1.610     6.66     4.742068     20.39639     44.74014        15     1.273     1.184  24.92   0
        99    916.8942    744.1062 300.2189642 +22.8668724     444.5346     72.45975      1.590     4.86     4.461627     20.39639     41.78576         8     0.852     0.787  70.71   0
       100    461.6019    742.2709 300.0777009 +22.7299312     420.4105     72.23895      1.377     3.18     4.435617     20.39639     54.45548         9     0.914     0.740 -65.07   0
       101    418.0520    743.5681 300.0637249 +22.7172486     241.6724     72.31263      1.293     3.93     4.438714     20.39639     40.21525         5     0.903     0.489  -5.92   0
       102    374.1842    743.0844 300.0502313 +22.7039583     260.1829     72.25738      1.339     3.92     4.432464     20.39639     48.43361         6     0.914     0.482 -48.40   0
       103    103.9600    741.9288 299.9665767 +22.6225895     531.6095     72.27579      1.893     4.06     4.713859     20.39639     50.11374         7     1.118     0.552 -28.69   0
       104    670.3350    741.5408 300.1429401 +22.7922775     358.9193     72.33103      1.592     4.13     4.274421     20.39639     31.41168         7     1.003     0.485   7.41   0
       105    894.4084    739.3282 300.2135044 +22.8587655      310.218      72.2758      1.337     4.64     4.491478     20.39639     38.15551         7     0.904     0.677 -18.15   0
       106    268.1416    736.3503 300.0194323 +22.6702305     534.8953     72.34943      1.549     3.83     4.487449     20.39639     67.23691        11     1.131     0.822 -63.03   0
       107    591.3715    726.9609 300.1230813 +22.7644299     513.5825     72.33103      1.635     4.02     4.418433     20.39639     48.37197        10     1.030     0.804 -84.91   0
       108    977.4617    721.7951 300.2451085 +22.8785990     4585.109     72.27579      1.700     3.69     4.435942     20.39639     358.7029        36     1.386     1.258  60.73   0
       109    561.1404    725.2354 300.1142273 +22.7548750     516.0337     72.31263      1.448     4.54     4.446698     20.39639     68.87764        12     1.285     0.679   0.37   0
       110    470.9090    724.0987 300.0865037 +22.7275052     281.4458     72.47813      1.270     4.49     4.437751     20.39639     35.95636         6     1.002     0.571 -44.53   0
       111    582.9638    722.6669 300.1218583 +22.7606776     1399.367     72.29421      1.402     2.87     4.428257     20.39639     152.3944        17     1.024     0.943 -26.32   0
       112    502.6559    721.8536 300.0971162 +22.7363762     425.6656     72.33103      1.647     5.68     4.448439     20.39639     39.41143         8     1.049     0.867  37.79   0
       113    665.1097    717.8735 300.1490038 +22.7839158     244.4149     72.45975      1.289     3.83     4.309064     20.39639     42.83569         5     0.789     0.534  36.84   0
       114    965.9847    713.2146 300.2443167 +22.8726969     1746.616     72.23895      1.697     3.87     4.451406     20.39639     130.0961        24     1.218     1.172  79.84   0
       115    328.8446    706.6948 300.0479507 +22.6799228     940.8411     72.31263      1.578     3.24     4.406996     20.39639     100.4745        16     1.144     0.889 -25.30   0
       116    194.1690    707.4739 300.0058137 +22.6397634     177.8392     72.31263      1.087     3.46     4.477602     20.39639      41.1064         5     0.815     0.424  22.26   0
       117    997.0020    703.2762 300.2572233 +22.8791281     1730.736     72.20209      1.756     3.53     4.407827     20.39639     129.0451        27     1.357     1.179  76.95   0
       118    792.3232    704.3941 300.1930285 +22.8181545     2640.281     72.20209      1.630     3.13     4.430542     20.39639     221.4199        27     1.352     1.069   5.12   0
       119     14.9099    694.6967 299.9542546 +22.5823312     729.8839     72.47813      1.467     3.59     4.760828     20.39639     91.74828        12     1.145     0.758 -24.89   0
       120    874.4112    690.4094 300.2231663 +22.8387226     583.5073     72.18365      1.576     6.06     4.489067     20.39639     57.83803        11     1.357     0.799 -13.87   0
       121    177.3761    690.7781 300.0060178 +22.6299378     680.0311     72.25738      1.630     5.17     4.482045     20.39639     57.86556        14     1.267     0.836 -21.62   0
       122    910.6758    681.2764 300.2374435 +22.8469582     149133.8     72.38623      1.630     3.22     4.497822     20.39639     13658.39       152     1.490     1.446  73.92   0
       123    672.8819    685.1445 300.1620608 +22.7768456     260.2837     72.33103      1.297     4.20     4.295623     20.39639     48.04556         8     0.970     0.678  67.28   0
       124    763.0348    681.5225 300.1913314 +22.8028119     709.8912     72.25738      1.334     2.73     4.327542     20.39639     77.97997        12     0.929     0.780  82.91   0
       125    943.2123    674.3854 300.2498310 +22.8547206     404.3379     72.22052      1.504     4.99     4.483738     20.39639     43.52947         9     0.929     0.759  66.25   0
       126    596.9446    670.0757 300.1433018 +22.7497668     1589.588     72.33103      1.398     3.19     4.440126     20.39639      164.132        20     1.146     0.977  66.02   0
       127    778.1467    667.3490 300.2006470 +22.8032670     9537.722     72.33103      1.470     2.84     4.374927     20.39639     1028.035        41     1.239     1.191 -64.81   0
       128    279.6328    662.3899 300.0470381 +22.6524550     5136.825     72.29421      1.603     2.97     4.366961     20.39639     548.9794        37     1.291     1.200  63.22   0
       129    361.5953    660.4767 300.0731567 +22.6764775     1201.717     72.20209      1.506     3.16     4.388158     20.39639     124.6717        18     1.115     1.018  79.77   0
       130    237.0809    657.9053 300.0352615 +22.6384100     488.5141     72.44138      1.570     6.67     4.387824     20.39639     43.83707        12     1.220     1.064 -43.52   0
       131    569.9911    655.8744 300.1395214 +22.7376128     743.1087     72.27579      1.407     3.12     4.530513     20.39639     85.26474        11     0.891     0.801  64.39   0
       132    561.6329    648.1647 300.1394232 +22.7328946      3332.19     72.31263      1.390     2.57     4.560185     20.39639     406.7815        26     1.093     1.091 -19.38   0
       133    551.8082    641.9343 300.1383879 +22.7281618     1505.032     72.29421      1.429     3.10     4.586759     20.39639     171.2463        16     1.067     0.906  61.24   0
       134    480.4010    641.4289 300.1163195 +22.7066188     372.3131     72.25738      1.578     4.18     4.537585     20.39639     36.97363         7     1.047     0.477  -8.18   0
       135    945.4193    640.0385 300.2616791 +22.8455111     546.2646     72.31263      1.878     3.47     4.480927     20.39639     48.84425         8     1.055     0.668  20.32   0
       136    215.4512    638.1780 300.0349443 +22.6262643     562.3453     72.29421      1.533     5.43     4.451954     20.39639     51.92445        11     1.080     0.930  67.99   0
       137    229.2946    636.6002 300.0397614 +22.6299623     758.7772      72.1652      1.823     4.02       4.4301     20.39639     65.22309        12     1.110     0.830 -29.00   0
       138    998.6968    633.2217 300.2805147 +22.8595020     560.8267     72.22052      1.551     4.33     4.405015     20.39639     56.36979         8     1.045     0.656  85.61   0
       139    476.6245    631.7148 300.1182995 +22.7026982     1730.165     72.25738      1.385     2.82     4.557934     20.39639     213.4675        18     1.040     0.967  42.55   0
       140    255.0890    632.9562 300.0489665 +22.6366504     567.4355     72.31263      1.489     4.70     4.405592     20.39639     59.35667        11     1.178     0.774  27.19   0
       141    575.8961    632.0981 300.1490846 +22.7325548      474.713     72.47813      1.447     3.93     4.568677     20.39639     55.63257         8     0.907     0.722  63.27   0
       142    510.3755    631.0809 300.1290128 +22.7126303     317.2321     72.27579      1.463     4.78     4.589797     20.39639     37.61769         7     1.035     0.626 -73.99   0
       143    130.5603    626.4279 300.0123700 +22.5974379     19961.81     72.34943      1.698     3.24     4.626166     20.39639     2083.872        61     1.443     1.345  51.78   0
       144    561.6893    626.8004 300.1463813 +22.7267769     1150.229     72.20209      1.540     3.52       4.5964     20.39639     117.2126        19     1.191     1.055  86.63   0
       145     51.8453    628.1248 299.9873566 +22.5743177     775.6455     72.27579      1.955     4.38       4.5385     20.39639     68.90421        14     1.313     0.867  -8.12   0
       146    596.2947    626.2364 300.1573418 +22.7369832     481.6568     72.29421      1.929     3.01     4.557011     20.39639     46.05295         6     0.734     0.610 -28.14   0
       147    314.9229    618.6613 300.0722204 +22.6504856     355.3371     72.34943      1.360     2.87     4.378594     20.39639     37.83153         7     0.728     0.657  10.15   0
       148    644.6130    614.6712 300.1761495 +22.7481371     219.8928     72.29421      1.272     3.43     4.470778     20.39639     39.61812         5     0.738     0.461  74.04   0
       149    979.8155    613.3484 300.2810800 +22.8481377     1064.442     72.31263      1.668     3.97     4.431725     20.39639     101.5225        17     1.234     0.931  -0.73   0
       150     76.4641    610.6368 300.0006867 +22.5766849     1605.681     72.29421      2.063     4.62     4.561083     20.39639       116.18        28     1.518     1.297  88.27   0
       151    846.5027    611.1588 300.2402122 +22.8075947     499.2754     72.27579      1.503     4.05     4.531103     20.39639     49.68405        12     1.099     0.804  64.48   0
       152    142.6523    611.0376 300.0211275 +22.5966486      484.671     72.31263      1.617     3.59     4.621243     20.39639     51.46223         9     1.023     0.702 -19.81   0
       153    524.8482    607.3958 300.1412126 +22.7101663     376.3415     72.27579      1.177     4.42     4.646933     20.39639     48.64627         7     1.022     0.544  24.73   0
       154    919.0468    605.8907 300.2645464 +22.8278017     1015.258     72.27579      2.320     7.91      4.51053     20.39639     67.77714        19     1.874     0.934  -1.20   0
       155    317.4962    606.4230 300.0769961 +22.6477445      394.368     72.20209      1.541     4.36     4.381147     20.39639     46.19032         5     0.951     0.569 -44.99   0
       156    664.5699    604.2955 300.1857372 +22.7511352     200.5247     72.23895      1.147     3.44     4.456795     20.39639     36.30362         5     0.784     0.435 -68.81   0
       157    481.5610    599.7914 300.1302059 +22.6950120      689.582     72.31263      1.428     2.79     4.646002     20.39639     93.77556        12     0.960     0.782 -19.82   0
       158    630.0126    598.2299 300.1769418 +22.7390412     443.9265     72.29421      1.398     3.90     4.599104     20.39639     49.47732        10     1.040     0.746  84.32   0
       159    677.0366    596.9017 300.1920230 +22.7527457     479.0131     72.29421      1.565     3.32     4.477423     20.39639     60.06479         9     0.920     0.744 -74.90   0
       160    647.4769    596.6291 300.1829022 +22.7438130     489.7025      72.2758      1.055     2.24     4.555261     20.39639     77.00684         9     0.788     0.707 -64.13   0
       161    526.1772    595.7504 300.1454090 +22.7072206     929.3007     72.29421      1.483     4.06     4.682937     20.39639     105.6869        13     1.244     0.839  39.76   0
       162    959.7606    591.3987 300.2819536 +22.8358252     3285.579     72.31263      1.565     3.12     4.438999     20.39639     305.9289        30     1.221     1.191  57.46   0
       163    491.4303    591.1221 300.1360941 +22.6954802     1734.427     72.27579      1.392     2.66     4.661247     20.39639     199.4906        20     1.041     1.006  72.39   0
       164    856.8278    588.1065 300.2509197 +22.8040622     366.4317     72.20209      1.748     5.99     4.552563     20.39639     42.74585         9     1.160     0.869 -24.16   0
       165    466.9705    586.4325 300.1300028 +22.6868043     318.9757     72.29421      1.397     3.48     4.599285     20.39639     44.68639         6     0.979     0.667  58.18   0
       166     53.2976    584.6050 300.0019425 +22.5622698     5065.913     72.20209      1.756     3.17     4.445965     20.39639     545.4257        40     1.438     1.305  32.08   0
       167    998.9744    581.5121 300.2973989 +22.8447218      261.623     72.23895      1.238     3.12     4.347092     20.39639     38.93705         6     0.777     0.500   1.56   0
       168    520.4734    581.4624 300.1482737 +22.7014087     330.7124     72.33103      1.573     3.93     4.721736     20.39639     46.43787         7     0.997     0.710   2.39   0
       169    354.7800    577.8219 300.0978846 +22.6507103     9185.931     72.29421      1.473     2.86     4.404527     20.39639     1110.098        39     1.246     1.132  56.06   0
       170    477.2668    574.9201 300.1369470 +22.6865841     8985.374     72.40462      1.389     2.59     4.643394     20.39639     1120.596        41     1.179     1.150 -72.42   0
       171    447.3675    575.3846 300.1274891 +22.6777581     274.5293      72.2758      1.123     3.79     4.525191     20.39639     31.74409         5     1.016     0.407  73.86   0
       172    882.1320    573.0171 300.2637114 +22.8073021      322.123     72.29421      1.411     3.77     4.548237     20.39639     35.69066         5     0.820     0.497  28.22   0
       173    242.6261    571.9753 300.0648971 +22.6154143     382.4392     72.25738      1.503     3.81     4.447785     20.39639     32.75558         6     0.834     0.628  52.76   0
       174    723.2542    571.3888 300.2147111 +22.7592595     312.4567     72.29421      1.221     3.01     4.549311     20.39639     36.19143         5     0.716     0.464  15.98   0
       175    888.9829    568.9829 300.2671582 +22.8081939     2053.003     72.25738      1.519     3.22     4.540089     20.39639     182.2486        25     1.221     1.052  57.37   0
       176    973.6636    566.4084 300.2944078 +22.8328039     12745.78      72.2758      1.586     3.01      4.37513     20.39639     1291.611        48     1.312     1.274 -67.94   0
       177    537.8647    564.4914 300.1592006 +22.7017458     11855.86     72.40462      1.369     2.50     4.819899     20.39639     1571.505        40     1.160     1.123  75.82   0
       178    707.4681    560.4164 300.2133553 +22.7513795     587.1023     72.29421      1.326     2.64     4.627352     20.39639     70.82803         9     0.904     0.673  45.68   0
       179    265.3938    559.6835 300.0759695 +22.6187116     1602.856     72.22052      1.593     3.11     4.404082     20.39639     168.0972        24     1.316     1.113   2.26   0
       180    423.3367    558.9546 300.1253455 +22.6658397     428.6814     72.31263      1.477     3.90      4.43145     20.39639     41.77861         6     0.972     0.448  79.90   0
       181    511.9870    557.5199 300.1534072 +22.6919907     448.4023      72.2758      1.373     3.49     4.763832     20.39639     48.59137         7     0.911     0.626 -16.27   0
       182    469.5294    552.6213 300.1417801 +22.6778628     4399.493     72.31263      1.387     2.41     4.625794     20.39639     622.4324        31     1.165     1.121  35.83   0
       183    812.3475    552.9900 300.2484566 +22.7806527     830.4028     72.29421      1.387     2.73     4.498038     20.39639      107.769        12     0.927     0.795  47.71   0
       184    447.7993    551.1145 300.1355053 +22.6709190     1288.362     72.18365      1.379     2.71       4.5355     20.39639     169.5006        17     1.038     0.873  74.39   0
       185    201.9256    550.4070 300.0592451 +22.5970231      741.473     72.23895      1.500     3.67     4.505171     20.39639     79.43947        14     1.246     0.902 -10.35   0
       186    889.3937    548.3333 300.2739928 +22.8023821      1504.05     72.29421      1.533     3.39      4.54285     20.39639     146.6376        23     1.245     1.039 -46.99   0
       187    135.7246    548.5892 300.0392547 +22.5766538     318.2417     72.31263      1.621     3.87      4.57709     20.39639     39.46099         5     1.009     0.425  15.70   0
       188    989.9470    547.3813 300.3056676 +22.8322084     248.4829      72.2758      1.679     3.89     4.298787     20.39639     28.31554         5     0.896     0.484   2.76   0
       189    586.1786    540.2441 300.1821206 +22.7092557     202077.2     72.34943      1.365     2.53     4.981753     20.39639     22721.03       201     1.439     1.397   9.85   0
       190    769.7612    545.3414 300.2376651 +22.7657031     851.3387     72.31263      1.333     3.00     4.529946     20.39639     95.98211        10     0.854     0.785  21.04   0
       191    409.9134    546.5922 300.1251824 +22.6582678     382.7939     72.20209      1.357     3.44       4.4068     20.39639     42.36314         5     0.775     0.442  19.79   0
       192    272.2694    540.0975 300.0844680 +22.6151510     3601.883       72.423      1.503     2.93     4.401707     20.39639     412.2993        28     1.182     1.136  78.23   0
       193    838.0469    536.6268 300.2617830 +22.7836452     638.0698     72.33103      1.368     2.46     4.542222     20.39639     83.98598         8     0.877     0.604 -39.80   0
       194    476.6989    524.3605 300.1531889 +22.6718957     231.6898     72.29421      1.149     2.16     4.685538     20.39639     47.63746         5     0.659     0.485 -10.90   3
       195    476.7807    520.4600 300.1544808 +22.6708001     2541.827     72.23895      1.333     2.53      4.69063     20.39639      343.061        21     1.105     0.926  83.23   2
       196    412.0405    524.2441 300.1331011 +22.6524887     3188.916     72.36784      0.853     2.28     4.492079     20.39639     1009.636         9     0.890     0.442  58.01   2
       197    411.7858    520.5976 300.1342059 +22.6513654     1714.558      72.1283      0.708     0.94     4.504253     20.39639     773.3333         7     0.528     0.459 -86.88   3
       198    320.9382    523.1969 300.1050944 +22.6248869     423.6257     72.27579      1.338     4.47     4.441535     20.39639      53.6935         9     0.975     0.664 -17.28   0
       199    926.8676    520.7534 300.2946367 +22.8056728     107.6521     72.27579      1.125     3.42     4.483081     20.39639     39.51091         7     0.860     0.586 -24.17   0
       200    888.1906    517.1183 300.2837542 +22.7930501     412.5722     72.23895      1.296     3.73     4.536005     20.39639     53.38538         8     0.934     0.693 -62.91   0
       201    707.7991    516.0000 300.2278821 +22.7387176     166.0769     72.05444      1.223     4.43     4.788679     20.39639     32.35257         6     0.831     0.671 -75.24   0
       202    905.8058    512.2064 300.2908429 +22.7969114      169.608     72.14675      1.524     3.71      4.51079     20.39639     23.92751         5     1.174     0.337  11.47   0
       203    794.0273    509.5128 300.2568638 +22.7626735     459.9474     72.29421      1.541     2.36      4.55514     20.39639     52.80438         6     0.746     0.499  -2.66   0
       204    873.8220    506.8435 300.2826096 +22.7857956     1680.313     72.34943      1.402     2.88     4.550646     20.39639      203.614        22     1.135     0.999  85.26   0
       205    760.4592    506.4421 300.2473972 +22.7517402     435.8615      72.2758      1.826     4.82     4.658798     20.39639     37.19914         8     1.171     0.562 -50.92   0
       206    744.9861    504.4688 300.2432153 +22.7465400     2631.962     72.31263      1.374     2.54     4.708159     20.39639     342.2968        24     1.137     0.990 -88.85   0
       207      3.9016    505.4108 300.0123102 +22.5247380      908.122     68.39577      1.918     4.40     5.179752     20.39639     80.46252        16     1.173     1.119 -31.62  16
       208    104.4450    505.0268 300.0436766 +22.5547756     310.8441     72.31263      1.756     3.28     4.565225     20.39639     43.08361         5     0.981     0.596  -1.13   0
       209    987.9302    497.9493 300.3210903 +22.8173936     1132.141     72.29421      2.620     4.60      4.43224     20.39639     70.65288        16     1.327     1.030 -80.38   2
       210    650.0427    501.0341 300.2147457 +22.7171211     464.2164     72.34943      1.512     3.75     5.000811     20.39639     49.52118         9     0.908     0.760  72.13   0
       211    532.4059    500.1795 300.1783840 +22.6816402     885.5132     72.27579      1.425     3.11     4.985955     20.39639     105.5489        14     1.027     0.914  29.64   0
       212   1002.2531    498.4664 300.3253913 +22.8218288      1308.53     72.33103      1.503     3.11     4.420664     20.39639     137.7446        17     1.132     0.893  67.96   0
       213    874.1195    496.9783 300.2859056 +22.7830491     2328.871     72.25738      1.595     3.21     4.546308     20.39639     251.8857        26     1.440     0.997  69.81   0
       214    627.3872    494.6941 300.2097464 +22.7085144     872.6057     72.22052      2.065     3.14     5.054464     20.39639     80.40546        14     0.991     0.922  63.84   0
       215    465.8494    493.3771 300.1598712 +22.6597476     378.4221     72.29421      1.178     4.12     4.706712     20.39639      43.6497         7     0.849     0.613  29.55   0
       216    553.3155    491.3411 300.1877647 +22.6853651     255.6073     72.40462      1.179     3.65     5.080185     20.39639      43.6018         6     0.854     0.512 -41.29   0
       217    912.2552    491.9874 300.2994194 +22.7930299     4241.104     72.29421      1.437     2.87     4.500661     20.39639     454.7461        32     1.208     1.110 -86.44   0
       218    650.2262    488.5989 300.2188403 +22.7136035     361.3564     72.23895      1.323     3.38     5.033439     20.39639     41.05406         5     0.743     0.444 -20.36   0
       219    572.9938    488.3189 300.1948742 +22.6903914      351.776     72.22052      1.126     2.52     5.090996     20.39639     46.16561         7     0.701     0.666 -55.01   0
       220   1003.9971    482.5111 300.3311159 +22.8177633     702.1424     72.20209      1.427     3.64     4.472126     20.39639     78.24942        14     1.125     0.876  41.28   0
       221    144.1268    482.2108 300.0634176 +22.5601249     1050.829     72.31263      1.610     3.37     4.497095     20.39639     92.22881        15     1.104     0.885   6.30   0
       222    943.8053    479.8144 300.3132128 +22.7989738     204.3671      72.1652      1.343     4.39     4.483305     20.39639     28.03996         5     0.758     0.723 -27.00   0
       223    805.0825    475.8967 300.2712246 +22.7563225     448.0609     72.45975      1.409     4.72     4.602975     20.39639     42.97417         7     0.994     0.639   1.45   0
       224   1000.5963    472.2541 300.3333849 +22.8137964     276.6488     72.25738      1.045     3.25     4.539291     20.39639     37.00266         5     0.734     0.449 -69.99   0
       225    136.8945    472.0341 300.0644730 +22.5550362     422.2936     72.27579      1.353     5.07     4.529808     20.39639     43.94146        10     1.130     0.665 -23.14   0
       226    744.7409    466.4739 300.2554745 +22.7355484     355.1705     72.33103      1.195     2.92     4.829828     20.39639     66.70965         8     0.963     0.559 -59.14   0
       227    685.5785    462.5418 300.2383142 +22.7167036     782.6672     72.29421      1.290     2.61     4.992589     20.39639     104.6944        15     0.976     0.879  73.59   0
       228    633.4435    464.1544 300.2215478 +22.7015545     262.2814     72.33103      1.290     2.92     5.075209     20.39639     49.63844         5     0.727     0.466  71.90   0
       229    404.3508    461.4240 300.1511030 +22.6321462     12187.89     72.29421      1.678     5.42     4.681046     20.39639     2478.147        21     1.962     0.422  60.15   0
       230    747.9564    456.7464 300.2596346 +22.7337157     7259.158     72.33103      0.511    -0.21     4.847735     20.39639     4906.319        20     0.931     0.437  52.87   0
       231   1000.5980    455.3106 300.3388861 +22.8089251     586.6777     72.20209      1.250     2.94     4.652604     20.39639     68.34374        12     0.950     0.824  13.01   0
       232    903.6670    450.9471 300.3100648 +22.7786615      1014.37     72.31263      1.375     2.67     4.527049     20.39639     126.2285        15     1.021     0.855  23.95   0
       233    887.8292    447.3106 300.3063058 +22.7728757     577.8339     72.27579      1.315     3.02     4.537495     20.39639      82.0921        11     0.993     0.754  23.68   0
       234    868.8831    447.7206 300.3002644 +22.7673226     380.7041       72.423      1.363     5.03     4.546791     20.39639     39.13913         8     1.097     0.654 -49.12   0
       235    632.2938    445.0927 300.2273774 +22.6957335     3202.225     72.45975      1.307     2.51     5.074479     20.39639     393.0294        22     1.122     0.900  80.79   0
       236    992.6332    444.2419 300.3399942 +22.8033590     452.9323     72.34943      1.375     4.03     4.703094     20.39639     60.60843         9     0.907     0.823 -44.13   0
       237    108.7613    436.4141 300.0672903 +22.5363800     275.9473     72.31263      1.345     4.22     4.696595     20.39639     43.10003         6     0.760     0.669 -87.69   0
       238    637.4825    433.2297 300.2328445 +22.6938789     300.0668     72.31263      1.353     2.49      5.06745     20.39639     49.49856         5     0.708     0.483  75.69   0
       239    403.7909    432.9456 300.1601727 +22.6238003     296.3264     72.29421      1.423     3.76     4.721487     20.39639     32.97881         5     0.797     0.510 -30.20   0
       240    472.1128    432.1514 300.1816960 +22.6440399      337.696     72.29421      1.104     3.03     4.742321     20.39639     71.71311         8     0.904     0.653 -67.79   0
       241   1019.1058    431.2310 300.3524778 +22.8075391     413.7527     72.22052      1.763     3.66     4.882192     20.39639     40.93742         5     1.124     0.343 -13.25  16
       242    915.4734    424.1725 300.3224384 +22.7744975     452.0407     72.29421      1.365     2.66     4.543079     20.39639     58.29953         7     0.820     0.601  10.66   0
       243   1002.0029    423.1548 300.3497627 +22.8000991     926.3084     72.29421      1.377     3.30     4.870391     20.39639     109.1994        11     1.012     0.717  44.80   0
       244    743.0208    419.2032 300.2702828 +22.7214484     1111.579     72.23895      1.361     2.46     4.969027     20.39639     141.7867        15     1.052     0.802 -39.16   0
       245    538.4528    419.7939 300.2063617 +22.6603611     338.8521     72.25738      1.171     2.83     5.175852     20.39639     58.44638         7     0.815     0.651  16.22   0
       246    246.5922    417.0850 300.1164155 +22.5721434     727.5778     72.22052      1.496     3.69      4.69169     20.39639     72.78365        14     1.072     1.007 -54.16   0
       247    309.1593    412.9561 300.1372163 +22.5897068     3810.062     72.36784      1.381     2.67     4.816264     20.39639     448.9688        26     1.128     1.029  66.98   0
       248    256.3689    407.6698 300.1225117 +22.5723701     7601.223     72.29421      1.441     2.66     4.783444     20.39639     996.0487        38     1.240     1.118  64.56   0
       249    635.1940    407.4061 300.2405132 +22.6857736     276.4593     72.14675      1.162     2.31      5.03186     20.39639     62.75465         5     0.762     0.572 -50.98   0
       250   1022.2855    402.7184 300.3627248 +22.8002910      1633.19     63.63675      1.405     2.93     5.010036     20.39639     196.6912        18     1.039     0.987  45.80  24
       251    397.1908    401.8729 300.1682035 +22.6128993     4911.048     72.29421      1.394     2.64      4.80702     20.39639     598.4449        32     1.185     1.083  76.14   0
       252    641.4321    398.7102 300.2452788 +22.6851428     18652.03     72.25738      1.332     2.34     4.989811     20.39639     2528.067        56     1.243     1.114  77.70   0
       253    488.4708    400.5054 300.1970594 +22.6398498     266.8765     72.40462      1.158     3.74     4.840534     20.39639     34.42393         6     0.964     0.416 -18.60   0
       254    658.9692    398.8569 300.2506947 +22.6904360     883.8584     72.31263      1.969     6.08     4.950956     20.39639     68.95255        16     1.450     0.779 -40.64   0
       255    268.3198    396.8526 300.1297391 +22.5728456     364.3016     72.31263      1.540     3.41     4.878675     20.39639     38.93459         5     1.112     0.303   9.93   0
       256    884.8962    395.2069 300.3223032 +22.7570185     85.65842     72.18365      1.067     2.48     4.548828     20.39639     52.08115         5     0.702     0.655 -12.35   0
       257    838.2502    389.2175 300.3097013 +22.7413358     360.2956     72.29421      1.439     4.53     4.647629     20.39639     42.18763         6     0.919     0.634 -67.82   0
       258    261.3285    385.7832 300.1311567 +22.5675724      358.593     72.29421      1.532     4.17     4.941494     20.39639     33.26505         6     0.755     0.657  18.10   0
       259    975.1402    381.5734 300.3548772 +22.7801038     715.7185     72.29421      1.452     3.92     4.776952     20.39639     90.41587        15     1.213     0.861  70.27   0
       260    512.2256    380.5479 300.2109320 +22.6412315     346.2607     72.31263      1.127     1.86     4.981446     20.39639     59.50699         5     0.670     0.448  25.83   0
       261    195.9576    378.6253 300.1131508 +22.5459277      2086.48     72.34943      1.510     3.00     4.870258     20.39639     234.0784        25     1.255     1.064  69.31   0
       262    209.7122    374.6895 300.1187048 +22.5489198     274.8851     72.45975      1.315     4.89     4.959896     20.39639     32.57121         6     0.895     0.757  14.44   0
       263    582.0776    368.1590 300.2367046 +22.6585909     6704.537     72.27579      1.326     2.40      5.01889     20.39639     833.3098        33     1.130     1.063  67.91   0
       264    995.7183    368.6752 300.3654834 +22.7825516      1286.55     72.40462      1.544     3.13     4.881096     20.39639     139.2846        19     1.137     1.023  47.25   0
       265    296.7306    367.5037 300.1480999 +22.5729314     619.1334       72.423      1.336     2.72      5.02591     20.39639     93.17422        11     0.920     0.734  58.82   0
       266    154.7242    361.0589 300.1060311 +22.5285275     447.7822     72.34943      1.240     2.82     4.813951     20.39639     74.15897         9     1.003     0.580 -27.89   0
       267    841.8546    360.4104 300.3201736 +22.7341327     339.7118     72.29421      1.375     4.14     4.588316     20.39639     42.13577         7     0.999     0.491   1.84   0
       268      2.1947    358.5528 300.0594426 +22.4820886     1142.446     60.96577      1.316     2.75     5.807022     20.39639     136.6959        17     1.092     0.877 -84.63  24
       269    695.7849    358.4015 300.2752943 +22.6898322     509.2194     72.14675      1.378     2.60     4.680225     20.39639     76.45033        11     0.968     0.706  51.52   0
       270    786.3705    357.1743 300.3039255 +22.7165959     975.6443     72.29421      1.302     2.66     4.652185     20.39639     137.3387        16     1.093     0.837  85.37   0
       271    488.6406    354.3911 300.2120766 +22.6266534     6100.468     72.29421      1.329     2.34     4.965539     20.39639     864.8391        33     1.154     1.018  67.50   0
       272    880.7005    349.1249 300.3359491 +22.7425134     1439.512       72.423      1.391     2.92     4.570967     20.39639     167.7819        20     1.535     0.847 -78.89   0
       273    978.0350    349.1194 300.3663121 +22.7716367     649.4509     72.23895      1.417     3.81      4.81031     20.39639     67.56062        12     1.018     0.890  61.69   0
       274    473.5807    343.0421 300.2110705 +22.6188826     527.2692     72.31263      1.353     3.26     4.977389     20.39639     64.31143         7     0.840     0.550 -64.95   0
       275    555.8483    341.2008 300.2372832 +22.6429906     530.6031     72.29421      1.407     2.07     4.992744     20.39639     83.14323         6     0.697     0.591  -0.66   0
       276      1.2566    339.7386 300.0652552 +22.4764080     447.4391     55.90845      1.003     2.47     5.871883     20.39639     106.9827         7     0.903     0.432  85.39  24
       277    536.2542    338.8560 300.2319422 +22.6364493     357.7423     72.34943      1.256     2.40     4.996543     20.39639      55.2651         6     0.733     0.537 -28.69   0
       278    853.6328    336.8313 300.3314973 +22.7308783     587.1533     72.31263      1.391     2.83     4.644477     20.39639     80.23801         9     1.041     0.695 -13.51   0
       279    358.0710    335.7466 300.1774874 +22.5821883      235.894     72.29421      1.615     3.34       5.0454     20.39639     34.95096         5     0.980     0.330  43.34   0
       280    376.2920    333.5641 300.1838652 +22.5870196     2537.665     72.23895      1.357     2.50     5.035231     20.39639     323.4564        24     1.149     0.978  74.00   0
       281     94.8061    330.9036 300.0971901 +22.5019132     1135.491     72.18365      1.630     3.64     5.254079     20.39639      119.104        18     1.207     0.983  -4.33   0
       282    345.5580    322.9751 300.1777375 +22.5747717     30273.29     72.34943      1.406     2.48     5.048501     20.39639     4180.215        71     1.330     1.204  65.57   0
       283    880.3833    320.8316 300.3450304 +22.7342829     1371.571     72.27579      1.291     2.67     4.725941     20.39639     183.5533        18     1.046     0.938  67.60   0
       284    835.7181    318.6238 300.3318187 +22.7202820     200.5875     72.25738      1.191     3.49     4.736028     20.39639     44.23391         5     0.749     0.469  12.00   0
       285     41.8483    310.7078 300.0872846 +22.4802435     4979.737     72.33103      1.648     3.33     5.655998     20.39639     498.6706        38     1.355     1.255  84.21   0
       286    795.5495    309.6149 300.3222180 +22.7056704     513.8486     72.29421      1.059     2.30     4.770275     20.39639     80.82914         9     0.809     0.733 -21.29   0
       287    919.9123    309.1668 300.3611435 +22.7427564     345.4749      72.2758      1.824     5.18     4.792358     20.39639     36.56553         6     1.298     0.584 -22.63   0
       288    444.1348    308.3551 300.2131579 +22.6000987     471.5117     72.29421      1.273     2.57     5.016964     20.39639     66.68894         9     0.844     0.679 -70.96   0
       289    219.7372    309.4375 300.1429925 +22.5331886     426.1583     72.31263      1.609     3.36     5.106189     20.39639     53.73617         7     0.950     0.598 -22.82   0
       290    756.0846    302.8831 300.3120999 +22.6919235     1967.298       72.423      1.360     2.54     4.858858     20.39639     292.6069        20     1.049     0.940 -71.27   0
       291    564.4154    297.5105 300.2541256 +22.6330014     392.0599     72.22052      1.163     2.84     4.986996     20.39639      47.0736         6     0.820     0.491 -86.72   0
       292    971.1688    295.8882 300.3814409 +22.7542727     513.0109     72.27579      1.419     3.36     5.027901     20.39639     80.63737        13     1.145     0.809  18.66   0
       293    417.8258    287.3323 300.2117888 +22.5861797     2223.891     72.27579      1.502     3.09     5.029753     20.39639     298.4969        26     1.304     1.046  71.19   0
       294    629.5667    286.2274 300.2780790 +22.6492645     301.0634     72.31263      1.047     2.26     4.861512     20.39639     56.93404         5     0.718     0.444  67.01   0
       295    849.3483    282.4503 300.3478040 +22.7139594     242.1067     72.33103      1.463     4.13     4.878298     20.39639     39.94191         6     0.924     0.690 -28.16   0
       296    856.8150    280.4176 300.3507918 +22.7156092     582.5796     72.27579      1.266     2.81      4.88456     20.39639     93.87934         9     0.866     0.685  10.33   0
       297    756.2976    277.7661 300.3203143 +22.6847663       384.45      72.2758      1.539     3.91     4.919153     20.39639     36.94398         6     1.075     0.407  77.88   0
       298    707.6093    277.1796 300.3053302 +22.6700252      295.591     72.27579      1.237     3.19     4.845056     20.39639     39.67347         5     0.744     0.440 -69.41   0
       299    493.6225    266.7988 300.2420438 +22.6029788     1217.432     72.22052      1.264     2.44     4.990485     20.39639     158.9049        15     1.004     0.782  48.21   0
       300    301.0167    267.0609 300.1820180 +22.5453694     394.0714     72.23895      1.492     3.20     4.854765     20.39639     37.21983         5     0.653     0.569 -89.43   0
       301    345.9696    265.3546 300.1965567 +22.5583445     199.0002     72.33103      1.413     2.75     5.039866     20.39639     36.81715         5     0.853     0.478   1.43   0
       302    579.0855    264.2351 300.2694883 +22.6278308      261.422     72.27579      1.443     4.49     4.910286     20.39639     37.57285         6     0.990     0.580 -27.09   0
       303   1005.2018    263.4132 300.4025942 +22.7551121      194.838      72.1283      1.326     4.11     5.198411     20.39639     45.19485         7     1.003     0.480  -7.04   0
       304    233.1625    262.3296 300.1624477 +22.5236833     246.6787     72.25738      1.284     3.25     4.978581     20.39639     42.55011         5     0.890     0.465  -5.05   0
       305    877.0581    260.3618 300.3636101 +22.7158986     265.6156     72.29421      1.249     2.67     4.841763     20.39639     45.18627         5     0.785     0.471  55.38   0
       306    738.4953    258.7626 300.3209297 +22.6739747     2193.515      72.2758      1.249     2.17     4.956603     20.39639     332.5271        19     1.034     0.871  78.72   0
       307    999.8569    253.1435 300.4042576 +22.7505591     3137.257     72.36784      1.448     2.85      5.16757     20.39639     366.6343        29     1.212     1.091 -80.29   0
       308    446.8782    242.5897 300.2353437 +22.5820253     588.7285     72.25738      1.168     2.56     5.008307     20.39639     92.64003         8     0.782     0.686  59.12   0
       309    152.2998    236.6727 300.1456257 +22.4920886     583.6777     72.45975      1.535     3.32     4.844472     20.39639     63.73283        11     1.001     0.805  50.06   0
       310    121.6027    236.3876 300.1361757 +22.4828090     1321.037      72.1283      1.770     3.89     5.021338     20.39639     150.3723        23     1.433     1.176 -62.58   0
       311   1015.5619    233.8996 300.4153998 +22.7497205     431.1313     72.31263      1.235     3.34      5.30254     20.39639     61.39188        10     1.038     0.653  39.27   0
       312    859.1340    230.0030 300.3678672 +22.7018048     325.7406     72.29421      1.245     4.86     4.833776     20.39639     51.69453         9     1.058     0.633 -61.47   0
       313    205.7466    228.2652 300.1649696 +22.5056871     526.4547     72.33103      1.452     3.72     4.870227     20.39639     63.48208         9     0.914     0.844 -85.66   0
       314   1000.9777    226.6757 300.4131919 +22.7432801     237.7182     72.27579      1.116     2.91     5.174715     20.39639     47.16565         5     0.782     0.476 -49.83   0
       315    881.8318    222.5385 300.3773664 +22.7064488     366.2183     72.33103      1.192     2.33     4.750334     20.39639     56.91735         5     0.726     0.441 -23.85   0
       316    810.2422    220.1958 300.3558031 +22.6843557      613.833     72.31263      1.277     2.65     4.831774     20.39639     87.30598        11     0.862     0.823 -69.54   0
       317    400.3415    219.9772 300.2281926 +22.5615924     359.0997     72.29421      1.178     2.77     5.009445     20.39639      68.2705         8     0.912     0.602 -86.43   0
       318    901.1691    213.4440 300.3863467 +22.7096180     298.4529     72.33103      1.089     2.05     4.711429     20.39639     46.72279         5     0.684     0.452  23.70   0
       319    908.4189    209.2654 300.3899630 +22.7105849     2128.483     72.25738      1.406     2.54     4.706553     20.39639     250.3375        20     1.088     0.955 -67.23   0
       320    326.8044    206.3291 300.2097360 +22.5356483     2041.354     72.23895      1.399     2.68     4.899869     20.39639     265.4867        26     1.217     1.025  72.80   0
       321    806.8038    201.0582 300.3609373 +22.6778233     514.8615     72.25738      1.271     2.58     4.841713     20.39639     74.35222         9     0.857     0.678  77.68   0
       322    913.7303    198.1608 300.3952208 +22.7089796     230.0548     72.25738      1.160     3.12     4.754723     20.39639     54.22227         6     0.741     0.617  31.44   0
       323    221.7284    193.5619 300.1811923 +22.5005079     776.5513     72.25738      1.248     2.93       4.8742     20.39639      120.853        10     0.976     0.701  72.25   0
       324    404.5567    201.3928 300.2355309 +22.5575150     1151.527     72.31263      1.600     3.09     5.004208     20.39639     126.9384        17     1.207     0.903  63.19   0
       325    759.4849    190.5757 300.3495855 +22.6606501      1681.79     72.25738      1.264     2.35      4.96573     20.39639     236.4655        18     1.053     0.912 -77.06   0
       326    824.2338    190.2599 300.3698732 +22.6799328     529.3381     72.33103      1.240     2.49     4.868541     20.39639     92.32147        10     0.885     0.715  37.68   0
       327    243.0908    186.9065 300.1899937 +22.5049952     654.8286     72.45975      1.681     3.05     4.842974     20.39639     79.01617        10     0.987     0.708  76.96   0
       328    533.2651    183.2217 300.2814912 +22.5908292     359.8394      72.2758      1.194     2.82     4.708252     20.39639     69.45482         6     0.907     0.413   3.33   0
       329    763.7699    181.9801 300.3537084 +22.6594605     777.4435     72.29421      1.490     3.24     4.962895     20.39639     86.17514        11     0.998     0.697  80.28   0
       330    683.9158    181.3517 300.3290252 +22.6353838     1174.125     72.27579      1.308     2.59     4.991774     20.39639     152.5206        17     1.051     0.887  67.51   0
       331    504.9885    177.7448 300.2744622 +22.5807899     355.8877     72.29421      1.081     2.63     4.877642     20.39639     46.05257         7     0.724     0.653  15.57   0
       332    610.1924    172.9796 300.3087711 +22.6109122     1001.841     72.25738      1.397     3.06     4.957145     20.39639     116.2702        14     0.964     0.894  79.10   0
       333    879.4540    172.8604 300.3927344 +22.6914484     1462.033     72.34943      1.407     2.59     4.949137     20.39639      171.986        17     0.985     0.962 -10.79   0
       334    891.5714    171.9700 300.3968021 +22.6948171     778.0198      72.2758      1.378     3.42     4.941515     20.39639     85.46373        15     1.136     0.851  16.44   0
       335   1008.1728    162.3274 300.4363038 +22.7269182     1109.695     72.29421      1.527     2.94     5.127151     20.39639      132.191        20     1.175     1.014  46.77   0
       336     31.8042    158.8859 300.1333972 +22.4336489     458.5052     72.22052      1.826     5.03     5.510837     20.39639     46.07286         8     1.253     0.688  -5.55   0
       337    242.3331    155.3262 300.1999968 +22.4956969     799.5734     72.36784      1.463     3.20     4.847883     20.39639     77.68501        11     0.911     0.784 -25.78   0
       338    104.1059    149.7707 300.1588213 +22.4526945     2125.454     72.22052      1.559     2.97     5.110114     20.39639     230.5717        29     1.298     1.215  57.68   0
       339    927.3832    147.0051 300.4160664 +22.6983473     694.0254     72.25738      1.427     3.01     4.968807     20.39639     92.02295        14     0.965     0.919 -31.95   0
       340     53.5198    146.5691 300.1441378 +22.4366191     447.4097     72.29421      1.336     3.09     5.384764     20.39639     81.83649         9     0.989     0.821  69.68   0
       341    261.4899    143.2059 300.2098841 +22.4979528     5644.193     72.20209      1.490     2.59     4.844349     20.39639      652.564        36     1.316     1.094  64.15   0
       342    243.2081    144.3099 300.2038402 +22.4927945      414.872     72.20209      1.625     4.35     4.874138     20.39639     40.99161         7     1.178     0.457   3.81   0
       343     45.5902    137.5727 300.1445900 +22.4316599     1342.796     72.29421      1.656     3.31     5.434813     20.39639     136.9575        20     1.157     1.062  80.66   0
       344    245.0280    134.0567 300.2077299 +22.4903941     560.3898     72.29421      1.412     2.64     4.895298     20.39639     74.88155         9     0.783     0.736  -4.21   0
       345    905.7311    124.9377 300.4164669 +22.6855225     3541.616     72.33103      1.438     2.84     4.907914     20.39639      384.174        28     1.237     1.042 -86.41   0
       346   1009.3932    123.7465 300.4491928 +22.7161816     2801.042     72.29421      1.532     2.92     5.142682     20.39639     319.9375        30     1.253     1.139  87.32   0
       347    455.2004    120.1504 300.2776335 +22.5493315     529.5181     72.27579      1.234     2.67     4.959347     20.39639     76.50756        11     0.868     0.799 -30.34   0
       348    208.3368    120.1652 300.2008224 +22.4754142     307.9348     72.29421      1.310     3.28     4.991635     20.39639     43.04406         5     0.871     0.472  88.96   0
       349    569.5015    118.3025 300.3138228 +22.5830145     353.2624     72.49649      1.385     3.51     4.905607     20.39639     42.68279         6     0.890     0.459  -1.88   0
       350    379.0274    111.5747 300.2567049 +22.5240615     609.5187     72.25738      1.581     4.46     4.913979     20.39639     64.21253        11     1.173     0.768  77.57   0
       351    914.2781    109.9966 300.4239762 +22.6837803     322.4473     72.20209      2.556     3.85     4.884402     20.39639     31.42805         5     0.832     0.511 -35.41   0
       352    383.2940    110.6504 300.2583322 +22.5250733     298.9439     72.36784      1.285     3.35     4.916876     20.39639     44.91386         5     0.741     0.449 -15.73   1
       353    145.4803    108.9516 300.1849138 +22.4533658     602.6201     72.31263      1.339     2.72      5.10723     20.39639     80.24794        12     0.905     0.841  -0.68   0
       354    506.3428    107.2768 300.2977286 +22.5609406     1724.204     72.33103      1.411     2.48     4.912641     20.39639     212.1234        20     1.067     0.957  63.22   0
       355    434.2777    107.7443 300.2751420 +22.5395021     511.5262     72.33103      1.611     5.22     4.938455     20.39639     45.52042        10     1.103     0.699  37.23   0
       356    568.2837    106.5775 300.3172441 +22.5792792     420.2531     72.25738      1.161     2.23     4.937087     20.39639      47.7331         5     0.666     0.480 -14.68   0
       357    329.7022    103.3988 300.2440069 +22.5069430     230.0514     72.20209      1.350     4.85     4.880589     20.39639     36.41009         6     1.143     0.583  26.62   0
       358    250.0523    103.3169 300.2192566 +22.4830678     330.1223     72.33103      1.452     3.40     4.957696     20.39639     40.91406         5     0.784     0.426  16.51   0
       359    795.0103     96.9595 300.3910102 +22.6443548     413.4931     72.29421      1.456     3.70     4.877688     20.39639     47.41413         9     0.922     0.745 -78.86   0
       360    642.6144     93.2101 300.3447308 +22.5976805     283.9987     72.20209      1.274     2.26     5.079657     20.39639     42.73924         5     0.713     0.437 -67.61   0
       361    940.8572     91.9855 300.4381053 +22.6865471     246.3676     72.27579      1.141     2.51     4.924267     20.39639     50.45299         5     0.771     0.482 -29.09   0
       362    280.4991     87.0808 300.2339890 +22.4875208      6064.13       72.423      1.476     2.63     4.996797     20.39639      702.183        37     1.315     1.097  67.34   0
       363    786.8672     87.8493 300.3914245 +22.6392984     355.8912     72.29421      1.339     4.30     4.962999     20.39639     43.82256         9     0.989     0.764 -44.39   0
       364    131.8324     86.5648 300.1879268 +22.4428475     796.7958     72.33103      1.587     3.97     5.257299     20.39639     82.86547        18     1.214     1.074  50.78   0
       365    296.2365     78.4024 300.2416970 +22.4897397      372.887     72.31263      1.518     4.04     5.058717     20.39639     43.44966         8     0.917     0.703 -79.05   0
       366    756.2112     78.6253 300.3848579 +22.6274743     195.5507     72.29421      1.213     3.39     5.138732     20.39639     33.47739         5     0.780     0.425 -20.68   0
       367     42.3899     77.6460 300.1630186 +22.4134924     324.0905     72.31263      1.246     3.19     5.494457     20.39639     49.12679         5     0.735     0.446 -70.16   0
       368    526.5045     72.4348 300.3152993 +22.5569592     6388.809     72.29421      1.402     2.45     4.919304     20.39639     890.7526        36     1.302     1.043  85.54   0
       369    412.1740     72.5375 300.2796730 +22.5227661     708.5258     72.29421      1.406     3.56     4.918592     20.39639     85.70975        13     1.053     0.868  -0.37   0
       370    583.9603     67.2626 300.3348692 +22.5726674      385.501     72.29421      1.320     2.51     5.105493     20.39639     55.56664         8     0.872     0.599 -66.53   0
       371    778.9704     62.6748 300.3971219 +22.6296947      897.012     72.31263      1.816     4.99       5.1281     20.39639     101.3164        20     1.653     0.953 -76.31   0
       372    871.2916     61.2567 300.4263670 +22.6569008     490.6179     72.34943      1.439     4.07     4.768809     20.39639     54.20603         9     0.961     0.788  41.51   0
       373    939.0108     59.3787 300.4480976 +22.6766124     265.5763     72.27579      1.394     3.91     4.899474     20.39639     25.27508         5     0.904     0.485   0.35   0
       374    219.5403     56.1372 300.2250576 +22.4603755     536.0437     72.33103      1.403     3.01     5.466299     20.39639     76.44022         9     0.927     0.783  64.59   0
       375    577.8367     55.0271 300.3369271 +22.5673168     512.3641     72.31263      1.473     3.33     5.109932     20.39639     59.42934         9     0.985     0.606  59.25   0
       376    654.9936     52.6252 300.3617412 +22.5897138     6460.553     72.27579      1.399     2.57     5.207878     20.39639     924.8524        35     1.266     1.045  76.96   0
       377    429.9224     51.5694 300.2919924 +22.5220523     1398.404     72.27579      1.367     2.22     4.919304     20.39639     229.3265        19     1.087     0.934 -61.65   0
       378    696.0581     49.9141 300.3754153 +22.6012203     988.4202     72.40462      1.389     2.77     5.235733     20.39639     124.1234        16     1.080     0.879  58.50   0
       379    765.7611     47.9479 300.3977769 +22.6215070      353.027     72.27579      1.448     4.60     5.249185     20.39639     45.83068         7     0.957     0.628  76.97   0
       380    711.9703     46.2493 300.3815617 +22.6049268     615.6196     72.31263      1.343     2.39     5.288898     20.39639     76.98965        10     0.825     0.722  89.01   0
       381    178.6465     44.2075 300.2162073 +22.4447014     687.9171     72.31263      1.440     3.27     5.595607     20.39639     94.16322        12     1.074     0.763 -22.94   0
       382   1021.7100     43.1328 300.4791653 +22.6966646     271.9529     66.20005      1.541     5.41     5.792863     20.39639     27.22055         7     1.116     0.741  53.91  16
       383    981.7427     43.8107 300.4664744 +22.6849100     587.6908     72.25738      1.534     3.07     5.352952     20.39639     65.63933         8     0.960     0.643  86.03   0
       384    750.4021     41.4450 300.3950967 +22.6150419     483.6767      72.2758      1.478     3.59     5.333135     20.39639     74.68159         9     1.091     0.792 -61.26   0
       385    699.1943     37.5228 300.3804081 +22.5985946     2784.075     72.20209      1.404     2.66     5.280655     20.39639     395.4762        25     1.179     0.996 -87.70   0
       386    714.0499     36.5516 300.3853524 +22.6027596     899.3063     72.33103      1.812     4.25     5.325753     20.39639     85.53179        18     1.480     0.860  53.16   0
       387    339.8976     38.0667 300.2683518 +22.4912212     493.4405     72.38623      1.363     3.19     5.046331     20.39639     54.93599         9     0.868     0.727  76.80   0
       388    785.6649     29.0983 300.4100898 +22.6220383      1634.17     72.38623      1.455     2.62      5.28597     20.39639     204.5373        21     1.174     0.940  71.73   0
       389    863.5556     23.8132 300.4360886 +22.6438138     402.4461     72.31263      1.398     2.25     4.771792     20.39639     42.59921         5     0.690     0.465  69.88   0
       390    723.7100     22.4899 300.3929196 +22.6016048     797.7712     72.45975      1.366     2.96     5.410581     20.39639     100.7331        12     0.989     0.771 -56.48   0
       391    529.2566     21.4238 300.3326867 +22.5431169     1230.716     72.29421      1.617     2.98     4.919304     20.39639     136.8244        19     1.207     1.000  70.73   0
       392    102.0378     21.6236 300.1997092 +22.4152694     565.5926     72.31263      1.212     3.79     5.779542     20.39639     62.47518         8     1.179     0.547 -15.74   0
       393    433.0567     19.6740 300.3033033 +22.5138220     820.9081     72.34943      1.390     2.79     4.919304     20.39639     106.9787        13     0.990     0.821 -35.90   0
       394    815.2225     18.6043 300.4227053 +22.6278599      432.826     72.25738      1.274     2.39     5.184166     20.39639     62.88695         7     0.782     0.591 -85.35   0
       395    329.1909   1018.0268 299.9468281 +22.7693322     1070.257     72.29421      1.810     5.23     11.53536     20.39639     86.15084        13     1.436     0.718  35.01  18
       396    165.3374   1013.8104 299.8972487 +22.7189582     1417.822     72.22052      3.086     9.35     95.47018     20.39639     43.41129        22     2.067     1.179 -41.18  18
       397    209.5060   1007.4368 299.9130531 +22.7303856     2131.031      72.2758      4.804    16.66     82.32817     20.39639      57.6638        66     3.330     2.318 -34.36  19
       398    206.3536    997.7532 299.9152235 +22.7266635     2058.811     72.31263      5.836    11.98     75.66888     20.39639     70.37558        40     2.334     1.867 -78.74   3
       399    204.7304   1004.1068 299.9126518 +22.7279979     1920.325       72.423      4.917    19.36      80.7187     20.39639      78.4606        56     4.419     2.357 -72.59  19
