#   1 NUMBER                 Running object number                                     
#   2 X_IMAGE                Object position along x                                    [pixel]
#   3 Y_IMAGE                Object position along y                                    [pixel]
#   4 ALPHA_J2000            Right ascension of barycenter (J2000)                      [deg]
#   5 DELTA_J2000            Declination of barycenter (J2000)                          [deg]
#   6 FLUX_APER              Flux vector within fixed circular aperture(s)              [count]
#   7 FLUXERR_APER           RMS error vector for aperture flux(es)                     [count]
#   8 FLUX_RADIUS            Fraction-of-light radii                                    [pixel]
#   9 FWHM_IMAGE             FWHM assuming a gaussian core                              [pixel]
#  10 BACKGROUND             Background at centroid position                            [count]
#  11 THRESHOLD              Detection threshold above background                       [count]
#  12 FLUX_MAX               Peak flux above background                                 [count]
#  13 ISOAREA_IMAGE          Isophotal area above Analysis threshold                    [pixel**2]
#  14 A_IMAGE                Profile RMS along major axis                               [pixel]
#  15 B_IMAGE                Profile RMS along minor axis                               [pixel]
#  16 THETA_IMAGE            Position angle (CCW/x)                                     [deg]
#  17 FLAGS                  Extraction flags                                          
         1    351.1554     17.3675 300.2740195 +22.4749879     1257.981     72.68282      1.385     2.33     4.312724     20.49038     170.7082        18     1.039     0.973 -73.56   0
         2    834.2253     12.6835 300.4258971 +22.6183002     689.0703     72.60884      1.819     4.62     4.331368     20.49038     54.00686        13     1.371     0.636  60.95   0
         3    758.0001     12.4193 300.4022360 +22.5954075     509.6526     72.55331      1.283     3.42     4.374309     20.49038      91.5496        11     1.179     0.583 -66.38   0
         4    854.2867      8.9379 300.4333617 +22.6232274     2247.943     72.71978      1.442     2.78     4.305023     20.49038     268.3061        27     1.335     1.011  81.57  16
         5    559.7999      7.2898 300.3421884 +22.5345889     453.1588     72.53479      1.277     2.96     4.402476     20.49038     61.22021         8     0.914     0.605  18.58   0
         6    237.6510      4.3079 300.2429666 +22.4372269     1000.928     70.18127      1.495     2.73     4.411378     20.49038     107.2378        16     1.013     0.917   6.36  16
         7    802.7142      1.7609 300.4196181 +22.6057273     788.3154     58.94395      1.128     2.64     4.357111     20.49038     130.1172        11     0.956     0.688  -4.03  24
         8    231.1275    995.5347 299.9191678 +22.7196517      1646.29     72.66433      6.259    14.72     57.26479     20.49038     51.71465        48     3.630     1.660  43.19   2
         9    263.2158   1021.5709 299.9206688 +22.7367486     1530.187     66.98819      6.024    20.56     72.47932     20.49038     54.68298        61     5.289     2.220   1.91  27
        10    295.0051   1021.7825 299.9304792 +22.7463548      1530.77     66.09982      3.925    12.48     65.54815     20.49038     57.70921        39     2.968     1.462   3.38  27
        11    263.9709   1007.5354 299.9254694 +22.7329531     3961.732     72.64584      7.265    27.06     63.15931     20.49038     77.61252       264     5.521     4.139  24.49  19
        12    283.5803   1006.1782 299.9320049 +22.7384523     4827.837     72.62734      8.189    27.49     60.81271     20.49038     104.3354       368     6.039     4.880 -54.95  19
        13    302.5121    995.7659 299.9412759 +22.7411524     7582.299     72.60884      8.132    32.63     43.20596     20.49038     169.6754       685    10.780     4.677  65.34  18
        14    235.2308   1019.3135 299.9127074 +22.7276981     3509.569     72.60884      6.172    24.74     71.49712     20.49038     83.76662       191     5.198     4.027  19.80  19
        15    237.9304   1013.4395 299.9154571 +22.7268255     1867.816     72.59033      5.559    11.29     67.59045     20.49038     80.30717        31     2.599     1.367 -48.22  19
        16    142.2166   1014.3373 299.8854315 +22.6983376     5245.416     72.60884     12.899    52.15     50.50056     20.49038     110.1484      1019    12.207     7.441   8.43  27
        17    139.7505    976.6071 299.8969385 +22.6867867      4683.77     72.62734     23.346    78.39     33.20496     20.49038     108.2851      3032    18.169    14.625 -27.02  19
        18    209.3314    977.3008 299.9183269 +22.7078813     1546.542     72.71978      5.035    13.07     45.10409     20.49038     47.57842        37     2.851     1.669  22.09   0
        19    868.5602    968.4316 300.1263189 +22.9031653     288.3931     72.66433      1.458     4.13     3.065155     20.49038     36.54433         5     0.982     0.495 -87.60   0
        20    594.6791    969.5378 300.0406736 +22.8213265     337.0932     72.71978      1.450     3.44     2.842727     20.49038     43.61161         5     0.750     0.457  19.57   0
        21    308.3011    968.4297 299.9519670 +22.7350553    -154.4324     72.55331      0.945     4.62     25.61854     20.49038     273.4471         7     1.030     0.588 -29.77   0
        22    624.1426    966.0960 300.0509631 +22.8291797     1527.029      72.7013      1.802     4.23     3.039052     20.49038     107.0809        24     1.355     1.141  28.39   0
        23     47.1130    993.4012 299.8627102 +22.6637732     517.5002     72.53479      2.065     5.18     7.134604     20.49038     35.84274         9     1.364     0.556  88.14   0
        24    517.9644    962.4933 300.0190947 +22.7962860     936.8071     72.59033      1.628     4.84     2.911017     20.49038     78.74497        21     1.280     1.217  70.47   0
        25    448.5974    960.4897 299.9981694 +22.7748933     6538.145     72.53479      1.781     4.11     3.272388     20.49038     464.9726        41     1.443     1.328  54.73   0
        26    802.5023    963.1729 300.1074500 +22.8818451     220.3116     72.59033      1.835     4.94     3.203786     20.49038     34.74414         5     1.012     0.684  17.78   0
        27    193.0643    978.8433 299.9127715 +22.7034384     1770.025     72.62734      8.814    14.27     45.48087     20.49038     53.56845        46     2.955     1.916 -45.36   3
        28    188.8151    973.7897 299.9130952 +22.7007142     1504.071     72.53479      8.023    11.38     42.36991     20.49038      46.8144        30     2.345     1.537 -56.48   3
        29    480.9480    947.4478 300.0124733 +22.7808628     530.5677     72.66433      1.664     4.41     3.227652     20.49038      55.4613        12     1.109     1.037  50.92   0
        30    995.0137    939.4576 300.1751554 +22.9327642     2098.948     72.59033      2.030     5.21      3.54584     20.49038     99.96192        32     1.503     1.346 -10.70   0
        31    715.7283    975.3077 300.0764783 +22.8592987     6791.078     72.77518      1.865     4.04     3.580573     20.49038     397.9619        49     1.478     1.430  54.71   0
        32    644.9344    936.0626 300.0672034 +22.8268025     347.0351     72.66433      1.552     5.69     3.306388     20.49038     39.48066         8     1.005     0.907  31.15   0
        33    677.3804    933.9531 300.0779900 +22.8359308     273.0098     72.66433      1.470     3.72     3.573565     20.49038     36.21169         5     1.220     0.327 -41.73   0
        34    784.0121    928.2657 300.1130445 +22.8662829     792.8768     72.59033      1.896     6.20     3.399501     20.49038     51.34138        17     1.454     1.053  78.65   0
        35    818.6081    922.5230 300.1256887 +22.8750102     1043.691     72.59033      1.674     4.42     3.276573     20.49038     77.34214        18     1.285     0.946 -40.73   0
        36    596.1336    922.9348 300.0562838 +22.8083957      457.484     72.68282      1.730     5.17     2.990248     20.49038     33.45868         7     1.009     0.747 -55.45   0
        37    990.2097    992.1562 300.1565148 +22.9464519     716.2449     72.64584      1.888     7.13     3.088399     20.49038     44.96326        17     1.344     1.061 -84.71   0
        38     28.8275    919.4753 299.8810758 +22.6371027      664.296     72.60884      1.689     2.88     2.639966     20.49038     56.53874        10     0.961     0.664  89.81   0
        39    840.8564    916.0602 300.1347216 +22.8798272     11479.49      72.7013      1.804     3.98     3.212458     20.49038     706.7606        54     1.461     1.422  -0.65   0
        40    886.3959    915.9917 300.1489331 +22.8934628     540.7837     72.46066      1.625     5.86     3.142524     20.49038     39.79366        12     1.100     0.880 -64.96   0
        41    152.2070    908.0781 299.9230938 +22.6708903     676.6331     72.55331      2.128     5.28     11.36156     20.49038     61.21531        14     1.440     0.970 -48.85   0
        42    545.8052    904.4253 300.0466420 +22.7879863     513.5174     72.60884      1.627     5.03      2.83079     20.49038     47.32951        12     1.172     0.882  51.81   0
        43    893.1734    904.0031 300.1549439 +22.8920538     394.1868     72.59033      1.706     6.41     3.222422     20.49038     30.41061         9     1.363     0.846  -0.44   0
        44    122.9155    901.3941 299.9161696 +22.6601790     415.7338     72.55331      1.814     4.45     7.125216     20.49038     37.32178         6     0.827     0.680  35.82   0
        45    849.4467    898.1587 300.1432197 +22.8772652     1389.233     72.68282      1.788     4.24      3.24978     20.49038     95.96899        23     1.284     1.164  25.07   0
        46    138.9327    939.7850 299.9086602 +22.6759902     3594.456     72.60884     15.169    50.39     16.99953     20.49038     87.08949       800    11.651     6.049 -40.96   3
        47    700.2006    895.6735 300.0975438 +22.8317932     673.0353     72.51626      1.358     4.78     3.572711     20.49038      283.767        10     1.498     0.433 -13.81   0
        48    887.2701    890.9888 300.1573366 +22.8865481     886.0401     72.64584      2.160     7.95      3.28441     20.49038     56.34409        19     1.858     1.078  78.60   0
        49    226.7488    891.0381 299.9517915 +22.6883879     426.9256     72.62734      3.557     5.02     9.437885     20.49038     34.39975         6     1.305     0.546  -8.87   0
        50    935.9432    882.3340 300.1753199 +22.8986562     644.7254     72.68282      1.643     6.02     3.488799     20.49038     53.35476        12     1.283     0.795  46.72   0
        51    787.3171    882.0319 300.1291094 +22.8540060     645.8082     72.62734      1.584     3.94     3.479863     20.49038     72.76803        15     1.094     1.031  15.46   0
        52    499.8655    878.1665 300.0408879 +22.7666705     4122.069     72.62734      1.651     3.42     2.995189     20.49038     356.0026        34     1.329     1.261  51.26   0
        53     46.4378    880.2023 299.8993123 +22.6311396     460.8214     72.64584      1.981     5.91     2.989806     20.49038     37.34873         7     1.237     0.795   2.22   0
        54    798.8794    879.1024 300.1336635 +22.8566325     618.1995     72.75672      1.734     3.95     3.464972     20.49038     56.60866         9     0.967     0.712   3.98   0
        55    543.4735    866.1079 300.0583758 +22.7762957     431.3621     72.77518      1.954     5.58      2.83709     20.49038     35.90187         9     1.141     0.769  73.99   0
        56    278.5014    866.8962 299.9757227 +22.6970036     457.7343      72.8121      1.833     3.74     4.386497     20.49038     49.63173         7     1.048     0.456 -40.71   0
        57    225.3656   1019.9587 299.9094323 +22.7249204     1324.857     72.08887      2.957    11.59     72.47395     20.49038     49.27699        31     2.158     1.798 -20.61  19
        58    225.2435    863.7975 299.9601805 +22.6801276     915.6051     72.64584      1.946     4.43     4.989292     20.49038     82.32042        16     1.239     1.133  28.13   0
        59    134.0037    862.0865 299.9323933 +22.6522437     458.5535     72.55331      1.640     3.84     4.287869     20.49038     47.58354         9     0.978     0.821  52.36   0
        60    202.3827    860.6998 299.9540848 +22.6723764     1681.113     72.53479      1.816     3.62     4.868006     20.49038     156.9499        25     1.438     1.163  23.49   0
        61     14.5198    862.0641 299.8953005 +22.6163566     2621.755     72.73825      0.686     2.74     2.548008     20.49038     1064.056         8     0.551     0.403  12.05   0
        62     77.2526    850.6290 299.9184942 +22.6319192     433.0717     72.64584      1.880     5.31     3.362088     20.49038     45.92466         9     1.399     0.822 -47.37   0
        63    734.0938    848.7551 300.1233533 +22.8284949     407.1852     72.64584      1.861     5.62     3.587882     20.49038     29.12339         8     1.179     0.754 -75.24   0
        64    811.5176    842.4814 300.1495074 +22.8499112     640.6652     72.77518      1.690     4.38     3.529235     20.49038     54.84756        13     1.020     0.942   5.67   0
        65    234.2840    842.4182 299.9699399 +22.6767128     426.8157     72.59033      1.646     4.00     4.431707     20.49038     64.22894         7     1.366     0.580  13.82   0
        66    679.9068    836.2891 300.1105340 +22.8086665     4808.137     72.79364      1.570     3.15     3.575866     20.49038      404.026        33     1.258     1.157  21.70   0
        67    169.5803    837.2524 299.9515170 +22.6558074     587.2984     72.60884      1.984     5.64      4.31818     20.49038     46.12949         9     1.091     0.851  19.07   0
        68    482.3519    833.2742 300.0500352 +22.7485394     580.8325     72.62734      1.257     3.03     3.186512     20.49038     72.98062        11     0.982     0.756  59.33   0
        69    230.0557    829.9039 299.9726941 +22.6718559     1602.485     72.71978      1.918     3.72     4.222494     20.49038     155.7387        25     1.335     1.197  88.35   0
        70    700.8093    828.8345 300.1194654 +22.8127961     740.8289     72.60884      1.696     4.48      3.58838     20.49038     57.06975        16     1.210     0.946   5.33   0
        71    498.2841    828.1332 300.0566626 +22.7518448     236.0692     72.73825      1.327     5.60     3.182801     20.49038     34.89465         6     1.306     0.676  -7.82   0
        72    249.5282    826.6354 299.9798073 +22.6767641     416.3137     72.62734      1.532     4.38     4.040081     20.49038     54.39463         9     1.110     0.838  21.03   0
        73    855.9275    816.0425 300.1719385 +22.8556367     4208.359     72.60884      1.606     3.34     3.570949     20.49038     308.1155        31     1.243     1.208 -33.53   0
        74    264.2607    810.0683 299.9897707 +22.6764364     504.9919     72.68282      1.681     4.17     3.729404     20.49038     44.44518         8     0.845     0.761 -84.88   0
        75    572.9531    808.5594 300.0862578 +22.7686299     628.0438     72.68282      1.421     4.87     3.360794     20.49038     65.90406        11     1.050     0.742  65.94   0
        76    219.3707    806.4035 299.9770129 +22.6619113     980.7251     72.59033      1.681     4.92     3.735092     20.49038     99.41268        21     1.452     1.125   2.76   0
        77    634.6885    801.9154 300.1076315 +22.7852408      414.364     72.75672      1.343     3.61     3.572203     20.49038     62.13955        10     0.929     0.817 -44.98   0
        78    368.9685    798.5735 300.0260542 +22.7045649     53768.87     72.62734      1.566     3.07     3.450236     20.49038      5402.56        94     1.415     1.394 -84.60   0
        79    626.8190    797.6621 300.1065645 +22.7816601     1551.277     72.60884      1.440     2.80     3.578456     20.49038      180.957        19     1.125     0.921  -3.87   0
        80    297.6252    796.8196 300.0044463 +22.6826516     338.6156     72.64584      1.342     3.11     3.580838     20.49038     56.88483         6     0.960     0.484 -89.48   0
        81     22.1296    793.4962 299.9199506 +22.5989938     812.7308     72.73825      2.131     4.76     3.198869     20.49038     60.88434        17     1.368     0.996 -41.40   0
        82    655.6362    793.6050 300.1168536 +22.7891386     936.6377     72.64584      1.465     3.52     3.587785     20.49038     104.8265        16     1.059     0.983 -85.47   0
        83     55.6075    793.3181 299.9304020 +22.6089953     686.3553     72.55331      1.690     4.00     3.347578     20.49038     75.19811        14     1.132     1.046  50.56   0
        84    666.6985    792.1307 300.1207766 +22.7920332     518.6769     72.75672      1.546     5.21     3.592906     20.49038     56.23146        11     1.080     0.813 -25.35   0
        85    987.3591    790.3972 300.2212377 +22.8876698     316.1281     72.64584      1.531     4.35     3.859162     20.49038     27.15883         5     1.024     0.526 -44.38   0
        86    772.3582    788.4462 300.1548756 +22.8226594     450.9067     72.68282      1.822     6.12     3.653261     20.49038     34.84695        11     1.177     0.941  -9.43   0
        87    809.8010    778.7026 300.1697057 +22.8310885     840.7006     72.51626      1.543     3.50     3.672147     20.49038     75.78518        17     1.134     0.971  64.07   0
        88    418.6797    775.8197 300.0489071 +22.7129553     31545.97     72.62734      1.546     2.98     3.566578     20.49038     3508.682        79     1.390     1.334  75.91   0
        89    433.0399    776.3835 300.0531898 +22.7174256     2022.413     72.64584      1.521     2.84     3.545562     20.49038     188.2522        25     1.205     1.063  72.10   2
        90    429.7721    770.1574 300.0541970 +22.7146592     636.6954     72.64584      1.757     4.06     3.586713     20.49038     51.54476        13     1.091     0.858  -0.60   2
        91    941.8502    771.8406 300.2130832 +22.8687014     2737.894     72.64584      1.637     3.53     3.853587     20.49038     199.6391        27     1.217     1.182 -43.83   0
        92    699.6058    767.8860 300.1389022 +22.7949433     1007.721     72.55331      1.451     2.98       3.6614     20.49038     117.0368        17     1.099     0.915  59.40   0
        93    536.0815    767.6605 300.0880781 +22.7458353     405.6369     72.71978      1.342     3.79     3.405274     20.49038     46.72838         9     0.970     0.655 -51.34   0
        94    301.0842    767.6041 300.0150167 +22.6753120     885.4355     72.55331      1.581     4.31     3.611577     20.49038     92.78728        12     1.104     0.808  27.44   0
        95    546.8693    762.7177 300.0930411 +22.7476531     802.7736     72.73825      1.366     2.91     3.417909     20.49038     94.75751        13     0.992     0.821 -84.89   0
        96    106.3130    763.5262 299.9558289 +22.6156802     469.8235     72.77518      1.401     3.53     3.540151     20.49038     58.57355        10     0.971     0.830   4.43   0
        97    947.7917    759.4240 300.2189709 +22.8669165     525.1956     72.62734      1.858     6.40     3.853215     20.49038      48.6019        13     1.268     0.908  33.74   0
        98    492.9983    757.3154 300.0780364 +22.7299435     456.7194     72.55331      1.485     4.51     3.513395     20.49038     46.15372         9     1.039     0.669 -68.88   0
        99    701.1969    756.6117 300.1430618 +22.7921845     275.4088     72.44212      1.172     3.92      3.68232     20.49038     38.07961         7     0.857     0.627 -78.44   0
       100    134.3456    756.7413 299.9667400 +22.6221508     412.5278     72.68282      1.662     5.89     3.582749     20.49038     60.91162        10     1.278     0.765  49.73   0
       101    925.7874    754.2256 300.2138019 +22.8588287     400.2424     72.62734      1.455     4.06     3.859713     20.49038     41.59451         6     0.827     0.568 -42.63   0
       102    298.8513    752.1661 300.0193396 +22.6702147     500.5875     72.64584      1.475     4.60     3.630242     20.49038     53.82604         9     1.013     0.850 -14.61   0
       103    622.2722    742.5579 300.1230588 +22.7644834     371.1469     72.60884      1.293     3.49     3.681404     20.49038     49.80369         9     0.884     0.755  23.37   0
       104    591.7787    740.6149 300.1141994 +22.7547807     718.8168     72.60884      1.576     3.23     3.631664     20.49038     64.91124        11     0.888     0.824 -88.12   0
       105    501.0529    739.8079 300.0862316 +22.7273367     473.9196     72.62734      1.898     4.43     3.558923     20.49038     34.27798         6     1.058     0.528 -82.31   0
       106   1008.2087    737.1396 300.2450480 +22.8786222     4415.728     72.59033      1.674     3.50     3.807446     20.49038     321.5746        38     1.331     1.283 -83.09   0
       107    613.7493    738.1951 300.1218238 +22.7606753     1388.055     72.60884      1.413     2.81     3.686631     20.49038     164.4126        17     1.055     0.922  18.57   0
       108    996.7481    728.4614 300.2442951 +22.8726953     1583.569     72.68282      1.677     3.62     3.821808     20.49038     132.7681        22     1.256     1.094 -26.71   0
       109    359.5762    722.3334 300.0479107 +22.6798802     904.0145     72.60884      1.460     3.31     3.780145     20.49038     101.3246        15     1.026     0.965 -40.29   0
       110    823.0104    719.7940 300.1929657 +22.8181357     2508.551     72.49773      1.606     3.23     3.801836     20.49038     238.8437        28     1.307     1.109  14.36   0
       111    247.1373    719.7135 300.0138129 +22.6453888      293.563     72.73825      1.271     3.45     3.659279     20.49038     33.32397         5     0.988     0.349  46.06   0
       112     45.3803    710.3388 299.9541905 +22.5821412     835.2938     72.57182      1.736     3.93     3.464682     20.49038     89.44077        16     1.305     1.034  -6.56   0
       113    905.2729    705.6021 300.2232097 +22.8387169     828.3892     72.53479      1.893     4.71     3.934342     20.49038     66.39626        16     1.265     1.017  31.47   0
       114    208.1348    706.4075 300.0060171 +22.6298681     624.9424     72.60884      1.525     4.12     3.679198     20.49038     67.26557         9     1.084     0.641 -22.19   0
       115    941.4733    696.7363 300.2373732 +22.8470194     147742.6     72.66433      1.612     3.20     3.958168     20.49038     13172.32       151     1.496     1.444  81.82   0
       116    703.6003    700.4175 300.1620710 +22.7767750     308.2406     72.53479      1.372     3.81     3.888489     20.49038     43.83663         8     1.023     0.624  11.04   0
       117    794.0797    697.1470 300.1913122 +22.8029610     619.3176     72.64584      1.334     3.65     3.810279     20.49038     71.09909         9     0.958     0.762  27.96   0
       118    973.8566    689.5028 300.2498180 +22.8546457     384.8651     72.71978      1.307     2.75     3.899384     20.49038     65.96168         7     1.057     0.593  55.69   0
       119    627.7321    685.6342 300.1432547 +22.7497833     1538.437     72.62734      1.324     2.37     4.080137     20.49038     237.1173        18     1.036     0.894  23.24   0
       120    808.8814    682.8677 300.2005626 +22.8032978      9361.47     72.73825      1.439     2.81     3.854063     20.49038     1059.813        43     1.219     1.199  67.28   0
       121    310.4342    677.8741 300.0470785 +22.6523832     4941.932     72.60884      1.486     2.70     3.770306     20.49038      642.175        32     1.190     1.156 -37.28   0
       122    392.5032    675.9086 300.0732320 +22.6764415     1137.672      72.8121      1.338     2.66     3.953644     20.49038     175.7418        17     1.034     0.913  74.55   0
       123     24.0936    676.2993 299.9586402 +22.5659933     1556.058      72.8121      1.589     3.50     3.394945     20.49038     168.6816        23     1.264     1.093  -4.76   0
       124    267.8482    673.7861 300.0351704 +22.6384326     480.6321     72.64584      1.471     4.52     3.737546     20.49038     56.43354        10     0.995     0.814 -38.28   0
       125    600.7249    671.6989 300.1393760 +22.7376851      746.591     72.75672      1.325     3.17     4.186806     20.49038     95.70535        13     1.054     0.828 -86.31   0
       126    592.3859    663.6622 300.1393916 +22.7328779     3197.183     72.60884      1.378     2.52      4.26298     20.49038     421.9854        23     1.130     0.985  89.73   0
       127    582.4565    657.4256 300.1383274 +22.7281105     1501.673     72.62734      1.422     2.56     4.311986     20.49038     173.5204        17     1.055     0.959  48.31   0
       128    511.5809    657.0029 300.1164108 +22.7067344      227.385     72.55331      1.386     3.34      4.15118     20.49038     43.36119         5     0.743     0.623  -0.57   0
       129    976.2585    655.4685 300.2616245 +22.8455890     441.9197     72.64584      1.431     5.39     3.907108     20.49038     42.69405        10     1.088     0.754  35.34   0
       130    493.9634    654.7104 300.1116746 +22.7007928     212.4074     72.60884      1.166     3.59     4.110197     20.49038     42.28553         7     0.752     0.654  -8.24   0
       131    246.0428    653.5283 300.0349746 +22.6260795     634.4867     72.60884      1.427     3.31     3.793527     20.49038     65.25993        12     0.995     0.782 -82.71   0
       132    260.2713    651.9407 300.0399120 +22.6298935     637.8739     72.66433      1.554     3.30      3.79924     20.49038     77.25261        12     0.996     0.829  86.70   0
       133    317.3460    648.8410 300.0586584 +22.6461290     323.6367     72.59033      1.233     2.60     3.831002     20.49038     42.94258         6     0.710     0.620  19.28   0
       134    285.8461    648.8903 300.0488512 +22.6366923      535.107     72.60884      1.394     3.81     3.807811     20.49038     66.90676        10     0.972     0.681  -6.08   0
       135    606.2669    647.4001 300.1489946 +22.7323726     345.2375     72.57182      1.246     3.43     4.477184     20.49038     54.02951        10     1.048     0.646  39.24   0
       136    507.4267    647.0963 300.1183365 +22.7026456     1785.598     72.57182      1.377     2.48     4.168398     20.49038     219.4698        21     1.093     0.948  64.67   0
       137    541.3925    646.0632 300.1292400 +22.7125352     262.2583     72.59033      1.398     4.45     4.274719     20.49038      30.2713         5     0.961     0.587  13.85   0
       138    161.3780    642.0291 300.0124048 +22.5973749     19580.24     72.62734      1.582     2.88     3.780359     20.49038     2335.895        59     1.390     1.299  18.76   0
       139     82.4059    643.9046 299.9872681 +22.5742107     745.1793     72.51626      1.783     3.10     3.687382     20.49038     69.61611        13     1.001     0.872 -48.46   0
       140    592.3522    642.3512 300.1463040 +22.7267511     935.2823     72.66433      1.273     2.79     4.482265     20.49038     124.2469        17     1.085     0.887 -65.63   0
       141    627.8987    641.4191 300.1576706 +22.7371417     304.4469     72.55331      1.102     2.01     4.489669     20.49038     67.62039         7     0.681     0.649   4.54   0
       142    345.5040    634.4950 300.0720717 +22.6504612     332.1183     72.79364      1.193     3.74     3.859709     20.49038     41.09459         6     0.999     0.401 -70.98   0
       143   1010.5215    628.8032 300.2809691 +22.8481939     1069.872     72.53479      1.670     3.62     3.773584     20.49038     103.4409        16     1.149     0.958  15.10   0
       144    876.9376    626.7871 300.2399853 +22.8075894     548.7153     72.60884      1.563     3.47     4.022779     20.49038     68.76652        11     1.199     0.710  40.83   0
       145    107.3211    626.1804 300.0007622 +22.5766068     1436.601     72.62734      1.870     5.66     3.803043     20.49038     112.7176        24     1.515     1.106  81.93   0
       146    173.7448    626.6930 300.0212276 +22.5966882     470.9097     72.68282      1.389     3.34     3.826246     20.49038     46.86002         5     0.826     0.465  46.40   0
       147    555.5954    623.1288 300.1411090 +22.7102119     432.6879     72.57182      1.236     4.10     4.459769     20.49038     56.53389         6     0.781     0.614  58.40   0
       148    950.2155    621.5573 300.2645222 +22.8280444     785.2285     72.64584      1.735     7.97     3.978668     20.49038     71.33815        19     1.755     1.011 -11.38   2
       149    945.7881    620.8118 300.2633843 +22.8265037     251.7687     72.51626      1.085     3.97     3.992367     20.49038     46.04826         5     0.925     0.487  89.88   2
       150    348.5404    622.1121 300.0770377 +22.6478196     248.0739      72.7013      1.295     3.73     3.862327     20.49038     44.47918         6     0.812     0.492  82.71   0
       151    512.3832    615.3979 300.1301746 +22.6950350     709.6162     72.53479      1.218     2.60     4.286372     20.49038     100.9299        12     0.922     0.765  11.36   0
       152    660.2222    614.0158 300.1766339 +22.7389659     490.5298     72.60884      1.578     2.97     4.540344     20.49038     63.30248         8     0.938     0.726 -89.43   0
       153    707.7532    612.5933 300.1918948 +22.7528063     469.5759     72.64584      1.283     2.93     4.312948     20.49038     69.10326         8     0.875     0.613   5.87   0
       154    678.2370    612.0043 300.1828958 +22.7437891     543.0258     72.66433      1.260     2.75     4.442753     20.49038     78.16013        10     0.885     0.696   8.78   0
       155    556.7374    611.1509 300.1453548 +22.7071164     929.5648     72.68282      1.329     2.60     4.538213     20.49038     119.4026        14     0.965     0.815 -74.89   0
       156    990.4916    606.8172 300.2818658 +22.8358766     3534.959     72.55331      1.595     4.26     3.830118     20.49038      329.436        35     1.415     1.214 -30.81   0
       157    522.2960    606.7386 300.1360712 +22.6955223     1635.654     72.71978      1.328     2.52     4.354845     20.49038     204.4414        17     1.003     0.892  70.17   0
       158     84.0902    600.2103 300.0019820 +22.5621879     5138.361     72.57182      1.625     3.06     3.766322     20.49038     529.7003        42     1.463     1.326  78.50   0
       159    497.5451    601.4589 300.1300855 +22.6865848     281.7706     72.68282      1.239     4.13     4.257326     20.49038      42.0381         6     1.041     0.468  35.03   0
       160    385.6241    593.3610 300.0979054 +22.6506943      9001.43     72.64584      1.378     2.47     3.911952     20.49038     1126.039        42     1.193     1.135  54.99   0
       161    643.8218    594.5152 300.1778619 +22.7284507     168.8246     72.57182      1.204     4.27     4.668718     20.49038     31.91793         5     0.880     0.590 -44.08   0
       162    508.0834    590.4300 300.1369459 +22.6865796     9069.025     72.64584      1.330     2.47     4.319545     20.49038     1116.496        38     1.188     1.056  50.76   0
       163    273.3847    587.4847 300.0649217 +22.6153392     285.6954     72.59033      1.184     4.27     3.914494     20.49038      39.8049         5     0.964     0.540 -41.86   0
       164    919.6294    584.4303 300.2670476 +22.8082148     1945.719     72.60884      1.476     2.63     3.982095     20.49038     222.6941        22     1.132     1.004  83.33   0
       165    754.4298    586.5984 300.2148735 +22.7593328     353.4833     72.59033      1.366     3.76     4.163266     20.49038     39.45396         6     0.978     0.416 -17.08   0
       166   1004.3983    581.8392 300.2943143 +22.8328661     12484.55     72.64584      1.549     3.03     3.798377     20.49038     1224.562        51     1.320     1.270 -72.86   0
       167    568.6570    580.0178 300.1591751 +22.7017538     11572.34     72.60884      1.340     2.39     4.639753     20.49038     1559.896        41     1.153     1.090  67.34   0
       168    738.2401    575.9631 300.2132853 +22.7514263     549.7724      72.7013      1.242     2.80     4.269833     20.49038     72.83248        10     0.866     0.772 -51.14   0
       169    296.2848    575.3996 300.0759637 +22.6187422     1362.116     72.49773      1.340     2.78     3.895153     20.49038     166.3474        17     1.083     0.889  87.56   0
       170    453.8903    574.6566 300.1252100 +22.6658011     292.0584     72.68282      1.048     2.25     4.114127     20.49038     58.71434         5     0.724     0.428  20.57   0
       171    543.1294    572.8437 300.1535612 +22.6920405     461.6401     72.59033      1.321     3.31     4.454801     20.49038     56.85574         5     0.949     0.335  88.53   0
       172    843.2800    568.4595 300.2484421 +22.7807503     744.3998     72.68282      1.368     3.07     3.921949     20.49038     84.70549        14     1.004     0.887  20.04   0
       173    500.3262    568.1488 300.1417682 +22.6778584     4414.961     72.64584      1.336     2.42     4.334997     20.49038     551.0581        28     1.089     1.051 -19.67   0
       174    478.7125    566.6535 300.1355300 +22.6709480     1241.493     72.66433      1.224     2.16     4.272405     20.49038     197.9043        15     0.929     0.847  63.22   0
       175    232.8145    565.9156 300.0593179 +22.5969803     786.0529     72.59033      1.395     2.73     3.932954     20.49038     109.0343        16     1.160     0.895  55.53   0
       176    920.2078    563.7601 300.2739407 +22.8024499     1686.115     72.66433      1.548     3.24     3.926435     20.49038     148.8456        20     1.139     1.001 -40.40   0
       177    616.9636    555.7549 300.1820886 +22.7092709     199775.9     72.66433      1.338     2.34     4.865288     20.49038     29899.67       196     1.405     1.393  85.33   0
       178    166.5448    563.3921 300.0395475 +22.5763731     276.1507     72.62734      1.488     4.25     3.906948     20.49038     28.27898         5     0.971     0.530  45.96   0
       179    440.6368    561.6862 300.1252995 +22.6581042       403.85     72.60884      1.468     2.96     4.031956     20.49038     63.06754         8     0.901     0.674  44.31   0
       180    800.6812    560.6743 300.2376989 +22.7657489     820.8269     72.73825      1.347     2.91      3.88648     20.49038     101.7908        12     0.950     0.811 -40.45   0
       181    894.2528    559.3796 300.2672741 +22.7934152     245.8479     72.60884      1.095     4.01      3.91252     20.49038     32.55041         6     0.892     0.516 -41.83   0
       182    303.0311    555.6965 300.0844586 +22.6151132     3426.532     72.57182      1.394     2.59     3.876569     20.49038     417.6518        27     1.120     1.022  65.59   0
       183    868.9093    551.8414 300.2618244 +22.7836563     519.0219     72.62734      1.300     2.85     3.893039     20.49038     66.43376        10     0.912     0.720  57.59   0
       184    507.6051    536.3959 300.1543432 +22.6709268     2752.329     72.46066      1.427     2.31     4.371465     20.49038     403.2291        30     1.504     0.956  88.23   0
       185    352.0239    538.4935 300.1052747 +22.6248726     390.1614     72.55331      1.372     3.58     3.825489     20.49038     46.80418         7     0.921     0.609 -18.47   0
       186    663.9086    533.5505 300.2039124 +22.7169678     417.1284     72.64584      1.635     3.27     4.414701     20.49038     35.99278         6     0.779     0.493  -6.15   0
       187    918.9301    532.6507 300.2836445 +22.7931295     439.4208     72.62734      1.584     3.52     3.863931     20.49038     56.31575         5     0.815     0.438  15.93   0
       188    824.8605    524.4177 300.2570045 +22.7625801     359.0295     72.57182      1.147     2.21     3.903884     20.49038     74.17545         7     0.784     0.567  34.04   0
       189    904.5844    522.1933 300.2825689 +22.7858273     1811.614     72.55331      1.466     2.81      3.85989     20.49038     188.0019        20     1.146     0.970  84.41   0
       190    791.7052    521.8723 300.2475022 +22.7519142     305.0258     72.73825      1.373     5.00     3.983684     20.49038     49.81965         7     1.218     0.580 -73.93   0
       191     34.7727    520.8174 300.0124467 +22.5246209     955.3039     72.64584      1.795     3.23     3.843642     20.49038     104.3732        17     1.096     1.053  42.00   0
       192    775.7480    519.9420 300.2431583 +22.7465780     2471.977     72.68282      1.306     2.37     4.087804     20.49038     367.9801        21     1.020     0.944  57.41   0
       193   1019.8495    517.5031 300.3200240 +22.8190070     485.8317     72.25641      1.361     4.62     3.813659     20.49038     53.97218         9     1.328     0.455  -9.52  16
       194    985.5327    516.5445 300.3096356 +22.8084529     362.3379     72.66433      1.569     4.82     3.826076     20.49038     36.72991         6     1.009     0.652 -67.04   0
       195    680.7737    516.5323 300.2146887 +22.7171358     519.9453     72.60884      1.415     2.94     4.353534     20.49038     76.12566        11     1.029     0.688 -48.23   0
       196    562.9568    515.7172 300.1782800 +22.6815857     772.7999     72.59033      1.273     2.95     4.502198     20.49038     116.9168        12     0.984     0.803  61.81   0
       197   1018.9005    513.2297 300.3211155 +22.8174947     832.5386     72.57182      1.615     3.09     3.813856     20.49038     77.07063        12     1.014     0.782 -83.61  17
       198    904.9183    512.3080 300.2858825 +22.7830872     2303.975     72.77518      1.671     2.98     3.853948     20.49038     261.9298        30     1.542     1.037  77.35   0
       199    658.2117    510.5663 300.2096012 +22.7086602     832.4138     72.60884      2.073     3.53     4.441409     20.49038     74.22856        14     1.057     0.906 -85.61   0
       200    942.9501    507.4057 300.2993281 +22.7930717      4359.16     72.60884      1.420     2.65     3.833727     20.49038     526.2712        30     1.194     1.066 -87.19   0
       201    496.5297    509.0847 300.1597646 +22.6597663     403.4008     72.73825      1.315     3.02     4.264316     20.49038     48.06121         6     0.771     0.488  79.94   0
       202    444.1620    510.4271 300.1430389 +22.6444495     257.8109     72.64584      1.254     3.38      4.00977     20.49038     43.46766         6     0.802     0.492  -4.46   0
       203    603.5953    503.2628 300.1949710 +22.6901922     325.5592     72.60884      1.154     2.37     4.625279     20.49038     48.81652         5     0.693     0.461 -70.89   0
       204    175.0511    497.8740 300.0634610 +22.5601321     1073.383     72.64584      1.456     3.08     3.980958     20.49038     111.9583        16     1.094     0.916 -80.60   0
       205    835.9354    491.2035 300.2712384 +22.7563571     325.4104     72.62734      1.433     3.43     3.930094     20.49038     43.67379         7     0.825     0.708 -64.16   0
       206    167.6339    487.8183 300.0644209 +22.5550222     421.4898     72.60884      1.321     3.91     3.989189     20.49038     58.09614         6     0.897     0.488 -47.33   0
       207    775.1494    481.5593 300.2554329 +22.7353736      428.733     72.64584      1.158     2.72     4.146194     20.49038     82.36693         8     0.973     0.590  63.24   0
       208    716.2904    478.2471 300.2381769 +22.7167848     759.0496     72.60884      1.259     2.34     4.337719     20.49038     112.1445        10     0.948     0.715 -52.94   0
       209    664.1329    479.5578 300.2215112 +22.7015302     340.5468     72.60884      1.298     3.43      4.40017     20.49038     50.34753         6     0.780     0.496   2.59   0
       210    695.6526    476.1758 300.2324228 +22.7100052     177.6793     72.64584      1.157     3.40     4.349782     20.49038     37.32871         5     0.791     0.422 -70.76   0
       211    777.2257    469.9456 300.2598497 +22.7326597     925.5248     72.66433      1.425     2.63     4.105442     20.49038     115.9194        12     0.885     0.841  89.05   0
       212    934.5055    466.3811 300.3100142 +22.7787537     1005.571     72.55331      1.366     2.48     3.817209     20.49038     126.4952        16     1.023     0.841 -12.58   0
       213    918.8899    462.6977 300.3063426 +22.7730178     624.4699      72.8121      1.390     2.53     3.826774     20.49038     84.79102        11     0.926     0.730  76.56   0
       214    663.0394    460.7047 300.2272906 +22.6957880     3304.156     72.60884      1.291     2.14     4.348994     20.49038     527.4846        26     1.094     0.937  63.52   0
       215   1023.3780    459.8719 300.3398341 +22.8035005     378.4691     58.25613      1.134     2.59     3.819011     20.49038     56.41859         7     0.738     0.602 -64.30  24
       216    138.8076    451.9547 300.0671067 +22.5360861     286.7325     72.64584      1.510     3.70     4.075977     20.49038     39.46842         5     0.816     0.481  27.10   0
       217    502.7884    447.8227 300.1815978 +22.6440555     348.2153     72.62734      1.197     2.31     4.206675     20.49038     57.89961         6     0.699     0.566  50.88   0
       218    434.8164    448.3358 300.1602873 +22.6238245     283.2903     72.60884      1.176     2.55     4.091757     20.49038     49.50218         5     0.732     0.437 -17.82   0
       219    946.2828    439.4150 300.3224383 +22.7745319     571.4368     72.59033      1.532     3.07     3.825315     20.49038     71.91037        11     0.950     0.811  41.03   0
       220    773.6273    434.6535 300.2701842 +22.7214431     1076.363     72.64584      1.210     2.22     4.010268     20.49038     161.1916        13     0.893     0.750  54.02   0
       221    569.2443    434.9725 300.2064469 +22.6602866     414.2232     72.64584      1.337     3.26      4.30653     20.49038     56.76875        11     0.881     0.861  71.25   0
       222    277.5460    432.8318 300.1164211 +22.5722145     629.8256     72.64584      1.386     2.97     4.269552     20.49038     87.78181        13     1.006     0.863 -46.72   0
       223    339.9504    428.4391 300.1372452 +22.5896682     3711.667     72.62734      1.349     2.51      4.19865     20.49038       480.47        25     1.083     0.987  62.68   0
       224    287.1585    423.2362 300.1225228 +22.5723436     7670.088      72.7013      1.359     2.44     4.356688     20.49038     840.9369        37     1.222     1.085  67.58   0
       225    427.9286    417.4973 300.1681534 +22.6129067      4768.08     72.73825      1.289     2.28     4.224658     20.49038     695.6811        29     1.094     1.008  62.73   0
       226    672.1525    414.2321 300.2452110 +22.6851715     18550.52     72.66433      1.277     2.23     4.209646     20.49038     2528.193        52     1.213     1.062  81.40   0
       227    519.6977    416.0153 300.1971817 +22.6399918     262.4139     72.51626      1.124     2.58     4.211167     20.49038     48.72293         5     0.772     0.537  -1.99   0
       228    690.0843    413.9122 300.2508981 +22.6904530     937.2943     72.75672      1.905     6.33     4.159701     20.49038     87.97603        16     1.675     0.740 -46.77   0
       229    869.0562    404.6542 300.3096511 +22.7414116     414.7736     72.68282      1.355     3.07     3.905431     20.49038     48.37021         7     0.745     0.640  16.36   0
       230    291.9946    401.4843 300.1310846 +22.5675513     411.3782     72.55331      1.397     3.63     4.412509     20.49038     45.18174         6     0.796     0.477 -13.42   0
       231   1005.8581    396.8144 300.3548375 +22.7801291     868.9329     72.60884      1.596     3.64     4.062651     20.49038     89.47953        16     1.194     0.882 -10.82   0
       232    542.6892    396.6258 300.2106278 +22.6413157     314.7448     72.57182      1.423     3.40     4.258348     20.49038     47.90773         6     0.847     0.515 -49.26   0
       233    715.2724    395.5799 300.2646906 +22.6927341     369.4414     72.66433      1.249     2.26     4.144022     20.49038     47.32123         5     0.688     0.456 -21.42   0
       234    226.7788    394.3268 300.1131388 +22.5459392     1996.045     72.62734      1.357     2.39      4.30677     20.49038     252.1862        22     1.058     1.008  -1.84   0
       235    612.7940    383.7088 300.2366373 +22.6586166     6449.925     72.53479      1.240     2.07     4.457586     20.49038     1101.624        31     1.102     0.963  72.06   0
       236    327.4867    383.1519 300.1480660 +22.5729323     700.6823     72.60884      1.163     2.29      4.38464     20.49038     107.2171        11     0.911     0.702   8.12   0
       237    185.2200    376.2596 300.1060880 +22.5282904     576.8975     72.57182      1.356     2.85      4.36776     20.49038     81.09348         9     0.870     0.756  42.74   0
       238    872.7581    375.5527 300.3202483 +22.7341574     336.8457     72.64584      1.315     2.85     4.004607     20.49038     46.19007         7     0.808     0.612  77.39   0
       239    816.9716    372.8773 300.3037343 +22.7166789     1223.532     72.62734      1.344     2.34     3.987733     20.49038      177.747        17     1.263     0.814 -74.86   0
       240     32.6763    373.8344 300.0594971 +22.4818360     1341.743     72.60884      1.533     3.03     4.755944     20.49038     161.2348        20     1.127     1.014  74.99   0
       241    726.3417    373.7389 300.2752249 +22.6897761     522.9033     72.68282      1.417     2.63     4.175217     20.49038     80.55443         9     0.960     0.648  70.78   0
       242      2.0914    371.4875 300.0507631 +22.4719866     921.6611     60.87264      1.531     5.98     5.022168     20.49038      101.052        16     1.388     0.869 -63.85  24
       243    519.4325    369.9476 300.2120478 +22.6266841     6026.963     72.64584      1.266     2.19     4.374895     20.49038     874.4306        29     1.084     0.957  68.05   0
       244   1008.5333    364.6926 300.3660951 +22.7716963     387.7566     72.77518      1.211     3.37     4.435685     20.49038     58.15933         8     0.951     0.608  49.15   0
       245    911.3674    364.2233 300.3359570 +22.7424648     1393.237     72.62734      1.369     2.54     4.246514     20.49038     181.6955        18     1.102     0.888  87.89   0
       246    504.1118    359.2429 300.2107542 +22.6190181     518.8087     72.62734      1.380     3.98     4.439046     20.49038      72.2601         8     1.152     0.597 -67.66   0
       247     10.8148    358.9677 300.0575330 +22.4710126     372.7908     72.60884      1.344     2.04     5.185159     20.49038     62.10103         5     0.753     0.451  30.38   0
       248    587.0195    356.5657 300.2374219 +22.6430967     534.4769     72.64584      1.500     3.01     4.478869     20.49038     66.07417         8     0.842     0.682 -59.28   0
       249     31.0094    355.4214 300.0649532 +22.4760539     1052.063     72.60884      1.405     3.05     5.069708     20.49038     118.7141        15     1.065     0.850  81.53   0
       250    864.9609    355.6536 300.3242753 +22.7261034     392.4104     72.62734      1.424     2.74     4.021335     20.49038     48.41362         5     0.852     0.469  -6.52   0
       251    567.4477    354.2972 300.2320667 +22.6365799     381.3532     72.66433      1.357     2.51     4.438449     20.49038     51.93274         5     0.717     0.460 -69.96   0
       252    884.1595    351.9987 300.3314439 +22.7308030      571.465     72.64584      1.204     2.35     4.157315     20.49038     85.42321         8     0.789     0.619  47.76   0
       253    407.0633    349.1801 300.1838313 +22.5870381     2484.595     72.60884      1.280     2.27     4.514083     20.49038     351.2339        21     0.979     0.943 -68.84   0
       254    125.2619    346.5214 300.0971100 +22.5017738     1095.014      72.7013      1.683     2.66     4.456511     20.49038     122.2974        15     0.987     0.889  20.20   0
       255    376.3257    338.5523 300.1777207 +22.5747722     29750.89     72.62734      1.320     2.30     4.540544     20.49038     4005.478        67     1.301     1.136  67.98   0
       256    911.0749    336.1526 300.3449735 +22.7343091     1270.708     72.62734      1.287     2.35     4.374653     20.49038     192.2884        19     0.997     0.984 -65.45   0
       257    866.4639    334.1881 300.3317080 +22.7203844     176.9596     72.57182      1.184     2.22     4.133971     20.49038     41.44463         5     0.690     0.467  69.78   0
       258     72.6427    326.3486 300.0873117 +22.4802025     5018.624     72.66433      1.581     2.79     4.721111     20.49038     564.4643        38     1.351     1.182  57.50   0
       259    826.5624    324.7737 300.3223295 +22.7057282     643.0922     72.64584      1.493     3.64     4.176942     20.49038     77.95309        15     1.241     0.927 -58.69   0
       260    250.6620    325.0916 300.1430228 +22.5332313     376.2479     72.71978      1.302     2.82     4.435521     20.49038     74.75783         8     0.842     0.767 -73.35   0
       261    474.8422    323.9370 300.2131023 +22.6001067     465.4185     72.62734      1.112     1.92     4.735722     20.49038      96.4818         7     0.696     0.605  78.96   0
       262    653.3746    320.8653 300.2696590 +22.6527248     233.5864     72.60884      1.443     3.80     4.450809     20.49038     35.74437         6     0.942     0.543 -24.62   0
       263    786.8019    318.3242 300.3120349 +22.6919658     1886.768     72.53479      1.289     2.19     4.235523     20.49038     301.8793        20     0.998     0.927  64.76   0
       264    595.0623    313.4875 300.2539005 +22.6331334     250.8535     72.71978      1.049     2.00     4.524281     20.49038     49.35701         6     0.717     0.498  -4.28   0
       265   1002.0579    311.2029 300.3814304 +22.7543798     537.0049     72.59033      1.356     2.89     4.597071     20.49038     65.48888         8     0.803     0.663 -37.12   0
       266    855.6608    304.3434 300.3380236 +22.7085714     273.6389      72.7013      1.628     3.44      4.28671     20.49038     41.67314         6     0.832     0.551  45.68   0
       267    448.4894    302.8404 300.2117481 +22.5861499     2162.196     72.62734      1.494     3.37     4.814073     20.49038     242.0512        23     1.396     0.878  65.80   0
       268    660.9850    301.9329 300.2781699 +22.6495659      281.869     72.60884      1.117     2.02     4.434201     20.49038     58.04356         5     0.592     0.575  -2.87   0
       269    887.7844    296.0318 300.3507302 +22.7158023     542.6697     72.60884      1.247     2.93     4.403862     20.49038     100.0299        10     1.028     0.623  60.20   0
       270    880.2773    296.8465 300.3481264 +22.7137884     260.5396     72.62734      1.427     2.67     4.373187     20.49038     42.54429         5     0.716     0.639  23.24   0
       271     18.7476    295.1004 300.0807126 +22.4550705      477.608     72.71978      1.832     3.78     5.194177     20.49038     56.69199         5     1.021     0.401 -62.38   2
       272     21.7515    293.3022 300.0822284 +22.4554557     550.8013     72.66433      1.558     2.43     5.169367     20.49038     52.29584         7     0.720     0.648  -5.16   2
       273    769.9939    293.2867 300.3149212 +22.6797363     336.4896     72.55331      1.194     2.81     4.366944     20.49038     67.28559         8     0.900     0.634   9.94   0
       274    524.4155    282.2917 300.2420340 +22.6030032     1281.794     72.55331      1.255     2.37     4.711067     20.49038     155.1637        15     0.981     0.874  87.08   0
       275    331.6573    282.7601 300.1819297 +22.5453634       242.34     72.60884      1.215     2.59     4.678718     20.49038     45.67235         5     0.727     0.441  72.40   0
       276    907.4803    275.8072 300.3634287 +22.7158864      399.576     72.55331      1.599     3.14     4.472677     20.49038      50.4492         5     0.741     0.461 -70.69   0
       277    769.2338    274.1986 300.3208757 +22.6740232     2166.001     72.59033      1.255     2.33     4.380923     20.49038     288.8313        22     1.043     0.958  70.46   0
       278      2.6797    259.5234 300.0872620 +22.4400436     66100.26     63.74056      1.517     2.86     5.118346     20.49038     8920.337        77     1.479     1.187  83.72  24
       279    477.5311    258.0829 300.2352987 +22.5820000     598.5099     72.73825      1.103     1.93     5.027841     20.49038     111.0729         8     0.708     0.665  -8.27   0
       280    152.6408    251.9873 300.1362762 +22.4828564     1472.042     72.62734      1.770     4.65     4.430086     20.49038     126.7984        24     1.421     1.102 -39.83   0
       281    183.2397    252.0512 300.1457617 +22.4920500      580.947     72.62734      1.310     2.89     4.386917     20.49038     82.60895         8     0.828     0.643  42.18   0
       282    890.0566    245.9969 300.3676668 +22.7020997     379.1299     72.59033      1.346     3.10     4.410554     20.49038     44.70203         7     0.881     0.510  36.81   0
       283    236.1722    243.5962 300.1649511 +22.5054939     528.3137     72.59033      1.946     6.03     4.365993     20.49038     65.56567        10     1.766     0.580  68.77   0
       284     22.4443    239.4998 300.0998912 +22.4402267     225.8642     72.64584      1.302     3.73     4.913538     20.49038     37.08273         6     1.009     0.396 -71.16   0
       285    912.1948    237.7006 300.3772571 +22.7063430     336.6966     72.51626      1.350     2.96     4.441217     20.49038     57.31684         6     0.719     0.644  89.19   0
       286    840.9026    235.7057 300.3556870 +22.6844230     505.7277      72.8121      1.246     2.19     4.366727     20.49038     109.8821        11     0.937     0.663  67.49   0
       287    431.1852    235.0279 300.2283587 +22.5614894     397.8181     72.64584      1.248     2.72     4.970918     20.49038     60.69474         8     0.821     0.632  50.90   0
       288    939.1830    224.7690 300.3898629 +22.7107051     2129.724     72.60884      1.384     2.42     4.463983     20.49038     308.7966        26     1.154     1.063 -84.68   0
       289    357.5717    221.8622 300.2097355 +22.5356458      2282.26     72.62734      1.346     2.33     4.987297     20.49038     359.0487        23     1.082     0.942  82.39   0
       290    435.4837    217.1944 300.2354784 +22.5576557     946.9154     72.55331      1.301     2.60     4.994346     20.49038     122.7104        14     0.951     0.841 -36.16   0
       291    187.1559    217.3913 300.1582172 +22.4832755     322.4304     72.64584      1.286     4.64     4.364213     20.49038     33.76575         7     0.989     0.619 -49.33   0
       292    837.4753    216.3380 300.3608997 +22.6778293     540.4498     72.68282      1.091     2.21     4.381334     20.49038     88.73338         9     0.786     0.663 -86.01   0
       293    944.9415    213.4660 300.3953232 +22.7091791     379.4535     72.66433      1.521     3.76     4.452169     20.49038     34.17897         6     0.815     0.497   3.79   0
       294    252.5229    209.3294 300.1811436 +22.5005584     851.0661     72.73825      1.434     2.42     4.338608     20.49038     95.38416        11     0.844     0.797  76.46   0
       295    370.4185    208.6081 300.2180276 +22.5356901     272.4612     72.59033      1.455     4.19     4.982747     20.49038     36.06838         5     0.984     0.508  48.04   0
       296    790.2584    206.1488 300.3494933 +22.6607615     1670.411     72.68282      1.308     2.50     4.369403     20.49038     234.2158        20     1.121     0.923  77.92   0
       297    855.2138    205.7921 300.3698465 +22.6801090     568.3148     72.51626      1.252     2.64     4.411199     20.49038     91.39954         9     0.847     0.709  -7.33   0
       298    104.8805    206.7616 300.1361052 +22.4555545      245.059     72.59033      1.440     3.63     4.659294     20.49038     37.28767         5     1.118     0.339 -14.02   0
       299    273.6314    202.5677 300.1898965 +22.5049448     537.7766     72.62734      1.372     2.99     4.332232     20.49038     85.58437         9     0.949     0.684  18.68   0
       300    793.9883    197.4738 300.3534681 +22.6593848     877.8655     72.64584      1.521     3.25     4.369403     20.49038     105.4027        15     1.215     0.748  89.40   0
       301    714.6508    196.7430 300.3289938 +22.6354153     1228.084     72.68282      1.249     2.27     4.381641     20.49038     210.2348        15     0.946     0.817  63.18   0
       302    910.2294    188.2867 300.3926677 +22.6915476     1516.237     72.62734      1.455     2.53     4.420855     20.49038     187.5486        18     1.056     0.924  82.30   0
       303    640.9291    188.6026 300.3086787 +22.6109949     951.7217     72.57182      1.252     2.20     4.582402     20.49038     170.6321        13     0.910     0.771  86.32   0
       304    922.3426    187.1687 300.3968058 +22.6948524     789.9274     72.64584      1.467     2.71     4.406924     20.49038     119.2975        15     1.006     0.956 -89.89   0
       305     12.6655    176.8771 300.1171582 +22.4193242     455.2818     72.71978      1.796     3.83     4.739681     20.49038      43.3887         6     0.931     0.451  50.21   0
       306     62.9367    174.5893 300.1335090 +22.4337432     434.1421     72.57182      1.335     3.65      4.71391     20.49038     67.10268        10     1.068     0.772 -15.76   0
       307    272.9787    170.4484 300.2001066 +22.4955268     858.0989     72.64584      1.581     2.78     4.297165     20.49038     104.5525        13     1.039     0.822  78.23   0
       308    134.8501    165.3332 300.1588447 +22.4526495     2232.773     72.60884      1.510     2.87     4.507484     20.49038     281.4417        25     1.214     1.092  62.28   0
       309    957.9279    162.5004 300.4158963 +22.6984113     825.1115     72.79364      1.459     3.39     4.359698     20.49038     108.4088        14     1.089     0.933  49.10   0
       310     83.9697    162.3761 300.1439998 +22.4365448     517.8792     72.62734      1.421     5.63     4.700162     20.49038      61.6036        10     1.135     0.786  78.23   0
       311    292.2243    158.7727 300.2098737 +22.4979428     5668.188     72.60884      1.415     2.48     4.322395     20.49038     707.2283        34     1.246     1.066  74.04   0
       312    274.1197    160.2790 300.2037579 +22.4929488     464.9038     72.75672      1.672     2.62     4.289536     20.49038     49.61857         5     0.882     0.344 -47.92   0
       313     76.3363    153.2187 300.1445976 +22.4316276     1299.452     72.59033      1.475     2.96     4.728407     20.49038      132.495        20     1.216     0.974  65.23   0
       314     37.5814    154.2722 300.1322217 +22.4203089     349.3318     72.62734      1.656     4.89     4.714445     20.49038     41.42482         7     1.076     0.629  19.67   0
       315    275.4913    149.6864 300.2076179 +22.4903182     672.4149     72.79364      1.539     2.57     4.308876     20.49038     97.40419        12     0.942     0.792  36.80   0
       316    936.3459    140.4156 300.4163280 +22.6856002     3538.928     72.59033      1.427     2.53     4.356413     20.49038     461.1104        31     1.262     1.054 -87.27   0
       317    238.9444    136.1701 300.2006402 +22.4754826     360.8801     72.64584      1.497     6.08     4.335952     20.49038      32.5622         8     1.122     0.926  40.06   0
       318    485.7533    135.6273 300.2775595 +22.5492881     581.8793     72.66433      1.211     2.19     4.699668     20.49038     105.6155        10     0.893     0.629  86.64   0
       319    600.2928    133.7254 300.3138192 +22.5830534     299.1884     72.79364      1.456     4.20     4.749916     20.49038     41.40734         5     0.917     0.548  35.68   0
       320    409.8129    127.3049 300.2566352 +22.5241443     654.3182     72.55331      1.325     2.57     4.746745     20.49038      70.2151         8     0.743     0.688  31.71   0
       321    413.9621    126.3533 300.2582341 +22.5251142     456.2103     72.66433      1.627     2.72     4.742554     20.49038     52.60646         5     0.742     0.423 -21.50   1
       322    176.2174    124.5194 300.1849251 +22.4533345     644.2498     72.62734      1.304     2.80     4.553624     20.49038     79.67846         9     0.882     0.667 -68.59   0
       323    537.1086    122.9069 300.2976615 +22.5610183     1566.501     72.79364      1.301     2.24     4.693263     20.49038     259.8331        20     1.044     0.916  46.13   0
       324     74.2981    122.9333 300.1537808 +22.4223235     349.1986     72.71978      1.836     6.26     4.832806     20.49038     35.81874         9     1.489     0.739 -75.92   0
       325    465.0831    123.3591 300.2751056 +22.5395709     378.5105     72.59033      1.347     2.06     4.607359     20.49038     63.16323         7     0.671     0.650   5.78   0
       326    598.9702    122.1333 300.3171649 +22.5793260     334.4342     72.60884      1.391     2.25     4.669976     20.49038      60.3671         6     0.726     0.531  33.70   0
       327    280.7631    117.9312 300.2195492 +22.4827794     453.7287     72.60884      1.304     3.49     4.370764     20.49038     62.02654         8     0.895     0.652 -78.46   0
       328    825.2481    112.3586 300.3907997 +22.6442751      385.723     72.66433      1.238     1.95     4.428215     20.49038     53.39449         5     0.662     0.467  13.53   0
       329    673.3414    108.4808 300.3447427 +22.5976761      318.307     72.68282      1.402     3.31     4.475884     20.49038     45.78233         6     1.037     0.459 -82.64   0
       330    311.1800    102.6563 300.2339549 +22.4875083     6008.934     72.64584      1.377     2.46     4.447546     20.49038     788.0135        37     1.242     1.099  72.89   0
       331    817.7224    103.2982 300.3913916 +22.6394170     392.3825     72.75672      1.325     4.45     4.407534     20.49038      41.8571         7     1.102     0.512  28.92   0
       332    162.2850    101.8256 300.1879514 +22.4426424     793.2919     72.60884      1.917     4.59     4.760005     20.49038     80.68957        16     1.316     1.008  54.52   0
       333    940.7299    100.2220 300.4307229 +22.6753532     212.4292     72.62734      1.046     3.79     4.344115     20.49038     41.79881         5     0.863     0.479 -43.64   0
       334      6.2437     99.3736 300.1402846 +22.3951555     636.8948     72.64584      1.481     3.37     4.752239     20.49038     75.63548        11     1.078     0.693 -40.69  16
       335    283.0284     96.5500 300.2271828 +22.4773179     417.4022     72.64584      1.503     2.87     4.411378     20.49038     46.10582         6     0.771     0.495   4.36   0
       336    326.5243     93.7004 300.2416277 +22.4895344      312.217     72.75672      1.231     4.93     4.456644     20.49038     49.36074         8     1.082     0.635  47.73   0
       337     72.8473     92.7602 300.1631087 +22.4132273     452.4093     72.66433      1.402     2.78     4.925076     20.49038     70.02766         9     0.891     0.725  78.84   0
       338    557.2756     87.9935 300.3152529 +22.5570268     6327.833     72.55331      1.369     2.48     4.534357     20.49038     796.5885        35     1.241     1.052  77.29   0
       339    442.6409     87.8964 300.2796180 +22.5226590     700.4537     72.62734      1.335     2.51     4.448354     20.49038     98.30139        10     0.915     0.664  52.69   0
       340    614.3249     82.5684 300.3347675 +22.5725543     328.3069     72.62734      1.138     2.73     4.450218     20.49038     53.65485         7     0.820     0.633 -74.07   0
       341    577.7977     82.2606 300.3234977 +22.5615260     319.7124     72.60884      1.385     3.69     4.492375     20.49038     35.81721         5     0.928     0.422 -46.31   0
       342    751.4563     79.4124 300.3784900 +22.6127103     403.9349     72.62734      1.461     3.79     4.322773     20.49038      43.9413         6     0.929     0.443  73.79   0
       343    809.8946     77.9182 300.3971783 +22.6297761     843.1659     72.79364      1.386     2.43     4.377213     20.49038     118.8885        12     0.987     0.714  83.86   0
       344    902.3677     76.5629 300.4264332 +22.6570670     515.1625     72.64584      1.635     2.74     4.401265     20.49038     64.99849         9     0.864     0.754  15.32   0
       345    120.3520     72.9843 300.1842713 +22.4217916     318.1632     72.66433      1.864     4.78     4.915681     20.49038     31.72856         5     1.442     0.450 -83.31   0
       346    250.1580     71.9191 300.2249480 +22.4603931     521.9022     72.59033      1.360     2.84     4.411378     20.49038     57.87592         8     0.774     0.682  39.33   0
       347    685.6727     68.1472 300.3616539 +22.5897750     6419.821     72.62734      1.334     2.39     4.457613     20.49038     779.0408        33     1.174     1.033  76.47   0
       348    608.4563     70.3356 300.3369049 +22.5672809     473.1828     72.68282      1.371     2.99     4.406857     20.49038     67.58458         9     0.964     0.683  27.81   0
       349    460.5428     67.0941 300.2919278 +22.5220454     1542.562     72.68282      1.297     2.40     4.335644     20.49038      219.359        18     1.078     0.859  76.10   0
       350    726.7633     65.5617 300.3752878 +22.6013351     978.9971      72.7013      1.284     2.24     4.351726     20.49038     144.6395        13     0.899     0.813 -21.39   0
       351    742.9025     61.7420 300.3815521 +22.6050690     655.8622     72.71978      1.470     3.53     4.332716     20.49038     83.72694        12     1.112     0.735 -58.59   0
       352    209.5458     59.4755 300.2163592 +22.4446480     771.0714     72.66433      1.521     2.64     4.502162     20.49038     85.62847        11     0.957     0.765  55.29   0
       353     56.4957     59.9544 300.1686611 +22.3989076     111.3578     72.64584      1.081     3.77     4.938076     20.49038     34.43301         6     0.824     0.496  84.52   0
       354   1012.7927     59.3788 300.4664269 +22.6851709     623.9208     72.60884      1.380     2.93      4.34177     20.49038     70.34309         8     0.958     0.544 -22.29   0
       355    781.2378     57.0797 300.3950038 +22.6152055     490.4856     72.59033      1.279     2.82     4.352056     20.49038     63.30595        10     0.956     0.765  39.23   0
       356    729.9192     53.0808 300.3803150 +22.5986918     2822.907     72.75672      1.349     2.52      4.35587     20.49038     374.0611        25     1.109     1.040  66.50   0
       357    370.8061     53.7498 300.2683421 +22.4913273      351.166     72.60884      1.362     2.91     4.429169     20.49038     72.04445         9     0.983     0.691 -80.81   0
       358    745.1467     51.9068 300.3854381 +22.6029133     1004.841     72.68282      1.775     4.16      4.34266     20.49038     95.88525        15     1.429     0.736  53.03   0
       359     23.2726     47.3207 300.1624384 +22.3853204     856.1531     72.75672      1.656     3.50     4.940847     20.49038      86.3239        13     1.127     0.790  -2.95   0
       360    816.3515     44.4870 300.4100235 +22.6220960     1539.713     72.62734      1.371     2.63     4.366882     20.49038     222.5017        21     1.146     0.964  84.05   0
       361    976.3880     43.6909 300.4601596 +22.6697645     236.7003     72.57182      1.138     3.45     4.342047     20.49038     35.19584         5     0.751     0.457 -73.45   0
       362    754.2073     37.8883 300.3928026 +22.6015953     753.5331     72.53479      1.327     2.86     4.355998     20.49038     102.5649        14     0.993     0.888 -73.62   0
       363    559.9778     37.3334 300.3325100 +22.5432771     969.7222     72.60884      1.306     2.71     4.449791     20.49038     139.7077        14     1.062     0.775  89.37   0
       364    132.9116     36.7850 300.1999017 +22.4151630     560.9138     72.57182      1.822     5.07     4.878597     20.49038     57.22832         9     1.190     0.616 -76.92   0
       365    463.8219     35.2658 300.3032610 +22.5138824     697.0716     72.60884      1.221     2.46     4.257182     20.49038     104.9599        12     0.914     0.789 -26.70   0
       366    845.8734     34.1377 300.4225753 +22.6279565     306.1604     72.66433      1.151     2.07     4.361716     20.49038      73.6465         8     0.776     0.619  51.72   0
       367    235.1539     25.2424 300.2354086 +22.4424913     3909.384     72.68282      1.457     2.55     4.411378     20.49038     405.0907        30     1.243     1.085  53.31   0
       368    803.1451     25.9606 300.4119119 +22.6128153     607.7794     72.62734      1.254     2.64     4.359177     20.49038     78.06937        10     0.833     0.784 -17.07   0
       369    657.4698     22.5147 300.3676586 +22.5682123     459.9543     72.73825      1.348     2.96     4.432223     20.49038     48.13433         6     0.870     0.429 -70.27   0
       370    561.3301     22.5964 300.3377056 +22.5394466     404.2593     72.57182      1.407     4.43     4.424159     20.49038     42.34657         7     1.138     0.491   0.09   0
       371    796.5342     17.7141 300.4125242 +22.6084651      996.951     72.71978      1.511     2.55     4.360745     20.49038     117.7999        12     0.877     0.812  65.97   0
       372    419.3293   1019.6180 299.9698332 +22.7830602     616.1845     72.57182      2.058     4.83     3.384057     20.49038     45.03323        10     1.226     0.972  67.54  16
       373    610.8513   1013.0057 300.0315662 +22.8386460     2421.801     72.60884      1.967     4.56     2.761444     20.49038     174.4022        32     1.424     1.313 -46.48   0
       374    697.4352   1008.3313 300.0600394 +22.8632842     8438.753     72.62734      1.946     4.39     3.586213     20.49038     485.1159        49     1.497     1.479 -71.85   3
       375    702.9909   1006.0236 300.0625200 +22.8642890     9487.286     72.62734      1.924     4.41     3.585871     20.49038     580.2082        51     1.563     1.456 -60.68   3
       376    797.6102   1008.9253 300.0910422 +22.8935056     809.6896     72.62734      2.319     6.13     3.063469     20.49038     55.49831        16     1.498     0.938 -15.12   0
       377    229.0000   1001.4023 299.9165981 +22.7206943     1296.591     72.38645      4.567     8.13     60.50358     20.49038     42.60081        13     2.149     0.859  88.98   3
