#   1 NUMBER                 Running object number                                     
#   2 X_IMAGE                Object position along x                                    [pixel]
#   3 Y_IMAGE                Object position along y                                    [pixel]
#   4 ALPHA_J2000            Right ascension of barycenter (J2000)                      [deg]
#   5 DELTA_J2000            Declination of barycenter (J2000)                          [deg]
#   6 FLUX_APER              Flux vector within fixed circular aperture(s)              [count]
#   7 FLUXERR_APER           RMS error vector for aperture flux(es)                     [count]
#   8 FLUX_RADIUS            Fraction-of-light radii                                    [pixel]
#   9 FWHM_IMAGE             FWHM assuming a gaussian core                              [pixel]
#  10 BACKGROUND             Background at centroid position                            [count]
#  11 THRESHOLD              Detection threshold above background                       [count]
#  12 FLUX_MAX               Peak flux above background                                 [count]
#  13 ISOAREA_IMAGE          Isophotal area above Analysis threshold                    [pixel**2]
#  14 A_IMAGE                Profile RMS along major axis                               [pixel]
#  15 B_IMAGE                Profile RMS along minor axis                               [pixel]
#  16 THETA_IMAGE            Position angle (CCW/x)                                     [deg]
#  17 FLAGS                  Extraction flags                                          
         1    836.6985     16.2479 300.4259606 +22.6182787     726.0808     72.42937      1.725     5.84     4.527328     20.42412     50.02036        13     1.195     0.804  75.65   0
         2    856.7136     12.8125 300.4333105 +22.6232816     2016.973     72.33716      1.451     2.47     4.287077     20.42412     260.5319        24     1.210     0.994 -84.66   0
         3    562.2475     11.3092 300.3420896 +22.5346907     388.0205     72.39249      1.382     2.14     4.335124     20.42412     56.51134         6     0.676     0.595 -60.20   0
         4    239.9527      7.9779 300.2429277 +22.4371844     1116.734     72.41093      1.688     3.74     4.384387     20.42412     102.0491        18     1.292     0.960  81.40  16
         5    805.2727      5.5148 300.4196451 +22.6057868     833.1309     72.50304      1.321     2.95     4.910967     20.42412     126.7145        15     1.072     0.923  44.60  16
         6    512.6689      3.3092 300.3292514 +22.5175441     397.7692     66.35043      1.399     3.13     4.308537     20.42412     51.10705         6     0.751     0.551 -41.34  16
         7    718.2652    979.0529 300.0765818 +22.8592541     6890.869     72.42937      1.916     4.06     2.611962     20.42412     414.8863        49     1.509     1.440 -23.23   0
         8    422.1465   1023.3435 299.9700269 +22.7830895     303.3507     58.25137      1.355     3.42     3.228167     20.42412     44.47478         5     0.839     0.403  19.91  24
         9    266.7282   1011.7612 299.9254771 +22.7331088     4075.486     72.35561      8.531    28.93     58.17373     20.42412     90.75394       363     6.037     5.197  53.42  19
        10    286.1249   1010.0696 299.9320555 +22.7384484     5261.361     72.46622      8.411    27.90     55.81314     20.42412     94.17192       419     6.306     5.449 -79.45  19
        11    305.2690    999.7437 299.9413639 +22.7412381     8120.163     72.41093      8.772    33.45     38.10948     20.42412     161.9918       745    10.729     5.095  66.43  18
        12    144.3066   1016.5054 299.8858986 +22.6977027     4794.057     72.55826     11.213    42.12     51.34225     20.42412     93.82995       649     9.506     5.961   3.12  27
        13    141.7648    979.3351 299.8971967 +22.6862930     4323.642     72.39249     24.197    80.72     32.79655     20.42412     95.42993      3094    17.940    15.443 -29.34  19
        14    626.7117    969.7449 300.0511049 +22.8291180     1567.865     72.42937      1.836     4.26     2.455009     20.42412     103.1907        27     1.351     1.269  26.85   0
        15    143.1524    941.8812 299.9098057 +22.6759814     3400.892     72.39249     16.015    47.17     16.41052     20.42412     76.16179       735     9.590     6.437 -37.40   3
        16    520.4717    966.3221 300.0191561 +22.7962576     1147.824     72.50304      1.966     4.94     2.838917     20.42412     71.88264        19     1.236     1.144   6.03   0
        17    450.9539    964.5767 299.9980980 +22.7748937     7131.076     72.41093      1.971     9.48     3.222703     20.42412     639.2601        47     1.831     1.371 -58.69   0
        18    483.7560    951.1017 300.0126828 +22.7808759     465.2163     72.39249      1.646     6.56     3.183744     20.42412     45.06276        11     1.263     0.955  58.58   0
        19    233.2351   1000.5298 299.9187215 +22.7198338     2177.165     72.39249     11.410    31.47     53.94994     20.42412     74.83614       153     9.246     2.973  63.24  19
        20    997.5936    943.0844 300.1753145 +22.9327024     2262.386      72.3187      2.041     5.42     2.782105     20.42412     129.1906        35     1.617     1.350 -18.41   0
        21     21.5714    984.9930 299.8580339 +22.6518111     448.7338     72.39249      1.670     4.40     1.991474     20.42412     39.50031         8     1.179     0.466 -81.21   0
        22     48.9334    998.0331 299.8622884 +22.6637648     546.5133     72.39249      2.171     6.16     6.100225     20.42412     37.36669         9     1.124     0.947 -56.62   0
        23    648.2899    940.9050 300.0671999 +22.8273219      263.077     72.57665      1.305     3.58     2.480845     20.42412     38.99282         6     0.902     0.651 -21.35   0
        24    992.9001    995.8444 300.1566929 +22.9464357     861.0397     72.41093      2.492     8.33     1.307806     20.42412     44.35569        21     1.526     1.314 -67.47   0
        25    786.3801    931.8148 300.1131568 +22.8661361     779.6427     72.37405      1.893     5.31     3.058724     20.42412     48.06248        15     1.289     0.939  50.19   0
        26    237.4339   1022.4585 299.9128946 +22.7273765     2548.487      62.7948      5.538    20.00     65.64609     20.42412       77.006       125     5.794     1.919   4.03  27
        27    821.1861    926.1230 300.1258502 +22.8749416     950.8851     72.41093      1.837     4.67     3.021813     20.42412     69.40399        20     1.336     1.162 -67.59   0
        28    598.2305    973.0509 300.0411650 +22.8215203     405.0051     72.42937      1.888     5.62     2.479227     20.42412     38.08511         7     1.522     0.585  39.07   0
        29    174.5794    924.0894 299.9253522 +22.6803219     890.6691      72.3187      3.590     3.43      12.6504     20.42412     35.27037         5     0.771     0.440 -69.29   1
        30     31.1527    922.5414 299.8813131 +22.6368047     683.3029     72.44779      1.755     5.58     3.170671     20.42412     52.82287        11     1.405     0.626  76.51   2
        31    843.3099    919.8295 300.1347893 +22.8797705      11282.1     72.35561      1.786     3.80     2.977854     20.42412      706.681        58     1.488     1.421 -11.92   0
        32    276.7528    920.0367 299.9584178 +22.7098378     738.0715     72.42937      3.453     4.30     6.481296     20.42412     29.01671         5     1.043     0.505 -53.81   0
        33    154.4754    910.7585 299.9234407 +22.6704659     790.5622     72.37405      2.589     6.71     9.775406     20.42412     59.78768        15     1.342     1.163 -14.06   0
        34    894.8011    907.5399 300.1548302 +22.8916841     316.8397     72.35561      1.657     6.12     2.949497     20.42412     34.18954         8     1.149     0.916  70.17   0
        35    270.5019    907.9195 299.9604142 +22.7044890     559.4919     72.52145      3.187     3.89     6.538261     20.42412     31.06504         5     1.333     0.326  39.46   0
        36    548.7756    907.4647 300.0470997 +22.7878762     485.9076     72.37405      1.902     3.21     2.610229     20.42412     38.52898         5     0.732     0.474 -16.23   0
        37    211.1600    980.7628 299.9182905 +22.7075421     1725.713     72.46622      7.810    14.83     43.29908     20.42412     52.55235        48     2.739     2.231  33.65   2
        38    145.6426    902.9566 299.9232333 +22.6655785     669.8911     72.48463      2.474     4.80     8.039615     20.42412     38.46585         8     1.066     0.612 -66.77   0
        39    851.9121    901.9283 300.1432897 +22.8772139      1460.45     72.55826      1.908     4.50     2.958243     20.42412     88.93266        26     1.412     1.198   7.44   0
        40    704.3396    898.9585 300.0982887 +22.8321050     528.0397     72.37405      1.504     4.38     2.886527     20.42412     52.86348         7     0.795     0.686 -67.63   0
        41    889.7153    895.1335 300.1572787 +22.8865992     893.1861     72.50304      1.996     5.81     2.944394     20.42412     58.53835        19     1.543     1.021  58.34   0
        42    997.5113    892.8823 300.1916118 +22.9182696     321.4743     72.50304      1.261     4.20     3.197555     20.42412     29.87983         6     1.010     0.498  87.39   0
        43    938.6034    887.2515 300.1750781 +22.8989944     554.9223     72.39249      1.759     7.24     2.986442     20.42412     41.22813        13     1.665     0.882  36.60   0
        44    789.4599    885.7060 300.1291070 +22.8538321     630.3252     72.48463      1.474     4.27     3.028365     20.42412     64.39167        12     1.114     0.820 -87.46   0
        45    502.3007    881.9238 300.0409425 +22.7666081     4086.192     72.52145      1.667     3.49     3.037654     20.42412     350.9861        36     1.327     1.290  53.33   0
        46     49.6648    883.8417 299.8996403 +22.6312804     494.2928     72.37405      1.845     5.50     3.332079     20.42412      45.7327         9     1.710     0.499  59.13   0
        47    801.0577    882.6978 300.1336978 +22.8564469     738.4468     72.48463      2.027     7.50     3.024668     20.42412     46.43151        17     1.296     1.214 -33.23   0
        48    280.7679    870.6810 299.9757096 +22.6968992     514.1708     72.39249      1.437     3.45     4.254066     20.42412     36.41791         5     1.161     0.296 -35.23   0
        49    239.4330   1017.0336 299.9152801 +22.7264228      1712.82     72.46622      5.281    11.42      62.6867     20.42412     72.92195        40     3.205     1.133 -32.17  19
        50    545.3458    870.2777 300.0581211 +22.7761840     362.7242     72.42937      1.426     4.71     2.765599     20.42412     39.85513         6     1.142     0.550 -39.62   0
        51    227.3854    867.3658 299.9601975 +22.6799240     812.0237     72.37405      1.940     6.15     4.572463     20.42412     59.84261        15     1.375     0.772  25.39   0
        52    204.7976    864.7969 299.9540140 +22.6724066     1668.157     72.17088      1.789     3.79     4.143221     20.42412     124.1839        26     1.309     1.203   4.86   0
        53    736.0020    852.8035 300.1231522 +22.8283612      462.012     72.17088      1.501     3.62     3.023737     20.42412     41.48061         5     1.088     0.347 -10.82   0
        54    814.2471    846.0934 300.1497053 +22.8498993     620.3021     72.41093      1.607     4.07     3.009916     20.42412     62.18699        13     1.107     0.890 -61.74   0
        55    236.8319    846.4252 299.9699388 +22.6767589     520.1866     72.39249      1.727     3.62     4.080282     20.42412     47.85217        10     0.980     0.877  49.51   0
        56    562.2189    844.2063 300.0718458 +22.7737697     224.0874     72.35561      1.490     3.76      2.90539     20.42412     27.93904         5     0.935     0.433  44.70   0
        57    682.3560    840.0273 300.1105998 +22.8086071     4737.195     72.41093      1.607     3.20     3.075303     20.42412     419.7066        38     1.334     1.244 -88.02   0
        58    172.3033    840.5414 299.9518017 +22.6557008     463.4695     72.46622      1.791     4.92     3.853393     20.42412     38.24751         7     1.060     0.648  79.53   0
        59    484.5382    837.0449 300.0500037 +22.7484105     657.4633     72.41093      1.683     4.11     3.176176     20.42412     63.38406        13     1.217     0.808  -6.28   0
        60    232.5114    833.6828 299.9727374 +22.6718103     1263.884     72.50304      1.636     3.65     3.998411     20.42412     116.2218        19     1.181     1.034  24.27   0
        61    703.1979    832.3342 300.1195897 +22.8126510     782.1696     72.39249      1.761     5.46     3.077558     20.42412     59.25796        17     1.254     0.995 -56.85   0
        62    251.8930    831.2444 299.9795528 +22.6769294     458.6144     72.39249      1.534     5.34     3.931531     20.42412     40.43433         8     0.992     0.828 -56.60   0
        63    619.5625    823.2939 300.0964897 +22.7849733     311.2613     72.37405      1.428     4.32     3.063329     20.42412     39.10189         7     1.063     0.775 -57.00   0
        64    858.4117    819.8116 300.1720076 +22.8555990     4260.966     72.28178      1.688     3.47     2.973543     20.42412     320.2462        35     1.307     1.266  69.30   0
        65    589.1989    816.9711 300.0890937 +22.7740521     171.1308     72.35561      1.240     3.87     3.104364     20.42412     30.25048         5     0.828     0.520  28.48   0
        66    267.3718    814.3502 299.9898533 +22.6767336     494.7766     72.41093      1.696     4.08     3.795872     20.42412     46.26191         8     0.928     0.669 -80.35   0
        67    575.4308    811.9684 300.0864345 +22.7684873     661.4105     72.39249      1.440     3.57     3.142926     20.42412     64.85398        13     1.013     0.883  60.87   0
        68    221.5541    810.0853 299.9770009 +22.6617583     1037.693     72.37405      1.806     4.57     3.815377     20.42412     89.16404        19     1.281     1.110  14.29   0
        69    637.0173    805.6180 300.1076674 +22.7851385     461.5654     72.37405      1.437     3.88     3.195331     20.42412     50.71023        10     0.907     0.826  30.72   0
        70    371.4136    802.3180 300.0261061 +22.7045094     53393.39     72.37405      1.623     3.03     3.083484     20.42412     4998.024        97     1.442     1.423  45.16   0
        71    629.2273    801.5143 300.1065760 +22.7816249     1547.984     72.39249      1.593     3.07     3.228276     20.42412     148.4398        21     1.153     1.077  21.09   0
        72    299.8501    800.4098 300.0044780 +22.6824858     386.8546     72.39249      1.497     5.49      3.61294     20.42412     51.54354        11     1.039     0.820 -40.37   0
        73    658.2211    797.3912 300.1169419 +22.7891379       875.59     72.37405      1.512     3.40      3.21716     20.42412     73.97879        15     1.064     0.908  80.35   0
        74     57.5943    796.9301 299.9303466 +22.6087644     929.6761     72.35561      1.908     4.71     3.589242     20.42412     69.69699        17     1.272     1.072 -73.97   0
        75     24.5704    797.4698 299.9199179 +22.5990027     792.2795     72.39249      1.868     5.29     3.486265     20.42412     56.05307        17     1.298     0.987  20.18   0
        76    669.1726    795.6222 300.1209263 +22.7919148     635.8746     72.39249      1.593     4.75     3.207811     20.42412     61.71019        12     1.247     0.796 -58.19   0
        77    774.7130    791.9631 300.1549822 +22.8225131     405.7024     72.37405      1.528     4.48     3.072635     20.42412     59.23689         9     1.267     0.626  20.73   0
        78    812.1276    782.4522 300.1697279 +22.8310015     862.6179     72.39249      1.624     3.70     3.036376     20.42412     74.25079        16     1.197     0.883   8.93   0
        79    421.1430    779.5494 300.0489687 +22.7129033     31237.64     72.44779      1.555     2.92     2.798522     20.42412     3183.298        80     1.415     1.356  49.82   0
        80    435.4821    780.1944 300.0532188 +22.7173905       2000.8      72.3187      1.442     2.79     2.889845     20.42412     215.8678        21     1.150     0.983 -56.45   0
        81    944.3277    775.6337 300.2131408 +22.8686730     2866.959     72.39249      1.669     3.39     3.085145     20.42412      215.303        29     1.272     1.168 -42.47   0
        82    974.2554    774.2693 300.2229138 +22.8772510     256.3773     72.41093      1.326     4.55      3.17302     20.42412     35.19104         5     0.840     0.701 -77.71   0
        83    432.3098    774.0507 300.0542284 +22.7146770       720.79     72.41093      2.148     3.07     2.867299     20.42412     58.07603        10     0.977     0.718  -8.53   0
        84    702.1538    771.7188 300.1389627 +22.7949475     999.9836     72.37405      1.563     3.45     3.198882     20.42412     86.88229        16     1.056     0.969   9.69   0
        85    538.4948    771.5704 300.0880676 +22.7458210     544.1808     72.30024      1.796     3.70       3.3122     20.42412     53.59357         8     0.822     0.810  73.30   0
        86    303.5873    771.5430 300.0150191 +22.6753325     801.5717     72.35561      1.588     3.57     3.489873     20.42412     85.30872        13     1.113     0.828 -21.96   0
        87    549.3351    766.4001 300.0931208 +22.7475897     756.0181     72.37405      1.352     2.88     3.353422     20.42412     96.10257        16     1.067     0.896 -28.96   0
        88    108.4254    766.9908 299.9558591 +22.6154477      537.806     72.39249      1.664     4.64      3.68011     20.42412       53.294        10     1.081     0.726  -3.52   0
        89    950.6687    763.3712 300.2191020 +22.8670533     558.2806     72.37405      1.741     4.52     3.098346     20.42412     47.97691        13     1.216     0.948  -4.43   0
        90    451.6733    762.5311 300.0639938 +22.7171832     291.2283     72.46622      1.535     3.72     2.995744     20.42412     34.77649         6     0.889     0.469  89.81   0
        91    495.3694    761.3245 300.0779787 +22.7299459     440.7411     72.39249      1.649     4.11     3.229907     20.42412     37.93498        10     0.951     0.759 -42.21   0
        92    407.3516    762.5573 300.0502005 +22.7038931     324.3574     72.41093      1.329     3.15     2.820116     20.42412     45.59514         5     0.725     0.445 -22.73   0
        93    703.4843    760.9543 300.1428746 +22.7922579     281.3818     72.37405      1.417     3.96     3.218139     20.42412     41.46556         7     1.075     0.548 -28.64   0
        94    136.4633    761.1110 299.9664778 +22.6221800     505.2336     72.48463      1.595     4.55     3.699072     20.42412      42.8896         8     1.359     0.433 -26.72   0
        95    928.1179    757.9121 300.2138464 +22.8587273     266.9687     72.50304      1.370     4.71      3.02484     20.42412     35.78625         7     1.161     0.541 -42.19   0
        96    301.7230    756.0324 300.0194789 +22.6703266     564.6978     72.39249      1.564     4.51     3.450526     20.42412     62.68283        11     1.067     0.891 -51.31   0
        97    624.3259    746.2619 300.1230032 +22.7643047     419.1393     72.42937      1.447     5.96      3.41037     20.42412     57.19306         9     1.222     0.818 -12.38   0
        98    594.1325    744.5010 300.1141772 +22.7547443     775.1913     72.48463      1.528     3.01     3.443616     20.42412      79.4651        11     0.948     0.795 -36.51   0
        99    503.1966    743.6627 300.0861520 +22.7272284     336.1137     72.39249      1.378     3.85     3.276968     20.42412     46.10557        10     0.953     0.807  34.05   0
       100    616.1945    741.8478 300.1219061 +22.7605997     1382.218     72.37405      1.434     2.86     3.440048     20.42412     159.2467        18     1.114     0.968  42.55   0
       101   1010.6397    740.8658 300.2451115 +22.8785641     4355.514     72.35561      1.707     3.46     3.291119     20.42412     333.5246        35     1.330     1.290 -11.00   0
       102    535.9496    741.3975 300.0970787 +22.7364032     364.1894     72.39249      1.432     3.59     3.418243     20.42412     52.08942         8     1.057     0.538  57.53   0
       103    697.4972    736.8948 300.1488272 +22.7835592      418.263     72.57665      1.651     3.67     3.276857     20.42412     44.32623         6     0.918     0.619   7.59   0
       104    999.2289    732.4714 300.2442809 +22.8727345      1573.51     72.39249      1.648     3.64     3.279963     20.42412     125.6772        23     1.254     1.105 -27.82   0
       105    362.1978    726.0489 300.0480201 +22.6798768     883.1157     72.37405      1.432     3.84       3.0848     20.42412     82.03098        17     1.168     0.973  42.38   0
       106    825.4309    723.5423 300.1930128 +22.8180823     2574.819     72.41093      1.631     2.83     3.119108     20.42412     246.3727        29     1.311     1.107  10.70   0
       107    249.0075    723.3351 300.0137164 +22.6451331     159.3669     72.37405      1.181     4.54     3.612089     20.42412     29.19887         5     1.009     0.581 -72.03   0
       108     47.8496    713.5587 299.9544050 +22.5819508     937.2556     72.41093      1.743     4.92     3.534444     20.42412     75.53754        15     1.285     1.024  32.72   0
       109    907.8592    709.2673 300.2233362 +22.8386908     721.4504     72.42937      1.681     2.92     3.171438     20.42412     65.31461        10     0.870     0.746 -87.12   0
       110    210.9840    709.8081 300.0062945 +22.6298441     666.6981      72.3187      1.392     2.90     3.684193     20.42412     92.32108        12     0.970     0.821  79.91   0
       111    943.9417    700.4687 300.2374413 +22.8469781     146605.2     72.41093      1.606     3.11     3.245323     20.42412     13305.41       173     1.551     1.527 -84.49   0
       112    706.2325    704.1416 300.1621874 +22.7767798     336.7431     72.41093      1.326     2.97     3.431583     20.42412     57.09796         7     0.745     0.656 -87.12   0
       113    796.3827    700.9130 300.1913143 +22.8028795     775.8424     72.33716      1.495     4.81     3.331474     20.42412     81.92036        15     1.260     0.903  46.55   0
       114    549.3628    701.8094 300.1141128 +22.7290704     182.8432     72.39249      1.039     2.99     3.597153     20.42412      35.2394         5     0.734     0.447 -72.30   0
       115    976.8278    693.7935 300.2498617 +22.8549161     487.9802     72.39249      1.320     2.97     3.413091     20.42412     59.60378         7     0.757     0.659   4.97   0
       116    630.1271    689.2703 300.1433228 +22.7496931     1587.219     72.46622      1.395     2.90     3.552127     20.42412      162.558        20     1.068     1.010 -15.09   0
       117    811.3920    686.5745 300.2006478 +22.8032630     9396.791     72.39249      1.515     2.78      3.44084     20.42412     968.3565        43     1.253     1.213 -86.65   0
       118    312.8070    681.6620 300.0470822 +22.6523302     4790.931     72.37405      1.497     2.86     3.399613     20.42412     540.4249        33     1.182     1.175  46.44   0
       119    395.0194    679.7985 300.0732488 +22.6764610     1093.353      72.3187      1.359     2.53     2.937442     20.42412     152.9799        16     0.960     0.930  72.57   0
       120     26.7355    679.9677 299.9587592 +22.5659865     1515.252     72.39249      1.657     3.37     3.522879     20.42412     131.1556        25     1.307     1.160  23.31   0
       121    270.7278    677.4511 300.0353701 +22.6384967     384.2017     72.39249      1.243     3.39     3.516504     20.42412     54.20572         8     0.927     0.607  67.20   0
       122    603.0214    675.3358 300.1394113 +22.7375669     772.0037     72.35561      1.404     3.44      3.60109     20.42412     79.33926        13     1.017     0.864  88.43   0
       123    594.8193    667.3427 300.1394544 +22.7328140     3106.148     72.37405      1.371     2.52     3.626191     20.42412     374.5744        22     1.056     0.993  13.89   0
       124    585.0966    660.9627 300.1385004 +22.7280680     1423.359     72.39249      1.397     2.82     3.657626     20.42412     161.8966        19     1.150     0.893  76.66   0
       125    513.9351    660.9630 300.1163557 +22.7067275     274.8351     72.39249      1.195     2.05     3.637037     20.42412     49.44592         5     0.589     0.581 -74.03   0
       126    978.5686    659.1160 300.2616682 +22.8454800     412.2756     72.39249      1.614     3.66     3.536207     20.42412     55.80996        11     1.020     0.927 -69.10   0
       127    248.7628    657.0959 300.0351540 +22.6260697     675.7631     72.39249      1.476     2.63     3.550828     20.42412     83.45714        10     0.833     0.767  24.43   0
       128    262.6288    655.5770 300.0399567 +22.6297949     478.0624     72.39249      1.319     3.36     3.516456     20.42412     66.62714        11     1.022     0.725  46.82   0
       129    319.1782    652.8043 300.0584346 +22.6459669      416.089     72.35561      1.540     3.94       3.3852     20.42412      52.7898         6     0.931     0.477 -29.17   0
       130    288.1115    652.3788 300.0489156 +22.6365239     503.4089      72.3187      1.320     4.11     3.457548     20.42412      65.8551        11     1.119     0.760 -69.55   0
       131    509.8402    650.7123 300.1184107 +22.7025587     1794.798     72.37405      1.424     2.73     3.650981     20.42412     225.4216        20     1.150     0.952  75.24   0
       132    608.7637    651.2696 300.1490148 +22.7323835     443.2758     72.37405      1.402     3.63     3.601715     20.42412     60.84753         8     1.008     0.577  32.06   0
       133    543.7678    650.5406 300.1290232 +22.7126842     194.1998     72.42937      1.178     3.44     3.792338     20.42412     33.39629         5     0.770     0.445  20.97   0
       134    163.8328    645.7540 300.0124477 +22.5973317     19584.44     72.42937      1.606     3.15     3.547431     20.42412     1913.368        59     1.376     1.335  46.43   0
       135    594.8628    646.2631 300.1463139 +22.7267788     981.9703     72.42937      1.327     2.53      3.64999     20.42412     130.8845        15     1.006     0.834   0.25   0
       136    630.0317    645.2079 300.1576037 +22.7370211     335.1093     72.39249      1.254     4.17     3.637426     20.42412     43.64378         7     0.750     0.661  83.43   0
       137    650.2885    638.0913 300.1662210 +22.7410523     252.2545     72.55826      1.728     6.24     3.688339     20.42412     44.12112         6     1.214     0.901 -55.95   0
       138    347.8236    637.5264 300.0723015 +22.6501795     449.8624     72.44779      1.671     4.91     3.299245     20.42412     37.12398         9     0.982     0.721 -31.30   0
       139   1012.8831    632.5976 300.2809797 +22.8481452     905.6956     72.30024      1.494     3.12     3.703264     20.42412     85.29916        15     1.082     0.864   9.62   0
       140    109.6902    630.1798 300.0006867 +22.5766180      1537.42     72.33716      2.035     5.18     3.422747     20.42412     106.7995        31     1.652     1.258 -84.88   0
       141    879.6813    630.6271 300.2400968 +22.8076683     373.8283     72.39249      1.301     3.60     3.360398     20.42412     58.89201         9     1.113     0.630 -40.43   0
       142     84.9761    647.4188 299.9874135 +22.5741414      755.423     72.39249      1.745     3.75     3.436229     20.42412      57.9836        13     1.157     0.745   7.65   0
       143    952.7125    625.2953 300.2645912 +22.8280207     1000.926     72.57665      2.686     4.58     3.395114     20.42412     73.98731        15     1.429     0.949  35.06   2
       144    558.2947    626.7303 300.1412760 +22.7102090     480.7867     72.50304      1.495     3.60     3.835622     20.42412     65.93183         8     0.899     0.667 -65.10   0
       145    350.8546    625.7244 300.0770762 +22.6477041      415.546     72.42937      1.389     4.79       3.2766     20.42412     36.19143         7     1.218     0.534 -77.09   0
       146    515.0381    619.0714 300.1303027 +22.6950401     710.9603     72.35561      1.271     2.74     3.770611     20.42412      105.631        11     0.974     0.711  61.95   0
       147    663.2296    617.8440 300.1768249 +22.7391215     499.8217     72.42937      1.277     2.56     3.782959     20.42412     71.60411         7     0.810     0.605 -16.87   0
       148    710.2946    616.4202 300.1919422 +22.7528219     452.4864      72.3187      1.393     3.13     3.690793     20.42412     66.25834        10     1.006     0.701 -11.37   0
       149    680.8423    615.8588 300.1829534 +22.7438318     547.2159     72.37405      1.322     2.92     3.794066     20.42412     82.34811        12     0.954     0.860 -33.26   0
       150    559.2305    614.9528 300.1453915 +22.7071103     943.6644     72.41093      1.509     2.69     3.869837     20.42412      117.734        15     1.108     0.963  35.48   0
       151    746.1144    614.0111 300.2038800 +22.7628675     366.4661     72.33716      1.769     3.93     3.594923     20.42412     30.09634         5     0.842     0.525 -29.82   0
       152    992.9044    610.4669 300.2819370 +22.8358038     3378.801     72.52145      1.558     3.03     3.602026     20.42412     319.7347        28     1.203     1.132  30.70   0
       153    524.6474    610.3960 300.1361095 +22.6954327     1685.456     72.37405      1.339     2.44     3.852885     20.42412      210.561        20     1.048     0.966  38.95   0
       154     86.5656    604.0413 300.0019914 +22.5621853      5122.22     72.44779      1.688     3.08     3.320908     20.42412      551.504        40     1.479     1.280  77.85   0
       155    890.1157    607.9706 300.2507058 +22.8042896     350.3471     72.39249      1.291     4.26     3.297262     20.42412      35.5141         8     0.850     0.664  44.44   0
       156    553.5367    601.1330 300.1481068 +22.7014377     247.2718     72.44779      1.151     4.06     3.968542     20.42412     45.13238         7     0.899     0.583 -12.61   0
       157    388.0778    597.0967 300.0979457 +22.6506589     9070.941     72.52145      1.413     2.57     3.322013     20.42412     1021.543        44     1.223     1.186  62.48   0
       158    510.4763    594.1469 300.1369761 +22.6865211     8875.264     72.42937      1.334     2.41     3.819212     20.42412     1102.407        37     1.154     1.069 -78.11   0
       159    276.0662    591.1816 300.0650422 +22.6153615     319.8799     72.37405      1.416     3.13     3.459641     20.42412     38.20746         5     0.787     0.498 -49.55   0
       160   1006.8529    585.5791 300.2943674 +22.8328342     12387.17     72.39249      1.566     2.86     3.540521     20.42412     1238.248        51     1.384     1.255 -54.46   0
       161    922.2082    588.0768 300.2671679 +22.8081929      1825.03     72.35561      1.470     2.96      3.30045     20.42412     173.7693        23     1.144     1.052 -74.86   0
       162    571.1082    583.7812 300.1592090 +22.7017272     11508.58      72.3187      1.346     2.39     4.022254     20.42412      1507.51        44     1.196     1.138 -79.06   0
       163    740.8102    579.5337 300.2134225 +22.7513806     485.8257     72.37405      1.348     2.51     3.712011     20.42412     68.21649         8     0.810     0.646 -50.17   0
       164    298.5552    579.3789 300.0758644 +22.6187234     1221.501     72.44779      1.361     2.59      3.42075     20.42412     161.3416        16     1.008     0.881  15.11   0
       165    456.8572    578.8012 300.1252773 +22.6660389     305.5843     72.33716      1.454     3.07     3.558987     20.42412     42.17379         5     0.770     0.506 -49.43   0
       166    545.5841    576.8611 300.1535124 +22.6920884     571.8458     72.35561      1.855     4.66     4.146415     20.42412     51.39675        10     1.124     0.724  60.92   0
       167      1.2122    576.1904 299.9845305 +22.5285841     747.1165     55.55361      1.038     2.70     3.065015     20.42412     172.4733         9     1.114     0.394 -84.04  24
       168    845.5773    571.8604 300.2485512 +22.7805749     737.7523     72.37405      1.436     3.17     3.685545     20.42412     93.50546        14     1.024     0.912  57.07   0
       169    502.8015    571.9184 300.1418049 +22.6778418     4274.559     72.30024      1.323     2.33     3.826885     20.42412     617.6966        27     1.055     1.029  90.00   0
       170    481.1039    570.3741 300.1355558 +22.6708923     1143.569     72.35561      1.193     2.26     3.644581     20.42412      172.433        11     0.829     0.745  43.77   0
       171    235.4772    569.8381 300.0593565 +22.5970636       736.82     72.37405      1.389     3.20     3.558803     20.42412      82.4718        12     1.077     0.714 -18.68   0
       172    922.6961    567.3970 300.2740342 +22.8024002      1721.11     72.30024      1.615     3.12     3.331651     20.42412     183.4985        22     1.210     1.088 -45.84   0
       173    803.1010    564.3245 300.2377636 +22.7656826     908.6522     72.52145      1.351     2.91     3.804588     20.42412     88.87415        13     0.960     0.826  43.23   0
       174    619.4180    559.4755 300.1821365 +22.7092354     198995.3     72.39249      1.347     2.30     4.160623     20.42412     25212.57       198     1.462     1.406 -27.09   0
       175    442.7843    565.6647 300.1251644 +22.6580498      241.258     72.37405      1.215     2.05       3.5419     20.42412     47.56318         5     0.688     0.452  15.24   0
       176    305.5204    559.4619 300.0844952 +22.6151005     3448.245     72.48463      1.413     2.49      3.41024     20.42412     427.6489        30     1.187     1.084  59.54   0
       177    580.2334    560.3766 300.1696473 +22.6977467     177.6803     72.41093      1.084     3.49     4.201583     20.42412     29.59717         5     0.777     0.452  16.11   0
       178    871.4327    555.6172 300.2618815 +22.7836580     576.9256     72.37405      1.305     2.60     3.749122     20.42412     66.79398         8     0.784     0.715 -71.93   0
       179    651.2371    545.9594 300.1964297 +22.7148944     324.1378     72.46622      1.390     3.29     4.202089     20.42412      52.6838         6     0.992     0.401  81.03   0
       180    509.9535    540.0645 300.1543707 +22.6708463     2762.433     72.42937      1.441     2.76     3.949025     20.42412     351.9371        26     1.426     0.965  88.44   0
       181    354.1359    542.1351 300.1052338 +22.6247130      498.854     72.44779      1.423     3.09     3.345847     20.42412     59.33963         9     0.888     0.708  71.00   0
       182    921.4370    536.6828 300.2836128 +22.7932018     379.8467     72.37405      1.344     3.18     3.407027     20.42412       43.598         6     0.821     0.531  45.92   0
       183    826.8282    528.4810 300.2567917 +22.7625006     555.9767     72.41093      1.725     2.83     3.888115     20.42412     56.36016         8     0.908     0.586  64.88   0
       184    907.0590    526.1609 300.2825468 +22.7858724     1776.108     72.39249      1.481     2.99     3.550473     20.42412     196.3594        23     1.231     1.012  28.98   0
       185     36.6799    524.5176 300.0123143 +22.5244179      852.248     72.52145      1.732     4.69     3.200072     20.42412     91.17941        20     1.266     1.115  36.08   0
       186    778.2313    523.6896 300.2432072 +22.7465626     2448.564     72.35561      1.303     2.44     3.869744     20.42412     350.8365        21     1.046     0.964  -9.02   0
       187    712.9109    523.4055 300.2229545 +22.7269056      1018.52     72.30024      0.645     0.99     3.960691     20.42412      513.751         5     0.494     0.360 -81.12   0
       188   1022.5676    520.2213 300.3204858 +22.8187668     567.5483     62.30395      1.996     4.27     3.257934     20.42412      49.0589        10     1.268     0.794 -73.21  19
       189   1021.1299    516.8525 300.3211310 +22.8173684     735.9031     68.43026      1.417     3.42     3.256802     20.42412     77.76983        11     0.962     0.770 -32.88  18
       190    682.8702    520.3017 300.2146074 +22.7170110     501.0847     72.52145      1.448     3.60     4.098374     20.42412     62.15885         8     0.901     0.681   7.83   0
       191    565.4441    519.4358 300.1783340 +22.6815632     751.2723     72.44779      1.308     2.65     4.194085     20.42412     97.09468        13     0.963     0.769  48.44   0
       192    907.3124    515.9944 300.2859259 +22.7830284      2348.15     72.30024      1.748     3.33     3.569941     20.42412     248.6622        28     1.600     0.967  80.17   0
       193    660.5419    514.3194 300.2095970 +22.7086013     823.2414     72.42937      1.837     3.03     4.179551     20.42412     75.27195        12     0.981     0.796  63.00   2
       194    945.5238    511.1965 300.2993940 +22.7930972     4398.579     72.30024      1.452     2.65     3.383861     20.42412     443.9989        31     1.176     1.122  -1.29   0
       195    499.1394    512.8922 300.1598257 +22.6598066     384.9169     72.46622      1.297     2.39     3.781908     20.42412     63.69965         8     0.774     0.666  44.86   0
       196    683.4554    507.6044 300.2189109 +22.7135413     301.2679     72.35561      1.481     3.90     4.098374     20.42412      35.3062         5     1.026     0.425  14.96   0
       197    605.8484    506.7525 300.1950263 +22.6900351     296.3516     72.42937      1.513     5.07     4.318656     20.42412     31.32434         8     0.951     0.764  88.83   0
       198    177.2204    501.4196 300.0634615 +22.5599658     994.1035     72.39249      1.515     3.51     3.979007     20.42412     109.1427        17     1.127     1.026  13.54   0
       199    806.9498    499.1223 300.2601277 +22.7481137      288.136     72.39249      1.391     3.83     3.866096     20.42412     35.75904         5     0.845     0.497 -59.26   0
       200    838.1468    495.5309 300.2710134 +22.7564296      371.271     72.41093      1.265     2.39     3.880743     20.42412     46.21527         5     0.713     0.445 -23.95   0
       201    443.5960    494.6107 300.1484799 +22.6379067     200.0213     72.22635      1.646     4.08     3.677678     20.42412     30.03212         5     0.985     0.483   4.26   0
       202    224.6317    493.9300 300.0806239 +22.5720410     257.2305     72.39249      1.215     4.95     4.065935     20.42412     70.85037         5     1.044     0.665 -75.80   0
       203    169.8036    491.2761 300.0644490 +22.5548319     423.4996     72.30024      1.509     5.39     4.072426     20.42412     46.20472         9     1.226     0.691  25.71   0
       204    777.6896    485.8032 300.2553352 +22.7355216     470.1703     72.30024      1.421     2.56     3.852777     20.42412     81.42757         8     0.949     0.538 -38.02   0
       205    667.1569    483.3597 300.2217046 +22.7016962     361.1859     72.48463      1.291     3.45      4.16191     20.42412     48.63728         5     0.732     0.469  10.22   0
       206    718.8644    481.6496 300.2383610 +22.7167015     838.0725     72.44779      1.377     2.56     3.933155     20.42412     113.5229        13     0.914     0.836 -26.17   0
       207    779.7341    473.9175 300.2598293 +22.7327211     813.6589     72.50304      1.290     2.32     3.820385     20.42412     117.5715        11     0.821     0.789 -49.48   0
       208    937.0260    470.2485 300.3100350 +22.7787893      1002.98     72.41093      1.362     3.19       3.5669     20.42412     107.4096        15     1.072     0.856 -12.29   0
       209    921.0848    466.5408 300.3062691 +22.7729492     752.1483     72.50304      1.531     4.03     3.643858     20.42412     82.70468        14     1.249     0.812  15.97   0
       210    901.4067    466.7666 300.3000624 +22.7671196     326.8882     72.39249      1.341     4.28     3.733605     20.42412     41.10633         6     0.953     0.548 -24.11   0
       211    665.4129    464.4451 300.2272998 +22.6957433     3405.807     72.41093      1.275     2.26     4.079261     20.42412     417.6119        26     1.068     0.991  69.27   0
       212    141.4423    456.1224 300.0670452 +22.5362423     425.8058     72.37405      1.880     3.26      3.94306     20.42412     49.58873         8     0.945     0.795  32.35   0
       213    670.6534    452.5039 300.2328064 +22.6938855     407.4762     72.46622      1.711     2.47     3.997534     20.42412     46.28048         5     0.752     0.641  48.35   0
       214    437.4012    452.1431 300.1603340 +22.6238632     270.7659     72.33716      1.240     3.38     3.755096     20.42412     33.83711         5     0.796     0.415  67.44   0
       215    505.3207    451.5832 300.1816450 +22.6440651      354.337     72.39249      1.252     3.41     3.745459     20.42412     53.84708         5     0.750     0.449 -19.78   0
       216    948.6544    443.2603 300.3224179 +22.7745192     598.9253     72.44779      1.437     3.65      3.78255     20.42412     52.13943         9     0.874     0.750   2.72   0
       217    685.2333    440.2237 300.2413309 +22.6947289     315.4869     72.39249      1.363     4.30     3.889361     20.42412     36.87636         7     0.896     0.589 -38.41   0
       218    571.8797    439.0198 300.2064337 +22.6604108     456.8607     72.39249      1.296     3.71     3.976194     20.42412     71.28432        10     1.074     0.694 -47.16   0
       219    776.0626    438.2997 300.2702437 +22.7213925     980.2003     72.48463      1.334     2.44     3.674416     20.42412     134.9382        13     0.997     0.776  52.47   0
       220    280.1111    436.7080 300.1164342 +22.5722684     769.7064     72.55826      1.434     3.16     3.833652     20.42412     92.14365        10     0.871     0.751  83.31   0
       221    342.3659    432.3096 300.1372148 +22.5896760     3840.276     72.37405      1.357     2.34     3.820725     20.42412     443.4048        30     1.170     1.034  42.39   0
       222    119.8061    434.6100 300.0673041 +22.5235821     258.0794     72.24483      1.676     5.12      3.73281     20.42412     32.53595         8     1.522     0.486   1.56   0
       223    289.6027    426.9930 300.1225365 +22.5723279     7508.847     72.20787      1.375     2.48      3.84488     20.42412     1015.331        38     1.208     1.119  67.20   0
       224    794.0882    427.1926 300.2794630 +22.7236032     111.3952     72.30024      1.360     3.20     3.577736     20.42412     38.19644         5     0.898     0.609  28.82   0
       225    668.3039    426.3212 300.2405705 +22.6856639     419.1204     72.50304      1.354     2.52      3.86587     20.42412     52.48141         5     0.724     0.441  76.99   0
       226    430.4003    421.2660 300.1681748 +22.6129034     4786.487     72.35561      1.308     2.31     3.813204     20.42412     583.7072        31     1.124     1.038  64.37   0
       227    674.5590    417.9611 300.2452305 +22.6851379     18448.04     72.48463      1.324     2.31     3.793508     20.42412     2574.443        60     1.285     1.166  36.31   0
       228    691.9344    418.2577 300.2505447 +22.6904297     917.5523     72.42937      2.038     5.76     3.774172     20.42412     66.58865        19     1.751     0.805 -47.75   0
       229    301.6111    415.9999 300.1298359 +22.5727752     250.2325     72.20787      1.393     4.35     3.889383     20.42412     38.81284         6     1.056     0.511 -38.57   0
       230    871.7751    408.4885 300.3097377 +22.7415030     421.6505     72.35561      1.320     3.30     3.856476     20.42412     49.88939         8     0.887     0.625  57.15   0
       231   1008.4263    400.5630 300.3549075 +22.7801517      752.699     72.41093      1.634     3.39     4.127489     20.42412     87.34296        14     1.098     0.811 -44.37   0
       232    545.6159    399.6762 300.2110247 +22.6412448     447.4647     72.39249      1.926     4.43     3.794407     20.42412     48.28218         7     1.182     0.472  81.27   2
       233    229.3750    398.1250 300.1131825 +22.5459836     2025.663     72.41093      1.420     2.57     3.998021     20.42412     247.9561        25     1.177     1.013  11.29   0
       234    615.2770    387.4300 300.2366791 +22.6586067     6537.666     72.37405      1.258     2.25      3.97029     20.42412     871.4486        29     1.109     0.967  73.58   0
       235    330.2147    386.6300 300.1482560 +22.5729257      576.936     72.39249      1.437     4.05     3.799757     20.42412     75.41889        11     1.134     0.701 -53.62   0
       236    187.6414    379.7966 300.1061595 +22.5282092      454.676     72.41093      1.351     2.85     4.070685     20.42412     76.40604        11     0.927     0.822  26.07   0
       237     34.9876    377.6989 300.0594244 +22.4818156     1339.301     72.30024      1.506     3.00     3.610223     20.42412     139.2066        19     1.097     0.976  17.79   0
       238    729.0446    377.9007 300.2751942 +22.6899597     582.5822     72.41093      1.376     2.67     3.553622     20.42412     72.47002         7     0.843     0.531  47.58   0
       239    819.4260    376.3688 300.3038457 +22.7165957     1263.935     72.39249      1.512     2.46     3.491195     20.42412     147.9513        16     1.047     0.888  38.91   0
       240      4.0717    375.1424 300.0506547 +22.4718071      1489.53     69.18684      2.077     4.72     3.604334     20.42412     117.3806        27     1.606     1.142 -61.55  16
       241    521.9158    373.6689 300.2120863 +22.6266754     6176.773     72.50304      1.324     2.20     3.772602     20.42412     1016.102        30     1.128     0.994  70.42   0
       242   1011.1982    368.2796 300.3662451 +22.7717046     684.3228     72.30024      1.400     3.12     4.140934     20.42412      84.3707        13     1.048     0.813  75.08   0
       243    913.8829    368.2095 300.3359285 +22.7425430     1395.252     72.33716      1.390     2.35     3.927569     20.42412     184.1593        18     1.009     0.913 -85.74   0
       244     13.3031    362.8184 300.0575179 +22.4710429     321.0688     72.30024      1.189     2.38     3.685919     20.42412     49.54791         6     0.730     0.542 -34.11   0
       245    506.4085    362.5309 300.2108739 +22.6188301      488.883     72.37405      1.420     2.74     3.758743     20.42412     61.15022         7     0.896     0.477  11.18   0
       246    589.1246    360.3885 300.2373103 +22.6430053     436.1638     72.41093      1.294     3.72     3.830707     20.42412     49.71046         8     0.842     0.668  86.41   0
       247     33.3199    359.0894 300.0649423 +22.4759788     1062.827     72.52145      1.574     3.11     3.714893     20.42412     124.7709        19     1.253     0.937  48.99   0
       248    867.7515    359.4030 300.3244075 +22.7261967     363.8996     72.39249      1.320     3.41     3.563489     20.42412     30.71929         5     0.752     0.447 -19.60   0
       249    569.7330    358.0703 300.2320266 +22.6365284     302.1428     72.42937      1.184     2.48     3.809192     20.42412     46.72586         5     0.754     0.484  30.08   0
       250    886.8275    355.5828 300.3315917 +22.7308124     489.9044     72.41093      1.318     2.84     3.700285     20.42412     94.31017        10     1.051     0.744 -33.07   0
       251    391.1339    354.9615 300.1774708 +22.5821027     312.5955     72.37405      1.570     2.62     3.737734     20.42412     41.41745         5     0.771     0.493  32.49   0
       252    409.5123    352.9301 300.1838454 +22.5870293      2421.97     72.55826      1.330     2.30     3.735543     20.42412     345.4663        25     1.128     0.978  56.08   0
       253    127.8805    350.2818 300.0971664 +22.5018186     1104.464     72.55826      1.484     3.07     3.911612     20.42412     118.6588        16     1.051     0.933  89.60   0
       254    757.3939    347.2863 300.2939546 +22.6896599     332.3834      72.3187      1.208     3.06     3.430687     20.42412     45.23545         5     0.726     0.452  70.83   0
       255    378.7629    342.3249 300.1777221 +22.5747673     29360.13     72.33716      1.347     2.43     3.761259     20.42412     3821.157        74     1.309     1.210  49.53   0
       256    913.4691    339.9458 300.3449674 +22.7342982     1362.242     72.42937      1.302     2.43     3.933809     20.42412     174.0325        18     1.006     0.903  55.73   0
       257    869.1539    338.0561 300.3317686 +22.7204838     230.9028     72.42937      1.287     2.63     3.627563     20.42412     54.29261         6     0.885     0.436  54.13   0
       258     75.0887    330.0913 300.0873173 +22.4801924       4981.5     72.55826      1.550     2.88     3.907564     20.42412     525.0059        38     1.304     1.221  47.52   0
       259    828.5613    328.8594 300.3221024 +22.7056840      538.912     72.41093      1.179     2.04     3.617379     20.42412     99.59438         8     0.742     0.652  49.56   0
       260    252.8897    328.7179 300.1430025 +22.5331227     472.0125     72.50304      1.269     3.27     3.835971     20.42412      63.0232         7     0.857     0.581 -27.93   0
       261    477.0586    327.7081 300.2130366 +22.6000367     594.3428     72.44779      1.244     2.85     3.741715     20.42412     74.92305         7     0.836     0.581 -11.84   0
       262    789.2661    322.0573 300.3120657 +22.6919602     1877.555     72.42937      1.347     2.53     3.630838     20.42412     241.7398        18     1.019     0.894  79.85   0
       263    597.5964    316.8321 300.2540740 +22.6330374     386.6174     72.39249      1.255     2.72      3.79467     20.42412     53.32573         6     0.709     0.625 -25.81   0
       264   1004.5375    315.0009 300.3814494 +22.7543984     487.4208     72.35561      1.408     3.44     4.134373     20.42412     73.92456        10     0.977     0.836  76.30   0
       265    450.9607    306.6418 300.2117495 +22.5861671     2221.925     72.48463      1.492     2.86     3.741951     20.42412      273.696        25     1.344     0.932  60.12   0
       266    663.3959    305.3231 300.2782909 +22.6494473     301.8708     72.30024      1.130     3.20     3.791134     20.42412     39.22469         5     0.731     0.449  70.26   0
       267    889.9946    299.6463 300.3507208 +22.7156889      563.557     72.39249      1.235     2.07     3.930025     20.42412     98.14252         8     0.762     0.657  84.81   0
       268     22.6750    297.8761 300.0814877 +22.4552304     852.9863     72.48463      2.036     7.70     4.366368     20.42412     73.29228        18     2.088     0.794 -27.19   0
       269    790.0659    297.5768 300.3202540 +22.6851671     207.4419     72.37405      1.430     4.01     3.818514     20.42412     41.26696         6     1.133     0.406  15.44   0
       270    772.3174    297.2574 300.3148285 +22.6797593     414.8671     72.46622      1.158     2.92     3.791459     20.42412     55.35625         7     0.802     0.612 -67.80   0
       271    740.8079    296.6485 300.3052111 +22.6701461     314.5915     72.39249      1.208     3.10     3.731474     20.42412     42.07877         7     0.825     0.604 -33.20   0
       272    526.7864    286.0946 300.2420037 +22.6029928     1130.601      72.3187      1.312     2.40     3.754169     20.42412      166.207        14     0.901     0.857  69.45   0
       273    334.1936    286.4019 300.1819986 +22.5453561     242.6029     72.20787      1.187     2.18     3.915993     20.42412     40.77515         5     0.685     0.464  18.38   0
       274    771.7584    278.0235 300.3208914 +22.6740664     2338.154     72.42937      1.324     2.42     3.857296     20.42412     319.1564        23     1.105     0.943 -54.95   0
       275      4.8407    263.2719 300.0871699 +22.4399560     72347.26     71.38983      1.654     3.08     4.511696     20.42412     6993.721       104     1.580     1.425  57.48  24
       276    404.2783    263.6073 300.2111832 +22.5598215     273.5935      72.3187      1.238     3.48     3.965174     20.42412     36.70256         5     0.760     0.460 -15.76   0
       277    480.0379    261.6878 300.2353717 +22.5819759     661.3945     72.37405      1.331     3.82     3.779892     20.42412     91.82578        13     1.143     0.860 -15.84   0
       278    154.7979    255.7994 300.1361651 +22.4827869     1354.557     72.17088      1.816     3.95     4.039121     20.42412     109.4538        24     1.325     1.145 -74.39   0
       279    185.7608    255.8565 300.1457666 +22.4920878     603.2112     72.39249      1.423     2.72     4.020051     20.42412     78.72119         9     0.859     0.686 -65.16   0
       280    892.5076    249.2491 300.3678458 +22.7019591     256.2512     72.42937      1.410     4.62     4.061059     20.42412     39.72058         6     1.011     0.600  28.81   0
       281    238.9266    248.2281 300.1647612 +22.5058397     446.9321     72.41093      1.295     2.75     4.013933     20.42412     69.60622         7     0.809     0.582   5.87   0
       282     25.0673    243.7716 300.0997716 +22.4404298     142.3928     72.37405      1.337     4.52     4.431421     20.42412     36.07348         6     1.075     0.541  28.89   0
       283    914.9539    241.8583 300.3772383 +22.7065558     341.1739     72.44779      1.348     3.50      4.07271     20.42412     58.88765         7     1.083     0.660 -42.34   0
       284    843.1874    239.3772 300.3556762 +22.6843541     722.5369     72.37405      1.483     2.76     4.032563     20.42412     88.18234        12     0.944     0.794  64.15   0
       285    433.5664    238.9391 300.2282904 +22.5615177     497.3932     72.41093      1.407     2.93     4.038322     20.42412     66.31696        10     1.007     0.607 -22.03   0
       286    934.1575    232.2912 300.3863262 +22.7095556     264.1315     72.39249      1.023     3.90     4.071778     20.42412      41.3517         6     0.786     0.556  43.51   0
       287    118.7768    231.3792 300.1328916 +22.4649788      208.377     72.39249      1.909     3.48     4.242751     20.42412     26.79802         5     0.788     0.445 -17.39   0
       288    941.4713    228.3607 300.3898804 +22.7106156     2019.523     72.35561      1.421     2.54      4.07179     20.42412     255.0289        24     1.145     1.029  60.98   0
       289    360.0843    225.7772 300.2097039 +22.5357157     2264.764     72.35561      1.403     2.41      4.23825     20.42412     302.2368        24     1.157     0.990  84.39   0
       290    839.9219    220.3188 300.3608373 +22.6778996     519.5977     72.50304      1.255     2.31     4.091738     20.42412     79.77459         9     0.837     0.651  68.94   0
       291    437.7444    220.7204 300.2354960 +22.5575391     963.8965     72.42937      1.424     2.84     4.116363     20.42412     128.7098        16     1.009     0.951   3.16   0
       292    189.4294    220.8695 300.1582484 +22.4831485     296.3815     72.39249      1.432     3.89     4.081383     20.42412     37.20083         6     1.060     0.408  73.38   0
       293    946.6445    217.0451 300.3951615 +22.7089119     305.5782     72.42937      1.321     3.19     4.093758     20.42412     49.00968         6     0.822     0.634 -61.68   0
       294     61.6329    215.5952 300.1202596 +22.4433139     248.8452     72.37405      1.538     4.98     4.393832     20.42412     28.54103         5     1.308     0.536 -45.52   0
       295     36.2599    214.1022 300.1128644 +22.4352761     485.3412     72.46622      2.081     4.38     4.413885     20.42412     44.18427         7     1.178     0.648 -78.57   0
       296    254.7497    212.9027 300.1811303 +22.5004456     777.7411     72.46622      1.390     2.81      4.10038     20.42412     116.8112        12     0.978     0.793  30.44   0
       297    792.6382    209.9704 300.3494597 +22.6607670     1690.322     72.42937      1.355     2.50     4.046437     20.42412     210.9118        19     1.111     0.911  53.10   0
       298    372.5774    212.5593 300.2178735 +22.5356657     307.6693     72.42937      1.529     3.74     4.275757     20.42412     36.02442         6     0.993     0.405  18.48   0
       299    857.6205    209.5760 300.3698350 +22.6801119     681.1163     72.39249      1.451     2.90     4.204792     20.42412     87.14418        10     1.038     0.619 -18.14   0
       300    276.4145    206.3136 300.1900001 +22.5050490     467.0005     72.33716      1.232     2.46     4.151811     20.42412     69.79317         7     0.792     0.607 -70.00   0
       301    518.9536    206.0006 300.2655330 +22.5776468     140.6376     72.39249      1.020     3.66     3.969102     20.42412     32.54157         5     0.644     0.600  89.97   0
       302    566.1743    202.7957 300.2812671 +22.5908741     304.0714     72.35561      1.355     2.58     3.982901     20.42412     41.54439         6     0.707     0.579 -49.94   0
       303    796.7228    201.0765 300.3536153 +22.6594345     841.0076     72.48463      1.595     3.79     4.138077     20.42412      90.9108        15     1.386     0.685  81.80   0
       304    717.0300    200.3629 300.3290228 +22.6353635     1300.504     72.41093      1.294     2.29     3.887911     20.42412     208.5427        15     1.123     0.786  89.82   0
       305    912.6197    192.0375 300.3926617 +22.6915378     1517.479     72.41093      1.341     2.55     4.230536     20.42412      185.279        16     1.006     0.915  79.89   0
       306    643.3906    192.3407 300.3086925 +22.6110025     842.0229     72.35561      1.192     2.30     3.980538     20.42412     132.7537        14     0.948     0.812  59.74   0
       307    924.6604    191.1590 300.3966997 +22.6948899     712.8901     72.37405      1.320     2.65     4.211641     20.42412     101.2102        11     0.909     0.749  14.06   0
       308    970.9340    190.2091 300.4114335 +22.7084690     313.3965     72.37405      1.363     5.25     4.118248     20.42412     39.02422         8     1.018     0.766  -4.44   0
       309     14.6591    180.8325 300.1169402 +22.4192538     348.3936     72.41093      1.459     4.33     4.432728     20.42412     33.27496         7     0.876     0.609 -56.85   0
       310     64.8411    178.3355 300.1333322 +22.4335865     438.7784     72.35561      1.428     3.41     4.402426     20.42412     56.03772         8     0.936     0.656   5.51   0
       311    275.4912    174.5475 300.2000090 +22.4956544     726.8784     72.44779      1.245     2.31     4.228734     20.42412     106.2913        12     0.864     0.783 -61.21   0
       312    199.6116    173.4123 300.1767941 +22.4725823     184.0942     72.28178      1.220     4.17     4.110684     20.42412     25.64288         5     1.024     0.484 -86.29   0
       313    137.2328    169.1868 300.1587825 +22.4526680     2078.929     72.37405      1.498     2.92     4.349611     20.42412     218.7504        25     1.169     1.117 -33.89   0
       314    960.2963    166.3967 300.4158352 +22.6984394     664.9141     72.30024      1.296     2.88      4.18995     20.42412     98.04858        11     0.969     0.783 -44.42   0
       315     87.0129    165.7977 300.1442814 +22.4366377     546.2767     72.22635      1.580     3.70     4.393417     20.42412     73.08348         9     0.942     0.853  12.36   0
       316    294.6999    162.5943 300.2098540 +22.4979809     5520.953     72.28178      1.402     2.38     4.349215     20.42412     763.1607        33     1.180     1.090  64.62   0
       317    276.9715    163.5647 300.2040285 +22.4929456      347.778     72.41093      1.471     4.55     4.268368     20.42412     36.27046         7     0.956     0.615 -55.42   0
       318      5.3831    160.0066 300.1208093 +22.4104976     354.5813     72.24483      1.646     4.66     4.439825     20.42412     38.47053         6     1.264     0.487 -49.94  16
       319     78.8243    156.9527 300.1446045 +22.4316445     1394.175     72.41093      1.595     2.60     4.401211     20.42412     178.4733        22     1.285     1.015  70.37   0
       320     40.6685    158.1741 300.1323593 +22.4205534      373.807     72.37405      1.686     4.12     4.420603     20.42412     32.80701         6     0.748     0.648  36.56   0
       321    277.8042    153.4708 300.2075585 +22.4902978     665.5484     72.33716      1.519     4.59      4.29089     20.42412     58.62024        14     1.185     0.870  55.92   0
       322    938.8268    144.2429 300.4163220 +22.6856443     3383.587     72.41093      1.380     2.43     4.292234     20.42412     456.4301        29     1.210     1.034 -74.98   0
       323    488.2494    139.3518 300.2775803 +22.5493071      589.446     72.42937      1.288     3.00     4.445408     20.42412     87.38841        11     0.980     0.769 -89.46   0
       324    241.3318    139.8694 300.2006296 +22.4754613     377.1334     72.44779      1.480     5.41      4.15418     20.42412      38.1278         8     1.045     0.789 -48.56   0
       325    994.1065    138.2352 300.4355040 +22.7004629     821.8839     72.35561      0.546     0.79     4.158515     20.42412     500.9711         5     0.456     0.349  55.33   0
       326    602.6799    136.9151 300.3139820 +22.5828864     376.2131     72.53986      1.385     3.21      4.32933     20.42412     44.96626         7     0.830     0.605 -66.81   0
       327    412.5566    131.1044 300.2567062 +22.5242596     830.2382     72.41093      2.210     3.66     4.476841     20.42412     71.64294        13     1.229     0.811 -23.33   2
       328    178.4923    128.3571 300.1848321 +22.4533202     704.8449     72.39249      1.545     3.44     4.319912     20.42412     71.24343        11     1.067     0.745 -13.51   0
       329    539.6587    126.6127 300.2977054 +22.5610493     1732.615     72.37405      1.311     2.39     4.402734     20.42412     256.4984        20     1.092     0.905 -89.95   0
       330    601.3234    126.1765 300.3170396 +22.5793952     482.8224     72.41093      1.584     3.54     4.354692     20.42412     57.31367         9     1.065     0.682  71.58   0
       331    467.7820    127.1892 300.2751538 +22.5396820     511.6568     72.35561      1.360     3.40       4.4748     20.42412     56.40425         8     0.819     0.670  46.35   0
       332    283.3067    122.0026 300.2194660 +22.4829135     367.6195     72.30024      1.220     3.22     4.334886     20.42412      46.5915         7     0.713     0.692 -81.21   0
       333    827.9001    115.9178 300.3909289 +22.6442959      282.423     72.55826      1.347     2.85     4.628657     20.42412     52.67471         6     0.911     0.423 -37.04   0
       334    710.0046    111.5847 300.3556069 +22.6077512     233.5967     72.26331      1.440     4.52     4.361484     20.42412     32.20461         5     1.023     0.569 -74.89   0
       335    184.4176    112.1671 300.1919190 +22.4504497     191.7479     72.37405      1.032     3.43     4.338656     20.42412     29.19186         5     0.776     0.438  69.31   0
       336    973.9439    110.8002 300.4381078 +22.6865404     406.1768     72.30024      1.263     4.09     4.282487     20.42412     45.92365         8     0.958     0.649 -60.61   0
       337    313.6686    106.4221 300.2339531 +22.4875398     5980.231     72.41093      1.439     2.48     4.368506     20.42412     793.7649        34     1.184     1.115  89.83   0
       338    820.0068    107.3126 300.3912578 +22.6394595     327.7309     72.30024      1.237     2.31     4.685012     20.42412     46.92063         7     0.691     0.660  20.06   0
       339    164.5271    105.8805 300.1877756 +22.4426828     835.7626     72.52145      1.640     4.88      4.38041     20.42412     93.27512        14     1.411     0.870  68.90   0
       340      8.3700    102.9009 300.1402399 +22.3950098     811.8201      72.3187      1.905     3.83     4.426049     20.42412     73.52019        13     1.110     0.951   9.78   0
       341    285.3723     99.9607 300.2272498 +22.4772047      334.376     72.42937      1.298     4.77     4.347915     20.42412     50.07006         7     1.017     0.634  77.03   0
       342     74.9294     97.0005 300.1628203 +22.4132737     471.8111     72.30024      1.624     4.02     4.424768     20.42412     58.31395         6     0.918     0.504   0.00   0
       343    559.7321     91.8349 300.3152212 +22.5570721     6144.584     72.39249      1.382     2.42     4.471353     20.42412     872.3167        33     1.202     1.040 -86.76   0
       344    444.9229     91.8794 300.2794834 +22.5226926     642.3011     72.50304      1.299     3.26     4.511485     20.42412     95.01734        13     1.045     0.874 -12.45   0
       345    616.5764     86.6116 300.3346075 +22.5725968     355.8795     72.39249      1.400     4.34     4.403031     20.42412     42.42199         7     1.054     0.509  45.16   0
       346    753.4295     83.3097 300.3782935 +22.6126282     311.3113     72.35561      1.178     3.07      4.68444     20.42412      45.2541         6     0.803     0.548 -46.33   0
       347    812.2791     81.5604 300.3971939 +22.6297441     753.5587     72.37405      1.521     3.16     4.766251     20.42412     92.64227        12     1.048     0.766 -28.42   0
       348    905.0372     80.2383 300.4265291 +22.6571300     475.1993     72.46622      1.453     2.41     4.354153     20.42412     81.29095         8     0.832     0.613 -57.80   0
       349    252.9144     75.6778 300.2250276 +22.4605058     543.4932     72.50304      1.449     2.37     4.351862     20.42412     67.11228         7     0.800     0.573 -31.06   0
       350    688.0742     71.9267 300.3616265 +22.5897882     6337.247     72.44779      1.360     2.45     4.493023     20.42412     854.7276        39     1.214     1.110 -79.96   0
       351    611.3779     74.1444 300.3370283 +22.5674580     486.0745     72.42937      1.426     3.24     4.395063     20.42412     63.70024         8     1.023     0.638 -47.38   0
       352    463.1304     70.9095 300.2919413 +22.5221245     1389.908     72.55826      1.370     2.45     4.451205     20.42412     193.9745        19     1.056     0.930  49.27   0
       353    729.2482     69.1932 300.3753351 +22.6013311     782.5589     72.39249      1.294     2.90     4.678693     20.42412     105.5605        13     1.053     0.807  48.46   0
       354    799.2184     66.8477 300.3978913 +22.6216052     386.2244     72.42937      1.455     2.65     4.854486     20.42412     46.61032         5     0.731     0.626  29.61   0
       355    744.9418     65.2216 300.3815099 +22.6048884     615.7443     72.39249      1.374     2.52     4.751871     20.42412     75.43627        10     0.858     0.740 -18.68   0
       356     58.8022     64.5804 300.1683143 +22.3991351     322.8662      72.3187      1.574     4.30     4.657157     20.42412     33.77834         5     0.907     0.582 -47.22   0
       357    211.9708     63.2626 300.2163246 +22.4446706     704.7685     72.41093      1.386     2.75     4.390142     20.42412     91.31946        12     1.026     0.710 -79.38   0
       358   1015.0078     62.9827 300.4664054 +22.6850793     500.0748     72.33716      1.443     3.09     4.405213     20.42412      72.4539         9     0.933     0.699  71.35   0
       359    732.3636     56.7799 300.3803269 +22.5986963     2717.308     72.41093      1.367     2.39     4.754717     20.42412     381.8682        26     1.146     1.019  87.44   0
       360    373.2767     57.6924 300.2682746 +22.4914090     506.5645     72.53986      1.632     3.37     4.361201     20.42412      61.6692         8     0.992     0.637  44.89   0
       361    747.5565     55.8530 300.3853594 +22.6029786     858.5205     72.42937      1.839     4.25     4.802119     20.42412      82.8998        16     1.428     0.739  52.59   0
       362     25.8735     51.2494 300.1624070 +22.3854372     832.4261     72.39249      1.522     2.53     4.961903     20.42412     119.1569        12     0.986     0.754  -2.67   0
       363    818.7214     48.2921 300.4099792 +22.6221097      1698.03     72.53986      1.543     2.63     4.729671     20.42412     209.5419        21     1.139     1.030  74.60   0
       364    756.4490     41.8018 300.3926811 +22.6016023     684.1422     72.37405      1.248     3.08     4.875529     20.42412     111.0484        12     0.999     0.851  38.69   0
       365    562.4180     41.0145 300.3325209 +22.5432765     1189.194     72.35561      1.447     2.31      4.38456     20.42412     146.1858        14     0.951     0.794 -66.69   0
       366    135.2620     40.9722 300.1997105 +22.4152802     605.6624     72.39249      1.469     3.26     4.520168     20.42412     70.00876        10     0.886     0.833  14.79   0
       367    466.1739     38.7621 300.3033019 +22.5138024     732.2021     72.41093      1.355     3.24     4.372108     20.42412     100.6579        15     1.152     0.835  56.20   0
       368    848.3865     37.6108 300.4226830 +22.6279187     434.7662     72.30024      1.582     3.71     4.448638     20.42412     45.86251         9     0.903     0.785  66.15   0
       369    237.5575     28.9121 300.2354031 +22.4424771     3931.634     72.39249      1.539     2.88     4.378801     20.42412     448.1062        36     1.434     1.104  61.45   0
       370    805.7186     29.6430 300.4119688 +22.6128565     653.8878     72.35561      1.391     2.74     4.868389     20.42412     97.00887        12     0.920     0.873 -56.27   0
       371     29.8798     29.2518 300.1707760 +22.3803257     384.2843     72.39249      1.452     2.27     5.182405     20.42412     44.16467         6     0.716     0.552 -50.95   0
       372    563.2522     26.0938 300.3376136 +22.5392395     365.1151     72.46622      1.395     4.75     4.360005     20.42412     51.83638         8     1.179     0.543  74.38   0
       373    660.1795     26.1807 300.3677594 +22.5682897     443.5911     72.39249      1.347     3.30     4.452911     20.42412     47.41584         6     0.896     0.460  33.63   0
       374    798.8900     21.6261 300.4124381 +22.6085078     756.1857     72.35561      1.315     3.00     4.935176     20.42412     112.6717        14     1.123     0.749  68.96   0
       375    353.6424     21.1967 300.2739904 +22.4750455     1342.853     72.41093      1.544     2.93     4.295026     20.42412     138.5544        21     1.162     1.068  10.97   0
       376    764.4777     20.2531 300.4021622 +22.5978119     387.6329     72.42937      1.473     4.40     4.966726     20.42412     48.83199         7     1.174     0.469 -80.85   0
       377    892.1057     18.1544 300.4426105 +22.6354099     271.4913     72.41093      1.433     3.57     4.227895     20.42412     42.13072         5     1.091     0.640  10.15   0
       378    613.4061   1016.7362 300.0316808 +22.8385988      2355.93     72.35561      1.933     4.39     2.413138     20.42412     140.9821        33     1.444     1.311 -69.21  16
       379    760.3995     16.6115 300.4020713 +22.5955443     526.0686     72.20787      1.282     3.03     4.982492     20.42412     69.46336         8     0.895     0.699  51.45   0
       380    192.3904    978.9871 299.9130363 +22.7013970     1623.116     72.28178     11.484    15.56     42.09672     20.42412     52.50024        37     4.001     1.683  24.02   3
       381    705.4847   1009.6567 300.0626488 +22.8641964     9078.182     72.48463      1.897     4.29     2.426229     20.42412     526.0262        46     1.503     1.405  24.70   3
       382    699.9747   1011.8087 300.0602332 +22.8631604     8565.777     72.39249      2.013     4.84     2.417364     20.42412     481.3251        52     1.624     1.523  14.37   3
       383    800.2482   1012.8996 300.0911075 +22.8935540     558.5427     72.42937      1.757     4.57       2.9453     20.42412     41.56406        10     1.067     0.868  49.20   0
