#   1 NUMBER                 Running object number                                     
#   2 X_IMAGE                Object position along x                                    [pixel]
#   3 Y_IMAGE                Object position along y                                    [pixel]
#   4 ALPHA_J2000            Right ascension of barycenter (J2000)                      [deg]
#   5 DELTA_J2000            Declination of barycenter (J2000)                          [deg]
#   6 FLUX_APER              Flux vector within fixed circular aperture(s)              [count]
#   7 FLUXERR_APER           RMS error vector for aperture flux(es)                     [count]
#   8 FLUX_RADIUS            Fraction-of-light radii                                    [pixel]
#   9 FWHM_IMAGE             FWHM assuming a gaussian core                              [pixel]
#  10 BACKGROUND             Background at centroid position                            [count]
#  11 THRESHOLD              Detection threshold above background                       [count]
#  12 FLUX_MAX               Peak flux above background                                 [count]
#  13 ISOAREA_IMAGE          Isophotal area above Analysis threshold                    [pixel**2]
#  14 A_IMAGE                Profile RMS along major axis                               [pixel]
#  15 B_IMAGE                Profile RMS along minor axis                               [pixel]
#  16 THETA_IMAGE            Position angle (CCW/x)                                     [deg]
#  17 FLAGS                  Extraction flags                                          
         1    218.3874     16.3026 300.2354681 +22.4424374     3872.365     72.16432      1.498     2.53     5.231249     20.39093     477.3648        35     1.362     1.089  49.41   0
         2    779.7010      8.9613 300.4125939 +22.6083952      958.256     72.29327      1.407     2.90     4.876418     20.39093     134.4397        18     1.065     0.993 -47.51   0
         3    334.4826      8.5143 300.2740996 +22.4749760     1231.151     72.40362      1.385     3.16      4.56825     20.39093     162.2072        17     1.086     0.898  49.98   0
         4    745.5164      7.6413 300.4023672 +22.5977855      284.448     72.23804      1.506     3.62     4.874607     20.39093     46.34232         5     0.955     0.456  75.96   0
         5    817.5336      3.7797 300.4260664 +22.6182254     726.0455     67.96761      1.541     4.22      4.92092     20.39093     81.25491        11     1.208     0.729  72.83  24
         6    740.8311      3.8618 300.4021319 +22.5952961     410.4002     68.33854      1.185     2.50     4.883351     20.39093     76.65471         8     0.792     0.668 -43.08  16
         7    837.5726      1.1983 300.4331503 +22.6234787     976.6914     55.39133      0.808     1.84      4.96143     20.39093      288.613         8     0.831     0.399   0.71  24
         8    594.1652   1004.1769 300.0315796 +22.8387224     2331.165     72.29327      1.826     4.15     3.155267     20.39093     169.0015        31     1.395     1.287 -11.42   0
         9    277.9496   1012.4510 299.9304892 +22.7462045     2063.728     72.31168      6.869    22.89     58.00449     20.39093     65.04129        96     5.645     2.578  -7.00  19
        10    249.6408   1016.5498 299.9203531 +22.7388816     2551.658     72.29327      6.776    27.64     73.11393     20.39093     67.61192       206     5.303     3.999 -17.09  19
        11    247.1506    999.3806 299.9251661 +22.7332118     4342.356     72.27486      7.921    23.41     61.80687     20.39093      94.3873       306     5.295     4.866  61.81  19
        12    267.1913    997.9039 299.9318778 +22.7388044     5537.715     72.16432      9.375    30.69     53.71428     20.39093     100.7859       494     7.107     5.448 -62.31  19
        13    287.5034    988.4452 299.9412718 +22.7421895     8452.424     72.29327      7.339    32.56     40.31774     20.39093     162.6837       657    11.482     4.396  62.78  27
        14    176.6618   1021.0362 299.8962064 +22.7182577     1004.258      68.6881      2.276     8.32     87.03514     20.39093     49.54266        17     1.872     1.055  80.87  19
        15    179.0029   1019.3003 299.8974990 +22.7184630     1295.497     72.14588      2.226     8.45     85.48756     20.39093     63.82669        19     2.358     0.846  58.79  19
        16    131.5214   1012.9921 299.8847952 +22.7023984     4821.957     72.21961     14.235    68.08     68.90093     20.39093     106.7275      1222    16.844     7.635  41.77  27
        17    125.5530    963.7036 299.8989781 +22.6864791     5269.551     72.31168     22.674    78.75      33.6832     20.39093     129.2531      3012    17.860    15.134 -18.51  27
        18    212.3092    987.7413 299.9181216 +22.7194158     1186.212     72.34846      4.333    10.95      61.5001     20.39093     51.85149        16     2.489     1.343  85.42   3
        19      2.8561   1001.3217 299.8486208 +22.6604156     1337.022     64.22335     11.456    14.98    -15.27176     20.39093     42.70808        42     4.045     1.543  86.45  27
        20      9.6227   1018.6926 299.8450699 +22.6674252     1435.821     72.20119      8.933    13.27    -14.00385     20.39093     44.65096        29     2.796     1.752 -86.25  27
        21    545.9543    989.1720 300.0214518 +22.8199546     364.8111     72.31168      1.540     3.89      3.11819     20.39093     31.67743         5     0.856     0.507 -54.24   0
        22     29.5763    986.4694 299.8617527 +22.6641844     540.7473     72.27486      2.446     5.69     2.946671     20.39093     35.95268         9     1.299     0.703 -26.35   0
        23    973.5415    983.0413 300.1566907 +22.9464165     623.2067     72.27486      1.956     7.57     3.198559     20.39093     42.62395        15     1.303     1.232 -83.45   0
        24    210.6613    979.4622 299.9203032 +22.7165477     602.5662     72.31168      2.689     5.48     54.53599     20.39093     33.79342         5     1.046     0.809 -76.97   0
        25      2.3872    972.8829 299.8577283 +22.6521258     802.2579      61.9455      6.822     8.11    -8.655745     20.39093     47.41176        14     1.753     1.049  89.17  24
        26    174.0819    963.8372 299.9140166 +22.7010870     1674.439     72.23804     11.722    17.35     42.92915     20.39093      48.4052        44     4.017     2.082  15.94   3
        27    192.9187    968.7394 299.9182766 +22.7081473     1592.194     72.36685      4.407    10.48      46.7981     20.39093     45.15789        31     1.946     1.572   6.52   0
        28    698.9593    966.5201 300.0764732 +22.8593489     6873.209     72.25645      1.891     3.99     3.122565     20.39093     421.9371        42     1.429     1.395  -5.66   0
        29      8.5813   1007.0491 299.8485353 +22.6637762     1393.482     72.29327     10.372    11.78     -12.4531     20.39093     36.05128        22     2.441     1.583  85.54  19
        30    578.5943    961.1620 300.0407285 +22.8217099      484.594     72.31168      1.866     5.72     3.128734     20.39093     35.48232         9     1.166     0.790  56.19   0
        31    278.7603    981.6191 299.9407742 +22.7376080      5243.68     72.29327      1.080     6.76     39.78271     20.39093     2401.357        30     1.487     0.863  52.02   3
        32    195.7624   1020.6907 299.9022559 +22.7238934     827.0435     69.78349      2.446    10.51     87.03514     20.39093     35.34623        22     1.970     1.561 -31.84  24
        33    850.9033    960.1015 300.1259137 +22.9030667     351.9452     72.45872      1.681     5.96     3.136373     20.39093     34.11693         7     1.318     0.759 -40.71   0
        34    607.2478    957.2374 300.0509280 +22.8291787     1573.115     72.31168      1.760     4.31      3.13538     20.39093     117.5481        24     1.323     1.164  -4.94   0
        35    501.3417    953.6431 300.0191247 +22.7963779     1012.997     72.23804      1.729     3.75     3.308985     20.39093     78.63982        17     1.158     0.989  67.77   0
        36      3.6562   1023.1948 299.8417517 +22.6669232     737.5443     54.61726      4.384     7.92    -19.93739     20.39093     43.38457        18     2.080     0.844   0.15  27
        37    431.7780    951.6106 299.9981365 +22.7749236     6650.053     72.25645      1.791     4.05     3.405973     20.39093     553.4707        43     1.434     1.373  25.37   0
        38    781.1053   1000.3411 300.0910632 +22.8936900     757.9462     72.34846      1.978     6.66     2.524031     20.39093     43.50891        13     1.269     0.980 -32.63   0
        39    464.3425    938.3819 300.0125743 +22.7808995     485.7677     72.25645      1.528     5.73     3.509629     20.39093     43.81379        11     1.213     0.762  31.49   0
        40    124.3218    929.4762 299.9097305 +22.6762982     3867.833     72.38524     18.145    54.66     9.975424     20.39093     83.27923       933    12.468     6.650 -31.70   3
        41    978.0810    930.5265 300.1751948 +22.9326962     2172.363     72.38524      1.948     4.41     3.229717     20.39093     115.3127        34     1.455     1.360  -1.16   0
        42      3.7012   1018.2401 299.8433780 +22.6655171     1246.768     67.69299      7.562    10.82    -18.72522     20.39093     44.11972        30     2.057     1.588 -42.17  27
        43    628.2018    927.1406 300.0672457 +22.8268269     370.5829     72.23804      1.526     4.57     3.097124     20.39093     56.01055         8     1.216     0.773  39.68   0
        44    476.9729    926.6116 300.0203345 +22.7813122     287.7422     72.27486      1.555     4.06     3.574496     20.39093     33.91249         5     1.061     0.445 -62.50   0
        45      3.0047   1012.7027 299.8449636 +22.6637213     1322.361     64.80084      9.787    11.94    -18.28722     20.39093       39.315        26     2.387     1.664   6.87  27
        46    766.8398    919.1393 300.1130397 +22.8661039     702.1854     72.27486      1.788     5.08     3.141821     20.39093     53.24126        14     1.241     0.903  81.19   0
        47    801.6629    913.5288 300.1257178 +22.8749337     934.9216     72.31168      1.768     5.08     3.191556     20.39093     68.14801        18     1.236     1.093 -14.18   0
        48    578.9911    914.2516 300.0561142 +22.8083686     481.1026     72.29327      1.580     4.86     3.143568     20.39093      42.4826         8     1.131     0.631   2.90   0
        49    259.0632    912.3033 299.9572004 +22.7118205     742.3516     72.36685      4.742     5.70     9.432321     20.39093     28.86945         8     2.138     0.428  55.41   0
        50     11.4415    910.8806 299.8807105 +22.6370763     481.2102     72.23804      1.770     6.39     3.137511     20.39093     50.41293         9     1.401     0.819 -22.71   0
        51    824.0709    907.2061 300.1347592 +22.8798362     11390.07     72.23804      1.790     3.82     3.282327     20.39093     721.0714        51     1.425     1.411 -73.04   0
        52     18.6085   1002.5492 299.8531139 +22.6654983     859.4666     72.27486      6.458     6.67    -4.803898     20.39093     42.21755        13     1.581     0.789  78.57   0
        53    869.4490    907.4506 300.1488259 +22.8935093     405.8522     72.31168      1.491     4.99      3.39874     20.39093     37.06235         8     1.111     0.635  -8.89   0
        54    680.5686    999.4976 300.0600128 +22.8632971     8543.269     72.23804      1.898     4.52     3.164242     20.39093     470.7204        46     1.484     1.438  36.17   3
        55   1014.3398    905.7430 300.1945688 +22.9364442     500.1967     72.34846      2.174     4.16     3.372729     20.39093     38.08557         5     1.054     0.468 -85.55   0
        56    251.8503    902.8153 299.9580439 +22.7069350     604.1317     72.29327      3.724     4.01     9.197475     20.39093     32.85349         5     1.415     0.325  58.23   0
        57    957.7919    901.1744 300.1784159 +22.9181857     347.7244     72.27486      1.891     6.47     3.403615     20.39093     31.20073         7     1.359     0.864  58.75   0
        58    135.2130    898.7742 299.9231019 +22.6707664      1218.21     72.27486      7.132     8.78     8.522307     20.39093     65.05954        22     1.894     1.263  49.80   0
        59    876.1265    895.2761 300.1548683 +22.8920151     385.6778     72.34846      1.972     5.92     3.416831     20.39093     28.69697         7     1.061     0.928  61.53   0
        60    529.7057    895.3571 300.0469160 +22.7881638     473.2669     72.27486      1.641     6.88     3.348869     20.39093     46.52381        13     1.615     0.822  15.56   0
        61    686.1295    997.1747 300.0625010 +22.8642984     9557.558     72.27486      1.925     4.39     3.158577     20.39093     586.9457        52     1.511     1.465  58.00   3
        62    832.7800    889.2524 300.1433144 +22.8772920      1405.57     72.25645      1.707     4.35     3.351937     20.39093      96.9267        21     1.232     1.098 -12.60   0
        63    125.1245    889.2873 299.9230524 +22.6650181     651.9934     72.40362      2.364     5.48      6.67024     20.39093     32.95732         8     1.036     0.817  46.50   0
        64   1015.1472    888.1661 300.2005387 +22.9316374     390.6841     72.29327      1.821     4.71     3.483918     20.39093     37.42517         7     1.099     0.769  67.65   0
        65    684.7231    886.3408 300.0981236 +22.8320670     474.5777     72.33007      1.645     5.40     2.996757     20.39093      51.6451         8     1.031     0.798  -9.85   0
        66    870.9677    882.5812 300.1573896 +22.8868234     869.9944     72.27486      1.964     4.36     3.431496     20.39093     64.08872        18     1.216     1.074  77.37   0
        67    978.6661    879.7535 300.1918951 +22.9182890     344.9674     72.27486      1.630     4.49     3.533335     20.39093     37.74952         7     1.230     0.466 -86.36   0
        68    918.7570    874.7062 300.1748523 +22.8988853     494.3678     72.27486      1.680     4.53     3.543282     20.39093     42.97125         8     1.037     0.562 -16.64   0
        69    770.4540    873.1547 300.1291249 +22.8539860      626.395     72.31168      1.578     4.48      3.21206     20.39093     61.10268        15     1.235     0.888  30.92   0
        70     30.5170    871.4838 299.8994491 +22.6315118     485.7041     72.40362      1.977     3.34     3.442725     20.39093     54.54958         8     1.019     0.733  66.76   0
        71    781.7270    870.3301 300.1335568 +22.8565546     559.6299     72.34846      1.780     4.93     3.272463     20.39093     48.37844        12     1.133     0.856   3.22   0
        72    483.0579    869.3461 300.0408560 +22.7667079     4235.829     72.33007      1.583     3.17     3.569131     20.39093     412.5237        33     1.263     1.222  44.01   0
        73    261.1483    858.0095 299.9755080 +22.6968761     339.6213     72.27486      1.412     5.50     4.625726     20.39093      45.0621         9     1.167     0.778  70.40   0
        74    526.3796    857.2428 300.0582775 +22.7762293      266.199     72.31168      1.363     3.51     3.460913     20.39093     38.74462         5     0.763     0.465  76.74   0
        75    208.4089    854.8406 299.9601414 +22.6801398     812.8666     72.27486      1.755     3.40     5.383326     20.39093     101.7415        14     1.170     0.982   6.82   0
        76    185.4505    851.9285 299.9539517 +22.6724143     1557.135     72.27486      1.773     4.05     5.290105     20.39093     123.7843        25     1.303     1.237  85.60   0
        77    117.3883    853.3246 299.9323444 +22.6523854     465.8219     72.29327      2.144     3.44     4.229896     20.39093     50.55954         5     0.745     0.693  17.03   0
        78   1011.5101    839.6474 300.2151858 +22.9166101     2051.117     72.23804      1.888     4.24     3.745678     20.39093     128.6648        32     1.434     1.322 -36.96   0
        79    716.9781    839.8915 300.1232802 +22.8284041     556.9276     72.20119      1.867     5.76     3.147673     20.39093     44.08722         9     1.282     0.729 -20.27   0
        80    795.1536    833.8075 300.1496202 +22.8500929     729.7641     72.29327      1.888     5.45      3.35764     20.39093     49.58074        18     1.259     1.224 -36.26   0
        81    218.1233    833.2271 299.9701900 +22.6768571     432.3232     72.27486      1.426     4.72     4.707151     20.39093     52.67381         7     1.273     0.497  72.87   0
        82    542.6807    831.7729 300.0716356 +22.7738092     257.8912     72.29327      1.409     3.92     3.417294     20.39093     33.99368         5     1.068     0.412  -4.30   0
        83    663.0695    827.4885 300.1105196 +22.8086806     4810.829     72.44036      1.555     3.20     3.156963     20.39093     456.7596        31     1.199     1.184  21.15   0
        84    153.1187    828.0344 299.9516723 +22.6558587     382.0767     72.23804      1.564     3.40     4.444868     20.39093     45.21396         7     0.830     0.682 -20.91   0
        85    465.1335    824.4932 300.0498641 +22.7484615     727.6009     72.42199      1.575     3.57     3.494547     20.39093     64.83788        13     0.974     0.927   6.80   0
        86    213.4195    821.1741 299.9726470 +22.6719889     1217.596     72.25645      1.611     3.28     4.337515     20.39093     139.7542        22     1.181     1.130 -43.60   0
        87    683.7026    819.9698 300.1193921 +22.8127084     712.3649     72.21961      1.449     3.96     3.192634     20.39093     87.42113        13     1.162     0.839  86.26   0
        88    232.7261    817.8674 299.9797245 +22.6768342     419.2471     72.34846      1.676     3.66     4.190541     20.39093      58.0192         8     1.098     0.817 -69.16   0
        89    600.2679    810.6558 300.0964336 +22.7850179     256.5213     72.31168      1.411     4.51     3.360361     20.39093     29.82895         5     0.819     0.707  68.67   0
        90    839.1227    807.2533 300.1719611 +22.8556464     4264.092     72.31168      1.612     3.28     3.377758     20.39093     335.2289        33     1.276     1.220 -20.98   0
        91    247.8325    801.4078 299.9897732 +22.6766465     390.6402     72.27486      1.399     3.30      3.72452     20.39093     53.54776         8     0.928     0.752 -44.23   0
        92    556.0439    799.6434 300.0862440 +22.7685955     654.8157     72.34846      1.547     3.44     3.408598     20.39093     79.43494        11     0.934     0.847  84.16   0
        93    202.3706    797.5799 299.9768837 +22.6619065     878.5067     72.27486      1.549     3.36      3.72016     20.39093     119.3751        19     1.166     1.067  43.54   0
        94    352.1079    789.6976 300.0260104 +22.7045732     53973.18     72.45872      1.566     3.00     3.726426     20.39093     6193.446        94     1.422     1.375  45.18   0
        95    617.8638    793.0566 300.1076360 +22.7852421     492.0969     72.33007      1.322     4.08     3.395228     20.39093     57.00054         8     0.932     0.687  73.86   0
        96    610.1791    788.6858 300.1066639 +22.7816833     1583.911     72.20119      1.540     3.03     3.412404     20.39093     167.9158        24     1.268     1.160  -0.38   0
        97   1022.4991    788.5157 300.2352424 +22.9052126     698.4371     62.60781      1.535     4.09     3.995656     20.39093     63.77011        16     1.118     0.984  11.41  24
        98    280.1775    787.7590 300.0042686 +22.6824367     517.7655     72.31168      1.629     4.66     3.726455     20.39093     59.84044        14     1.320     0.946  15.79   0
        99    638.7940    784.8907 300.1168099 +22.7891735      838.981     72.18276      1.477     3.00     3.369267     20.39093     106.0094        14     1.051     0.866  57.59   0
       100      5.7276    785.0097 299.9198669 +22.5992809     782.2261     72.27486      1.765     4.36     3.742109     20.39093     82.03758        13     1.393     0.736 -41.49  16
       101     38.6111    784.5952 299.9302160 +22.6090332     682.5046     72.14588      1.610     4.02     3.735128     20.39093     69.10942        12     1.126     0.837 -31.25   0
       102    649.9825    783.4631 300.1207590 +22.7921181     459.6706     72.25645      1.275     3.05     3.355827     20.39093     72.23817         8     0.818     0.665 -30.30   0
       103    969.8248    780.0707 300.2215565 +22.8870051     361.0934     72.27486      1.460     5.37     3.841022     20.39093     45.24089         7     1.093     0.982  72.17   0
       104    755.3314    779.3895 300.1549052 +22.8225300      419.604     72.27486      1.607     3.47     3.469596     20.39093     57.93063         8     0.994     0.658  34.71   0
       105    550.1897    776.9345 300.0918049 +22.7603220     334.3096     72.23804      1.344     4.67     3.447365     20.39093      40.2576         7     0.865     0.715  14.19   0
       106    401.8626    766.9897 300.0488722 +22.7129830     31465.38     72.20119      1.517     3.05     3.598529     20.39093     3165.224        74     1.349     1.321  22.99   0
       107    792.9874    769.9098 300.1697229 +22.8310944     699.3685     72.21961      1.433     3.35     3.496422     20.39093     70.53519        15     1.139     0.836  -0.89   0
       108    416.1480    767.5812 300.0531248 +22.7174377     2063.118     72.25645      1.566     3.00     3.559756     20.39093     208.1443        23     1.246     0.993 -22.47   0
       109    925.0177    763.0273 300.2131233 +22.8686837     2862.135     72.27486      1.586     3.21     3.752333     20.39093     223.0137        31     1.333     1.180  69.59   0
       110    412.9373    761.1612 300.0542129 +22.7146324     654.1669     72.27486      1.557     5.12     3.575217     20.39093     77.08984        10     0.955     0.796  43.72   0
       111    284.6252    758.8361 300.0150547 +22.6754742     868.6339     72.29327      1.509     3.53     3.731341     20.39093     117.3072        16     1.209     0.881  66.46   0
       112    682.7037    758.8903 300.1389410 +22.7948728      890.378     72.45872      1.483     3.15     3.412959     20.39093     98.39796        14     0.996     0.903  40.47   0
       113    519.2581    758.8810 300.0880445 +22.7458647      514.612     72.33007      1.678     4.72     3.483723     20.39093      49.3112        10     0.951     0.891  46.39   0
       114    577.5181    756.7808 300.1068662 +22.7627316     327.8294     72.25645      1.336     2.32     3.458204     20.39093     44.90982         5     0.712     0.472 -72.04   0
       115     89.2773    754.6393 299.9556951 +22.6156517     396.0227     72.25645      1.407     3.78      3.72455     20.39093     46.99379         7     0.960     0.584 -70.72   0
       116    529.8646    753.7706 300.0930078 +22.7475784     747.0733     72.29327      1.412     2.91     3.491356     20.39093     105.2247        16     1.042     0.922 -14.65   0
       117    930.9147    750.5674 300.2190133 +22.8668711     438.6404     72.23804      1.505     5.68     3.816343     20.39093     47.66133        13     1.441     0.832 -27.19   0
       118    432.0634    750.1522 300.0637433 +22.7172098     291.8165     72.29327      1.321     3.82     3.559101     20.39093     49.70601         8     0.990     0.739 -25.49   0
       119    475.8347    749.0024 300.0777394 +22.7300073     425.6156     72.25645      1.273     3.02     3.508144     20.39093     58.43223         8     0.879     0.670  26.76   0
       120    117.6149    747.9828 299.9666644 +22.6222475     473.4963     72.23804      1.501     5.11     3.719422     20.39093     51.77339        10     1.324     0.557 -48.29   0
       121    684.7080    748.0992 300.1430736 +22.7923752     295.8238     72.44036      1.609     4.60     3.451265     20.39093     39.86526         7     1.172     0.513 -30.22   0
       122    908.7424    745.7184 300.2136753 +22.8588347     448.3059     72.33007      1.653     4.09     3.762456     20.39093     46.32433         6     0.744     0.642  -7.30   0
       123    281.8806    743.1655 300.0192952 +22.6701552     621.8708     72.21961      1.766     4.31     3.733469     20.39093     60.37445        13     1.164     0.900  26.72   0
       124    605.3445    733.4818 300.1231056 +22.7643860     493.0474     72.31168      1.350     3.02     3.491361     20.39093     55.08846        11     0.900     0.852  11.77   0
       125    575.0848    731.8430 300.1142153 +22.7548432      677.841     72.23804      1.451     3.55     3.551354     20.39093      78.6498        12     1.053     0.799 -66.30   0
       126    484.2713    731.1978 300.0861531 +22.7274272     299.0782     72.21961      1.327     4.17      3.57248     20.39093     44.97226         8     0.905     0.678  -2.68   0
       127    991.4435    728.3226 300.2451244 +22.8786140     4388.225     72.25645      1.663     3.47     4.034142     20.39093     366.4457        33     1.301     1.213 -25.78   0
       128    596.8245    729.3146 300.1218069 +22.7606353     1432.438     72.23804      1.391     2.83     3.548655     20.39093     171.8938        18     1.029     0.953  12.74   0
       129    516.8497    728.6724 300.0971150 +22.7364716      266.077     72.27486      1.253     3.34      3.62189     20.39093     56.27366         5     0.896     0.488 -52.55   0
       130    678.3178    724.1201 300.1488780 +22.7835744     352.6672     72.40362      1.264     3.00     3.538544     20.39093     51.89204         7     0.831     0.692  36.48   0
       131    979.9458    719.7967 300.2443094 +22.8727198      1730.31     72.23804      1.601     3.75       4.0187     20.39093     138.9432        25     1.302     1.121 -27.79   0
       132    342.7520    713.5825 300.0478434 +22.6799278     835.9875     72.31168      1.375     3.14     3.735607     20.39093     100.1802        13     1.059     0.777 -46.05   0
       133    806.1616    710.8903 300.1930159 +22.8180917     2622.632     72.25645      1.567     3.16     3.682539     20.39093     230.1903        30     1.343     1.178  -4.61   0
       134   1011.2028    709.9113 300.2572736 +22.8792426     1712.972     72.18276      1.714     4.45     4.078572     20.39093     124.8886        25     1.372     1.137  -7.48   0
       135     28.9967    701.1845 299.9543416 +22.5822313     794.9532     72.12744      1.588     3.30      3.79554     20.39093     84.27114        13     1.144     0.723  27.60   0
       136    888.6729    697.0521 300.2232371 +22.8388404      685.883     72.27486      1.776     5.91     3.918742     20.39093     50.35078        17     1.448     0.907  33.66   0
       137    191.5527    697.2861 300.0061226 +22.6298935     671.0668     72.23804      1.589     3.18     3.868084     20.39093     76.53241        12     0.998     0.822  32.38   0
       138    924.6557    687.9278 300.2374236 +22.8469993     147971.2     72.29327      1.552     3.14     4.019267     20.39093      13179.1       166     1.507     1.461 -72.64   0
       139    686.7461    692.0117 300.1619401 +22.7768805     436.9917     72.27486      1.481     4.29     3.736258     20.39093     50.37748         7     0.944     0.654 -58.52   0
       140    776.9384    688.0995 300.1913154 +22.8027880     835.9082     72.34846      1.523     3.92     3.738136     20.39093     87.55371        12     1.117     0.830 -64.95   0
       141    957.4069    680.9958 300.2498912 +22.8548189      470.352     72.10899      1.464     3.02     4.058457     20.39093     59.72541         8     0.838     0.759  70.59   0
       142    610.9919    676.7115 300.1433165 +22.7497796     1682.993     72.18276      1.358     2.48     4.042669     20.39093     223.8619        20     1.010     0.999  -2.33   0
       143    792.0907    674.0207 300.2006137 +22.8032847     9331.362     72.21961      1.406     2.85     3.743627     20.39093     951.9514        37     1.169     1.130  26.95   0
       144    273.7111    676.1108 300.0385486 +22.6484663     349.9608     72.44036      1.843     3.89     3.742646     20.39093     38.71908         5     0.869     0.499 -35.53   0
       145    293.6066    669.0057 300.0470448 +22.6523955     4868.391     72.12744      1.442     2.81     3.744622     20.39093     630.7228        34     1.191     1.151  16.64   0
       146    375.7078    666.9888 300.0732384 +22.6764414     1220.122     72.21961      1.411     3.01     3.754915     20.39093     142.4987        17     1.041     0.987  16.64   0
       147      7.3135    667.2168 299.9586446 +22.5659832     1546.438     72.23804      1.772     3.39      3.83815     20.39093     162.1527        27     1.391     1.270  36.73  16
       148    251.1932    664.4838 300.0353248 +22.6383755     512.4546     72.20119      1.656     3.63     3.793697     20.39093      70.5562         9     1.189     0.779  55.22   0
       149    583.9093    662.6624 300.1394483 +22.7376270     834.4525     72.36685      1.475     3.41     4.323684     20.39093     90.08873        15     1.094     0.915  78.95   0
       150    575.5549    654.9204 300.1393626 +22.7328996     3037.381     72.25645      1.292     2.33     4.409235     20.39093     461.4702        23     1.002     0.968 -22.35   0
       151    565.7900    648.5771 300.1383834 +22.7281510     1379.209     72.27486      1.358     2.42     4.483199     20.39093     203.3413        18     1.033     0.886  45.30   0
       152    959.5548    646.2694 300.2618470 +22.8454833      613.969     72.25645      1.896     3.73     4.155129     20.39093     52.27794         9     0.959     0.768  -5.98   0
       153    229.1836    644.6586 300.0349234 +22.6260849     579.6274     72.23804      1.355     3.17     3.920989     20.39093     82.03699        12     0.935     0.878 -81.27   0
       154    243.3956    643.1470 300.0398334 +22.6299144     540.5595     72.25645      1.493     3.21     3.902015     20.39093     82.12206        13     1.119     0.787  42.68   0
       155    129.2192    642.9731 300.0043974 +22.5956113     339.2797     72.29327      1.299     3.21     4.097394     20.39093     35.48627         5     0.800     0.484 -29.22   0
       156   1012.8066    639.9202 300.2805220 +22.8596085     483.0433     72.20119      1.422     3.61      4.17275     20.39093     53.38749        11     0.961     0.826 -55.47   0
       157    300.6667    640.0089 300.0586628 +22.6461925      330.073     72.27486      1.410     3.01      3.80998     20.39093     38.94153         7     0.741     0.648  87.35   0
       158    269.3145    639.8124 300.0489764 +22.6367323     516.0824     72.21961      1.426     3.40     3.856229     20.39093     54.28401        10     0.931     0.739  59.75   0
       159    589.8633    638.8414 300.1490431 +22.7325720     393.7991     72.25645      1.157     2.80     4.431883     20.39093     58.30774         8     0.759     0.691 -24.57   0
       160    490.5944    638.2777 300.1183200 +22.7026504     1683.853     72.18276      1.274     2.52     4.366234     20.39093     214.5901        17     1.043     0.847  47.10   0
       161    144.5580    633.1257 300.0123641 +22.5973885     19902.62     72.25645      1.607     3.03     4.229149     20.39093     2185.934        65     1.413     1.314  31.57   0
       162     65.7702    634.8600 299.9873176 +22.5742461     790.3391     72.31168      1.735     2.98     3.898184     20.39093      89.7564        12     0.937     0.908 -20.26   0
       163    575.5551    633.5527 300.1463061 +22.7267643     1207.437     72.29327      1.453     2.65       4.5052     20.39093     145.8338        16     1.007     0.940  74.53   0
       164    610.8156    632.7010 300.1575634 +22.7370892     404.9781     72.18276      1.685     3.29      4.40024     20.39093      50.7312         9     0.898     0.751  80.03   0
       165    993.7492    619.9785 300.2810568 +22.8481694     1110.698     72.27486      1.552     3.34     4.231484     20.39093     109.3805        19     1.290     0.952  33.77   0
       166    658.4051    621.0892 300.1761590 +22.7480183     280.7631     72.18276      1.262     3.47     4.203144     20.39093     43.35807         5     0.796     0.437  70.29   0
       167     90.6479    617.2599 300.0007654 +22.5766625     1484.793     72.33007      2.019     4.59     3.971912     20.39093      103.462        26     1.541     1.088  87.84   0
       168    860.1030    618.2540 300.2399373 +22.8076414     436.6531     72.36685      1.371     4.33     4.378469     20.39093     59.38918         7     0.772     0.691 -22.88   0
       169    157.2659    617.7345 300.0213143 +22.5967856      419.755     72.33007      1.206     1.88     4.369279     20.39093     72.68016         5     0.708     0.410 -16.55   0
       170    538.9400    614.2422 300.1411798 +22.7102435     362.8759     72.25645      1.125     2.30     4.616073     20.39093     72.05751         8     0.779     0.636  28.99   0
       171    933.4833    612.5671 300.2646670 +22.8279888     906.1129     72.23804      2.072     4.22     4.252041     20.39093     84.71384        15     1.311     0.873  -0.11   2
       172    331.4529    613.0920 300.0769839 +22.6477011     436.0851     72.33007      1.507     4.05     3.870831     20.39093     41.06823         7     0.928     0.613  36.01   0
       173    495.6092    606.4269 300.1302297 +22.6950097     749.4769     72.27486      1.444     2.79     4.574275     20.39093     101.6515        13     0.989     0.840 -16.74   0
       174    690.7708    603.9648 300.1918056 +22.7527996     514.0961     72.29327      1.350     3.85     4.148761     20.39093     70.73602        12     1.163     0.795 -85.89   0
       175    643.5630    604.8968 300.1767969 +22.7389195     711.8868     72.27486      1.712     3.77     4.376098     20.39093     72.59705        11     1.061     0.825  18.05   0
       176    661.3964    603.1545 300.1829180 +22.7437638     516.6447     72.25645      1.336     2.65     4.257831     20.39093     68.16617         8     0.854     0.649  11.19   0
       177    539.7767    602.4296 300.1452782 +22.7071025     971.2792     72.27486      1.526     2.74     4.656813     20.39093     114.8059        15     1.027     0.891  89.31   0
       178    726.8824    602.1053 300.2036611 +22.7630869     212.6782     72.44036      1.157     3.38     4.103884     20.39093     38.42019         6     0.758     0.563 -36.56   0
       179    973.7456    598.0179 300.2819522 +22.8358666     3261.129     72.25645      1.457     3.01     4.273175     20.39093     315.5889        27     1.155     1.100   2.97   0
       180    505.4543    597.6946 300.1361313 +22.6954540      1682.54     72.33007      1.325     2.39     4.605615     20.39093     262.5862        19     1.064     0.939  37.27   0
       181    870.2183    595.1159 300.2506089 +22.8040232     225.4292     72.23804      1.267     4.29     4.333485     20.39093     39.65582         5     0.776     0.674 -40.20   0
       182    855.4949    593.6658 300.2464895 +22.7991959     282.0551     72.40362      1.486     4.51     4.283986     20.39093     36.12245         7     0.909     0.636  18.55   0
       183     67.3688    591.3064 300.0019636 +22.5622332     5174.161     72.20119      1.673     3.01     3.924122     20.39093     548.3877        37     1.317     1.259  47.42   0
       184   1012.7917    587.6944 300.2974871 +22.8445930     435.5413     72.16432      1.537     4.85     4.297238     20.39093     45.68076        10     1.165     0.762  49.62   0
       185    534.2945    588.6633 300.1480437 +22.7015063     210.1248     72.36685      1.149     3.52     4.697377     20.39093     48.49026         5     0.765     0.466  -7.23   0
       186    368.8087    584.5117 300.0978896 +22.6507001     9248.173     72.20119      1.379     2.51     3.869335     20.39093     1265.018        40     1.183     1.122  79.36   0
       187    491.2628    581.5591 300.1369556 +22.6865668     9107.149     72.25645      1.298     2.38     4.601298     20.39093      1284.79        37     1.111     1.086  27.07   0
       188    903.0071    575.6056 300.2671715 +22.8082383     1992.822     72.12744      1.441     2.69     4.218269     20.39093     256.5611        23     1.087     1.070 -13.03   0
       189    135.0550    577.2825 300.0275522 +22.5785170       330.62     72.33007      1.357     4.55     4.123287     20.39093     43.52969         6     0.997     0.590  41.59   0
       190    987.6155    573.0021 300.2944062 +22.8328303     12568.62     72.12744      1.485     2.95     4.304064     20.39093     1153.752        51     1.297     1.251 -44.74   0
       191    551.8511    571.1894 300.1591865 +22.7017512      11702.8     72.29327      1.322     2.42     4.803849     20.39093     1552.744        42     1.151     1.119 -64.75   0
       192    721.2350    566.9564 300.2133204 +22.7512976     579.7216     72.33007      1.271     2.31      4.11568     20.39093     89.21839         9     0.759     0.748 -13.73   0
       193    279.2807    566.5156 300.0758879 +22.6186873      1443.94     72.42199      1.444     2.73     3.837412     20.39093     190.9772        19     1.105     0.987  20.09   0
       194    525.9880    564.2106 300.1534012 +22.6919948     212.5703     72.16432      1.189     2.72      4.76395     20.39093     51.81757         7     0.758     0.622  -0.53   0
       195    483.5365    559.3928 300.1417512 +22.6778861     4248.619     72.25645      1.320     2.42     4.604951     20.39093     537.9513        27     1.072     1.038  58.22   0
       196    826.3598    559.4853 300.2485108 +22.7806464     788.0242     72.25645      1.280     2.92     4.016922     20.39093     101.4794        14     0.992     0.882 -13.75   0
       197    461.7752    557.8378 300.1354830 +22.6709160     1272.602     72.29327      1.383     2.61     4.374584     20.39093     193.4056        17     1.044     0.913  17.22   0
       198    216.3411    557.1763 300.0593506 +22.5971306     702.0924     72.27486      1.240     3.20     3.947453     20.39093     99.84747        10     1.000     0.663 -54.81   0
       199    903.5370    554.8244 300.2740876 +22.8024247     1620.556     72.25645      1.535     3.79     4.139002     20.39093     152.4778        22     1.236     1.050 -33.86   0
       200    423.7197    552.8124 300.1252721 +22.6580643     393.4668     72.25645      1.595     4.17     3.920772     20.39093     47.46011         8     0.937     0.670  71.28   0
       201    783.9877    551.8156 300.2377946 +22.7657490     829.3895     72.21961      1.344     2.77     4.054451     20.39093     113.0854        14     0.940     0.901 -51.98   0
       202    600.1525    546.8911 300.1821201 +22.7092498     201037.8     72.27486      1.328     2.40     4.898881     20.39093     28220.98       193     1.414     1.360 -11.49   0
       203    286.1562    546.7420 300.0844488 +22.6150741     3501.019     72.29327      1.398     2.51     3.787747     20.39093     495.1324        28     1.209     1.054  62.34   0
       204    853.2529    547.9469 300.2606429 +22.7853867     368.2104     72.31168      1.428     2.55      3.90575     20.39093     40.91171         5     0.760     0.485  30.47   0
       205    368.6630    546.7950 300.1100957 +22.6398297     276.9419     72.23804      1.485     3.75     3.784728     20.39093     26.98695         5     1.020     0.397  -4.51   0
       206    852.1826    543.2994 300.2618189 +22.7837306     503.4326     72.18276      1.316     2.93     3.883463     20.39093     52.78477         7     0.805     0.597 -19.47   0
       207    870.5433    541.7287 300.2680536 +22.7887788     319.1443     72.29327      1.471     3.49     3.882943     20.39093     37.09663         5     0.768     0.457  71.27   0
       208    335.0553    529.4608 300.1052707 +22.6247768     584.0196     72.34846      1.628     3.56     3.895546     20.39093     60.43888        10     0.959     0.826  32.75   0
       209    940.3634    527.4608 300.2944609 +22.8055892     370.4722     72.29327      1.417     3.95     4.179731     20.39093     35.87501         6     0.927     0.481  89.15   0
       210    490.8115    527.1602 300.1544850 +22.6708115     2765.769     72.25645      1.348     2.46     4.582145     20.39093     338.9665        22     1.029     0.958  40.83   0
       211    902.2263    523.6771 300.2837962 +22.7930802     448.9326     72.27486      1.655     3.41     4.008019     20.39093     48.78239         8     0.938     0.628   3.86   0
       212    647.2423    524.4625 300.2040715 +22.7169191     413.2582     72.27486      1.729     3.43     4.394711     20.39093     39.74279         5     0.816     0.594 -49.39   0
       213    721.6744    522.8895 300.2277711 +22.7387693     207.2724     72.44036      1.287     2.35     4.099283     20.39093     47.14286         5     0.750     0.407  68.41   0
       214    808.0370    516.1002 300.2568914 +22.7626908     477.6618     72.27486      1.249     2.98     3.939358     20.39093     61.16676         9     0.902     0.679   6.94   0
       215    887.7542    513.3738 300.2826299 +22.7857845     1874.241     72.29327      1.414     2.54     3.920721     20.39093     228.4827        22     1.052     1.031  28.56   0
       216     17.9926    511.9263 300.0124058 +22.5246480     749.5756     72.21961      1.508     3.43     3.874703     20.39093     85.70758        11     1.081     0.754 -61.71   0
       217    759.0015    511.0849 300.2432369 +22.7465605     2565.909     72.20119      1.330     2.36     4.027743     20.39093     361.6605        24     1.059     0.989  34.75   0
       218    118.4543    511.1743 300.0438639 +22.5545696     299.1664     72.31168      1.272     4.22     3.947788     20.39093     32.17882         5     0.891     0.571 -42.94   0
       219   1002.0573    504.2779 300.3212348 +22.8173991     1027.203     72.33007      2.095     4.41     4.390056     20.39093     71.55836        17     1.343     0.931  68.41   2
       220    664.1365    507.8125 300.2147417 +22.7171983     473.8492     72.23804      1.338     3.93     4.202214     20.39093     50.13322         8     0.928     0.695  16.62   0
       221    546.0960    506.9613 300.1782561 +22.6815809     642.9373     72.25645      1.297     2.41     4.640802     20.39093      98.6199        10     0.850     0.718  78.26   0
       222   1016.3090    504.9976 300.3254474 +22.8218732     1266.301     72.20119      1.503     3.39     4.463305     20.39093     130.0866        18     1.102     1.051  21.23   0
       223    888.0665    503.5675 300.2859121 +22.7830595     2195.706     72.27486      1.513     3.08     3.899586     20.39093     269.5787        25     1.410     0.924  75.16   0
       224    641.1875    501.6961 300.2095794 +22.7085649     605.0723     72.18276      1.176     2.39     4.360621     20.39093     84.64768         8     0.766     0.675 -45.85   2
       225    641.5834    497.7394 300.2109877 +22.7075469     383.9084     72.23804      1.466     3.46      4.33706     20.39093     32.95773         5     0.744     0.464  73.48   3
       226    479.7767    500.4279 300.1597319 +22.6598273      371.786     72.27486      1.365     3.30     4.446058     20.39093     46.64084         8     0.907     0.613  63.77   0
       227    427.1890    501.3680 300.1430597 +22.6443338      206.253     72.27486      1.199     3.03     4.104779     20.39093     49.43757         6     0.703     0.658 -83.69   0
       228    926.1917    498.5917 300.2994173 +22.7930470     4359.005     72.12744      1.392     2.54     3.957682     20.39093     584.5538        31     1.171     1.101  82.68   0
       229    664.5000    495.2206 300.2189442 +22.7136898     290.2921     72.21961      1.187     2.95     4.170051     20.39093     41.23586         5     0.732     0.437 -65.53   0
       230    586.7818    494.5669 300.1949500 +22.6902140     335.0249     72.25645      1.262     2.32       4.5486     20.39093     61.23016         6     0.808     0.473 -47.75   0
       231   1018.1185    489.3242 300.3311022 +22.8179088     644.4576     72.38524      1.280     2.80     4.514742     20.39093     89.62363        10     0.855     0.747 -77.41  16
       232    158.1899    488.7776 300.0634864 +22.5600612       1140.2     72.27486      1.682     3.78     3.959252     20.39093     131.5673        19     1.215     1.012 -52.71   0
       233    819.0569    482.6646 300.2711851 +22.7563831     364.2795     72.33007      1.510     3.33     3.849898     20.39093     48.32675         6     0.931     0.504  76.96   0
       234    178.2424    480.6315 300.0723647 +22.5637374     215.5935     72.31168      1.411     4.33     3.944594     20.39093     33.23952         5     1.114     0.479  -3.32   0
       235    151.0661    478.6988 300.0645448 +22.5550323      414.182     72.36685      1.404     3.54     3.949262     20.39093     52.48166         6     1.003     0.492  48.83   0
       236   1014.4426    478.0728 300.3336093 +22.8135733     351.5624     72.25645      1.612     5.30      4.48597     20.39093     52.63665         8     1.025     0.773  89.54   0
       237    758.5264    473.0966 300.2554255 +22.7355023     437.8146     72.40362      1.132     2.38     3.969752     20.39093     69.64328         8     0.745     0.701   8.26   0
       238    367.3343    471.7632 300.1340490 +22.6178904     257.2247     72.27486      1.404     4.32     4.341325     20.39093     32.65384         7     0.955     0.557 -30.91   0
       239    647.2470    470.6980 300.2215331 +22.7014754     235.6894     72.31168      1.308     1.81     4.190946     20.39093     54.18526         5     0.694     0.425 -18.51   0
       240    699.6710    469.0928 300.2383860 +22.7167206      800.888     72.40362      1.282     2.33      4.03895     20.39093     120.0982        11     0.872     0.716   1.26   0
       241     58.8252    463.4772 300.0408225 +22.5229975     415.1109     72.29327      1.963     4.55     4.089765     20.39093     38.26192         7     1.395     0.421 -34.25   0
       242   1014.0001    461.8232 300.3387480 +22.8087687     525.4279     72.20119      1.294     3.21     4.388907     20.39093     72.56062        10     0.935     0.727  59.85   0
       243    760.5070    461.4017 300.2598403 +22.7327349     1021.623     72.18276      1.296     2.39     3.944693     20.39093     114.8641        14     0.977     0.753  46.77   0
       244    917.7011    457.7037 300.3100473 +22.7787508     880.1719     72.45872      1.263     2.39     3.920211     20.39093     157.0293        15     0.987     0.856  20.00   0
       245    875.9644    455.3957 300.2977818 +22.7655890     309.3558     72.29327      1.771     4.19     3.894147     20.39093     24.55081         5     0.799     0.627 -84.94   0
       246    901.9423    453.8707 300.3063775 +22.7729300     651.9921     72.29327      1.481     3.12     3.919029     20.39093     93.97063        13     1.046     0.863  36.81   0
       247    882.4509    454.2866 300.3001645 +22.7672127     259.3027     72.27486      1.056     2.69     3.901326     20.39093     46.33018         5     0.719     0.433  64.77   0
       248    646.2179    451.8096 300.2273456 +22.6957404     3345.869     72.21961      1.289     2.24     4.100345     20.39093     481.0457        26     1.069     1.001  51.48   0
       249   1006.5179    450.8844 300.3399656 +22.8033834     526.4249     72.40362      1.635     3.46     4.291835     20.39093     61.53495         8     1.004     0.661  54.42   0
       250    122.4421    443.3013 300.0671410 +22.5362892     325.6769     72.25645      1.442     3.27     4.053256     20.39093     50.03841         7     0.900     0.558  26.58   0
       251    486.1007    439.0454 300.1816315 +22.6440944     295.3829     72.29327      1.167     3.39      4.31415     20.39093     43.76619         6     0.738     0.576  31.79   0
       252    929.6672    430.4931 300.3226143 +22.7745113     552.9207     72.42199      1.317     4.33      4.03141     20.39093     75.91728        13     1.263     0.844  83.73   0
       253   1015.9243    429.8256 300.3497379 +22.8001442     860.7703     72.29327      1.308     2.46     4.198671     20.39093     129.7785        11     0.889     0.753 -73.95   0
       254    665.9413    428.0112 300.2412163 +22.6948118     366.4892     72.21961      1.432     3.75     3.881344     20.39093     38.86556         5     0.997     0.405  26.94   0
       255    552.4810    426.3480 300.2064196 +22.6603395     350.6524     72.31168      1.087     2.44      4.18369     20.39093     70.65907         7     0.861     0.492 -82.72   0
       256    756.8253    425.8511 300.2702356 +22.7214156     1152.433     72.29327      1.290     2.26     3.901487     20.39093     167.8102        14     0.918     0.857  27.50   0
       257    260.9998    423.8613 300.1165265 +22.5722583     688.9775     72.21961      1.339     2.16     3.934749     20.39093     101.3829        10     0.807     0.731 -84.05   0
       258    323.1587    419.6534 300.1372248 +22.5896855     3739.176     72.27486      1.312     2.40     4.184494     20.39093      501.697        27     1.079     1.029  83.31   0
       259    270.3596    414.3894 300.1225119 +22.5723453     7660.033     72.27486      1.377     2.48      3.95785     20.39093     983.2324        35     1.154     1.090  70.39   0
       260    648.4669    413.7572 300.2404004 +22.6854812     359.5082     72.25645      1.549     2.56     3.923052     20.39093     40.12404         5     0.701     0.468 -70.74   0
       261    411.1515    408.6177 300.1681833 +22.6128926     4899.895     72.31168      1.283     2.30     4.301524     20.39093     702.4335        30     1.087     1.020  78.59   0
       262    655.4089    405.3466 300.2452932 +22.6851442     18521.89     72.27486      1.250     2.24     3.916501     20.39093     2495.111        57     1.225     1.146  78.92   0
       263    672.8289    405.4286 300.2506932 +22.6903862     837.5147     72.23804      1.828     5.47      3.83055     20.39093     71.10821        14     1.496     0.753 -37.91   0
       264    502.5528    406.7677 300.1972316 +22.6397537     357.4836     72.31168      1.206     2.32     4.237925     20.39093     44.06586         5     0.683     0.478  73.64   0
       265    275.5517    392.3629 300.1312765 +22.5675781     327.5192     72.29327      1.089     2.41     4.127256     20.39093     69.21943         7     0.760     0.646  -9.12   0
       266    989.0582    387.8946 300.3549691 +22.7800441     837.0869     72.34846      1.568     3.08     3.950902     20.39093      97.1973        14     1.067     0.845 -22.67   0
       267    210.0478    385.3893 300.1131715 +22.5459373     1972.198     72.29327      1.393     2.82     4.125236     20.39093     224.6606        20     1.055     0.973  62.02   0
       268   1009.6967    375.4142 300.3654590 +22.7826332     1239.663     72.18276      1.353     2.29     3.842818     20.39093     161.6107        18     1.028     0.953 -71.15   0
       269    596.0424    374.8017 300.2367173 +22.6585826     6845.149     72.27486      1.290     2.18     4.212838     20.39093     1097.396        32     1.116     1.006  59.33   0
       270    310.7522    374.3345 300.1480761 +22.5729539     609.5453     72.29327      1.349     2.86     4.315136     20.39093     100.8634        14     1.048     0.845   4.32   0
       271    855.9580    366.9348 300.3202623 +22.7341685     341.6523     72.25645      1.632     2.43     4.024084     20.39093     53.74658         7     0.844     0.505 -39.76   0
       272    168.4114    367.1535 300.1061463 +22.5282185      424.617     72.29327      1.120     3.94     3.987725     20.39093     73.49115         8     1.098     0.542  45.65   0
       273    709.7260    365.1581 300.2752607 +22.6898656     473.0689     72.25645      1.343     3.32      3.99834     20.39093     73.19653        10     0.972     0.720 -39.62   0
       274     15.8456    365.0944 300.0594053 +22.4818755      1324.97     72.29327      1.510     3.40     4.805996     20.39093     142.4755        18     1.147     0.999  24.65   0
       275    800.2184    363.9778 300.3038455 +22.7166276     1165.741     72.27486      1.405     2.62     4.005025     20.39093     149.0808        18     1.053     0.962  77.14   0
       276    502.6463    361.0392 300.2121036 +22.6266459     6097.053     72.33007      1.286     2.36     4.245737     20.39093     918.9883        30     1.103     0.984  57.87   0
       277    894.6937    355.7089 300.3359841 +22.7425389     1440.181     72.44036      1.381     2.27     4.005965     20.39093     205.6265        18     1.019     0.907  34.97   0
       278    991.9658    355.9275 300.3662525 +22.7717216     718.3346     72.27486      1.492     3.16      3.77287     20.39093     83.77022        12     0.994     0.842  16.92   0
       279    487.3983    349.7471 300.2110219 +22.6188331     391.2397     72.23804      1.061     2.38     4.274848     20.39093     83.80013        10     0.864     0.730  13.52   0
       280    569.9850    347.9084 300.2373312 +22.6430490     383.9688     72.20119      1.189     1.78     4.232884     20.39093     92.14923         8     0.732     0.620  36.05   0
       281    847.7968    346.8347 300.3242416 +22.7259462     276.1187     72.27486      1.261     2.75     4.078491     20.39093     45.99059         5     0.720     0.681 -50.41   0
       282     13.9052    346.3821 300.0648751 +22.4759237     990.4308     72.20119      1.456     3.74     4.793387     20.39093     118.0192        16     1.236     0.881  41.45   0
       283    867.3470    343.1642 300.3315284 +22.7307444      526.501     72.29327      1.227     2.86     4.090177     20.39093     72.49284        11     0.936     0.773   7.09   0
       284    149.6034    342.5116 300.1082971 +22.5155054     316.0071     72.18276      1.641     3.73      4.13572     20.39093      38.0091         6     0.896     0.719  66.94   0
       285    390.2212    340.2948 300.1838461 +22.5869973     2451.074     72.18276      1.269     2.36     4.384992     20.39093     288.2249        21     1.002     0.969  81.55   0
       286    108.6699    337.6595 300.0971496 +22.5018389     960.6458     72.31168      1.449     2.92     4.534435     20.39093     122.3062        14     1.045     0.803  45.73   0
       287    737.8486    335.4934 300.2936517 +22.6897621     264.5656     72.31168      1.150     1.98     4.152456     20.39093     54.28377         5     0.690     0.472  19.15   0
       288    359.5620    329.7021 300.1777445 +22.5747666     29667.07     72.27486      1.352     2.29     4.447772     20.39093     4524.458        69     1.279     1.171  69.84   0
       289    894.3190    327.2880 300.3450913 +22.7342548     1382.085     72.40362      1.291     2.41     4.092782     20.39093     192.9662        17     1.008     0.888 -55.19   0
       290    849.6926    324.9693 300.3319289 +22.7202274     367.5594     72.21961      1.087     3.87     4.168103     20.39093     39.00187         6     1.019     0.422 -78.35   0
       291     55.8317    317.5308 300.0872624 +22.4802170       4927.2     72.25645      1.580     3.03     4.711802     20.39093     533.8624        35     1.290     1.215  44.28   0
       292    233.7871    316.2308 300.1429965 +22.5331987     518.7941     72.27486      1.479     3.70     4.496315     20.39093      47.6595        11     0.914     0.854  22.61   0
       293    809.2752    316.1324 300.3221966 +22.7055852     546.8624     72.34846      1.309     2.99     4.213501     20.39093     63.61754         8     0.820     0.696  72.28   0
       294    458.0768    315.0970 300.2131397 +22.6000933     547.9357     72.40361      1.313     2.74     4.312944     20.39093     75.40239         9     0.810     0.716 -33.05   0
       295    770.0146    309.4640 300.3121231 +22.6919122     1901.163     72.23804      1.316     2.33     4.269825     20.39093     301.3085        18     0.990     0.934  56.09   0
       296    578.2905    304.1447 300.2541195 +22.6329621     212.8158     72.33007      1.100     2.86     4.339939     20.39093     48.65265         6     0.765     0.630  68.75   0
       297    985.0572    302.5883 300.3814079 +22.7543135     578.7147     72.23804      1.256     2.62       4.0344     20.39093       81.035        11     0.906     0.732  75.70   0
       298    431.7520    294.0567 300.2117737 +22.5861611     2184.841     72.31168      1.411     2.87     4.350677     20.39093     252.1313        21     1.239     0.911  65.91   0
       299    644.5233    292.6640 300.2784733 +22.6495016     370.8453     72.34846      1.396     3.97     4.365735     20.39093     55.82261         6     0.997     0.452 -56.22   0
       300    863.5140    287.7978 300.3483004 +22.7136774     307.3941     72.20119      1.235     3.25     4.311193     20.39093     53.94957         7     0.930     0.826  68.93   0
       301    870.8431    287.0976 300.3508129 +22.7156702     489.6528     72.27486      1.137     2.09     4.294055     20.39093      109.707        10     0.828     0.682  -3.69   0
       302      1.7639    286.4258 300.0805575 +22.4550757     585.2951     58.65788      1.842     4.84     4.729228     20.39093     44.83723         8     1.237     0.537  72.30  24
       303    753.0085    284.9088 300.3147908 +22.6797609     480.9734     72.20119      1.332     2.26     4.387875     20.39093     68.16167         9     0.743     0.735 -29.29   0
       304      4.7996    284.6055 300.0820910 +22.4554636     770.3222     71.03073      1.858     2.94     4.734271     20.39093     76.17004         9     1.020     0.592  53.40  16
       305    720.9746    283.2343 300.3053515 +22.6696871     363.1549     72.29327      1.988     4.45     4.401479     20.39093     31.76352         6     1.123     0.502  80.91   0
       306    507.6858    273.5785 300.2420533 +22.6030281     1209.566     72.21961      1.220     2.10     4.324394     20.39093      173.068        15     0.897     0.866 -88.94   0
       307    592.6479    271.1516 300.2692957 +22.6277814     369.0033     72.31168      1.202     2.40     4.375819     20.39093     59.14079         7     0.825     0.595 -18.39   0
       308    890.7712    267.0100 300.3635445 +22.7158593     292.7015     72.27486      1.107     1.98      4.29636     20.39093     62.15259         7     0.697     0.634  85.92   0
       309    752.5690    265.3377 300.3210037 +22.6740029     2216.754     72.29327      1.219     2.10     4.391332     20.39093     337.1595        23     1.085     0.980 -77.91   0
       310   1013.8768    259.7742 300.4042911 +22.7506239     3177.473     72.29327      1.479     2.76     4.305853     20.39093     402.0807        29     1.230     1.102 -70.61   0
       311    560.3989    258.5038 300.2633564 +22.6144870     88.78645     72.16432      0.985     3.80     4.373996     20.39093     36.40992         6     0.962     0.430  17.27   0
       312    460.7245    249.3726 300.2352879 +22.5820042     685.7249     72.25645      1.390     2.70     4.296574     20.39093     99.28793        10     0.916     0.724  -5.42   0
       313    135.7050    243.2680 300.1361762 +22.4828468     1388.798     72.42199      1.623     2.89      4.72244     20.39093     166.3815        23     1.228     1.163  45.88   0
       314    166.1819    243.2058 300.1456697 +22.4919650     634.4633     72.23804      1.601     4.14     4.579998     20.39093     75.41112        15     1.273     0.922  22.01   0
       315    873.1462    237.3297 300.3676777 +22.7020480     428.0005     72.31168      1.454     3.70     4.388509     20.39093     61.55304         8     1.067     0.554  24.04   0
       316    219.8603    235.5090 300.1648545 +22.5058447     274.3935     72.36685      1.136     3.35     4.605349     20.39093     63.99396         9     1.063     0.627  11.93   0
       317   1014.9826    232.9760 300.4133301 +22.7432459     432.8002     72.27486      1.368     3.69     4.492645     20.39093     64.38461         5     0.806     0.486  19.23   0
       318     75.3304    232.3161 300.1209659 +22.4616025      323.657     72.38524      1.303     3.84     5.003083     20.39093     35.07339         5     0.876     0.482  44.73   0
       319      5.0743    230.5398 300.0997146 +22.4400278     286.7137     71.77609      1.558     5.17     5.008237     20.39093     38.61392         6     0.933     0.809  73.21  16
       320    895.7254    229.4746 300.3772668 +22.7065474     366.5945     72.36685      1.428     2.40     4.419842     20.39093     48.21673         5     0.701     0.465  20.38   0
       321    824.2407    226.7247 300.3558703 +22.6843585     698.8809     72.25645      1.352     3.39     4.385282     20.39093      112.529        12     1.044     0.839 -85.96   0
       322    414.3168    226.3532 300.2283119 +22.5614868      345.467     72.25645      0.997     2.47     4.289807     20.39093     60.38579         6     0.667     0.626 -84.19   0
       323    914.8827    220.0635 300.3862940 +22.7095746     186.0572     72.38524      1.034     3.06     4.456866     20.39093     40.22298         5     0.622     0.599  15.64   0
       324    922.3702    215.9097 300.3899766 +22.7106208     2103.955     72.23804      1.365     2.58     4.467116     20.39093      269.873        20     1.017     0.969 -13.33   0
       325    340.9286    213.0727 300.2097854 +22.5356827     2197.902     72.33007      1.335     2.32     4.592148     20.39093      316.656        22     1.037     1.007 -13.88   0
       326    418.7282    208.2507 300.2355564 +22.5576074     1144.929     72.27486      1.517     2.83     4.401208     20.39093     126.1097        16     1.006     0.951 -54.65   0
       327    170.7592    208.5025 300.1583487 +22.4833721      441.568     72.27486      1.578     4.23     4.722458     20.39093     42.22256         7     0.956     0.535  59.07   0
       328    820.6887    207.2329 300.3610856 +22.6776901     686.7288     72.23804      1.440     3.10     4.402122     20.39093      90.6976        13     1.119     0.769  71.94   0
       329    927.8954    204.2639 300.3954774 +22.7089247     357.3446     72.36685      1.311     4.77     4.483857     20.39093     49.23401         8     1.087     0.728  -5.77   0
       330     17.4820    201.5781 300.1129622 +22.4354344     467.3432     72.23804      2.703     5.13     5.008136     20.39093     34.32019         7     0.912     0.816  35.56   0
       331    235.5544    200.4179 300.1811161 +22.5004705     767.8801     72.31168      1.293     2.65     4.678333     20.39093     96.99217        13     0.943     0.831 -53.37   0
       332    353.9220    199.5588 300.2182107 +22.5356937     286.8738     72.25645      1.279     3.19     4.641902     20.39093     38.91363         6     0.781     0.490  -7.81   0
       333    773.2650    197.2533 300.3495401 +22.6606236     1797.617     72.31168      1.336     2.41     4.423202     20.39093     216.4946        21     1.076     0.946  51.33   0
       334    838.3186    197.1211 300.3698617 +22.6800595      566.579     72.40362      1.135     2.32     4.427007     20.39093     101.5464         8     0.922     0.522 -33.38   0
       335    205.3608    196.2445 300.1730815 +22.4902228      217.951     72.34846      1.306     2.55     4.739515     20.39093     37.52185         5     0.720     0.446  71.56   0
       336    257.0849    193.3957 300.1900888 +22.5049060     526.5944     72.20119      1.400     3.07     4.679658     20.39093     68.49856        10     0.913     0.741 -88.49   0
       337    546.5142    190.0052 300.2812521 +22.5906423     289.3162     72.20119      1.306     2.88     4.435773     20.39093     47.35408         5     0.758     0.597   0.67   0
       338    777.4462    188.5202 300.3536758 +22.6593641     749.2748     72.27486      1.281     2.63     4.427698     20.39093     115.6176        13     0.955     0.802  86.07   0
       339    697.9238    188.0562 300.3290446 +22.6354227     1213.726     72.29327      1.248     2.30     4.433442     20.39093     191.6555        14     0.989     0.769  81.46   0
       340    518.9642    184.3751 300.2745002 +22.5807726     400.0719     72.29327      1.456     3.57     4.434378     20.39093     46.72678         7     1.014     0.490 -47.06   0
       341    893.4456    179.3571 300.3928121 +22.6914503     1366.348     72.31168      1.371     2.46     4.494002     20.39093     198.9729        20     1.248     0.901  51.60   0
       342    624.1940    179.6212 300.3088113 +22.6109208     1049.551     72.25645      1.277     2.21     4.446486     20.39093     161.9013        13     0.986     0.750  23.03   0
       343    905.3216    178.8257 300.3966880 +22.6948517     872.5358     72.27486      1.452     2.57     4.498967     20.39093      116.879        13     1.052     0.729 -16.29   0
       344   1022.4153    168.8804 300.4364394 +22.7270296     1052.732     62.92578      1.390     2.76     4.684973     20.39093     143.2694        15     0.997     0.978 -38.78  24
       345     45.5607    165.7799 300.1332946 +22.4335752       560.77     72.31168      1.636     2.86     5.001645     20.39093      64.8427        10     1.008     0.690 -12.64   0
       346    256.2790    161.8586 300.2000655 +22.4956059     785.0209     72.31168      1.403     2.56     4.774357     20.39093     103.5606        12     0.912     0.801  57.37   0
       347    179.8281    161.0350 300.1765617 +22.4724585     128.8203     72.29327      1.323     2.88     4.994404     20.39093     40.69252         5     0.884     0.612 -60.75   0
       348    118.0470    156.5698 300.1588058 +22.4526592     2083.166     72.29327      1.453     2.78     5.073867     20.39093     243.1822        26     1.210     1.077  48.48   0
       349    941.3290    153.7403 300.4160536 +22.6984111     749.6644     72.31168      1.297     2.56     4.593389     20.39093     114.1814        12     0.933     0.816  31.02   0
       350     67.7762    152.7674 300.1444166 +22.4364987      564.952     72.27486      1.779     5.31     5.029863     20.39093     50.46305        11     1.220     0.928 -64.74   0
       351    275.4800    149.9478 300.2098992 +22.4979381     5698.032     72.29327      1.426     2.46     4.771926     20.39093     747.8701        36     1.238     1.101  73.13   0
       352    257.2201    151.0540 300.2038617 +22.4927843     293.7085     72.25645      1.224     2.81     4.783105     20.39093     50.34367         6     0.863     0.468  53.48   0
       353     59.6954    144.3487 300.1446354 +22.4316591     1144.754     72.34846      1.434     2.83     5.015811     20.39093     156.6514        16     1.070     0.929  -6.84   0
       354    258.6828    140.7169 300.2076684 +22.4902532     690.9233     72.40362      1.518     2.83     4.788196     20.39093      110.029        13     1.033     0.985   4.44   0
       355    919.6431    131.6046 300.4164680 +22.6855538     3578.904     72.29327      1.456     2.31     4.705791     20.39093     506.8814        27     1.165     1.075  77.51   0
       356   1022.9882    130.4214 300.4490901 +22.7161350     2325.108     60.02559      1.265     2.55     4.858193     20.39093      400.583        19     1.149     0.838  79.44  24
       357    469.0541    126.8739 300.2776094 +22.5492981     607.7752     72.29327      1.297     2.85     4.490462     20.39093     98.54749        12     0.975     0.809 -14.69   0
       358    222.2283    127.5310 300.2006078 +22.4755419     318.7483     72.25645      1.221     2.66     4.828201     20.39093     40.34742         5     0.715     0.445 -23.70   0
       359    583.3211    124.8565 300.3138404 +22.5829384     331.2885     72.31168      1.352     4.36     4.712239     20.39093     45.55528         8     0.951     0.710  -4.88   0
       360    393.1343    118.3753 300.2567371 +22.5241155     686.4528     72.25645      1.397     3.10     4.481878     20.39093     83.77451        11     0.988     0.770 -54.88   3
       361    397.0359    117.4627 300.2582471 +22.5250220     574.7963     72.27486      1.587     2.62     4.466887     20.39093     52.39274         7     0.800     0.595  25.29   3
       362    159.0278    115.5832 300.1848327 +22.4531708     719.2067     72.27486      1.691     3.94     5.015685     20.39093     77.41019        12     1.095     0.864  -6.80   0
       363    520.4141    114.0840 300.2977449 +22.5610039     1662.868     72.23804      1.235     2.29     4.666426     20.39093     237.6201        18     0.969     0.918  64.95   0
       364    448.2824    114.7545 300.2750735 +22.5395936      419.545     72.23804      1.200     2.08     4.448156     20.39093     58.80232         6     0.678     0.559 -44.97   0
       365    582.1069    113.0761 300.3172818 +22.5791882     377.8107     72.42199      1.338     2.69     4.786941     20.39093      68.1888         6     0.907     0.538  12.73   0
       366    344.1549    109.8616 300.2442581 +22.5069968     254.7909     72.31168      1.294     3.98     4.557451     20.39093     38.13339         6     0.768     0.591 -61.43   0
       367    264.0789    109.5058 300.2194659 +22.4829040     411.2703     72.40362      1.339     2.50     4.804937     20.39093     70.38611         7     0.855     0.602  54.63   0
       368    737.2350    107.9194 300.3672808 +22.6241486     341.6453     72.21961      1.193     3.68     4.644155     20.39093     41.19054         5     0.819     0.475 -31.74   0
       369    808.6608    103.6719 300.3909201 +22.6443056     376.3487     72.31168      1.133     3.15     4.640227     20.39093      68.4754         7     0.976     0.505  42.57   0
       370    294.4516     93.8435 300.2339899 +22.4875041     6082.388     72.31168      1.434     2.52     4.772411     20.39093      819.921        33     1.213     1.078  57.18   0
       371    801.2441     94.5695 300.3915593 +22.6394678     328.1678     72.31168      1.214     2.42     4.650775     20.39093     50.65559         5     0.680     0.487 -10.75   0
       372    145.4249     93.3134 300.1878240 +22.4426980     721.3439     72.21961      1.329     3.66     4.999939     20.39093     78.87741        12     1.107     0.771  37.77   0
       373      4.8335     93.5540 300.1440587 +22.4006289     248.3056      71.2925      1.503     4.11     4.949017     20.39093      32.5389         5     1.214     0.397 -15.11  16
       374    266.0012     87.6708 300.2271424 +22.4772070     303.1836     72.20119      1.521     4.55      4.83255     20.39093     48.34399         7     0.879     0.669  66.83   0
       375    309.8857     85.3132 300.2415560 +22.4896771      423.773     72.40362      1.326     3.75     4.688271     20.39093     59.87153         9     0.910     0.697  12.94   0
       376    936.7748     83.7915 300.4373137 +22.6769239     131.7513     72.27486      1.092     3.90     4.958624     20.39093     27.73326         5     0.945     0.461  44.60   0
       377     56.5936     84.4194 300.1631006 +22.4135207     369.4579     72.23804      1.205     3.04     4.989488     20.39093      49.8273         5     0.727     0.452 -20.35   0
       378    540.5401     79.2398 300.3153077 +22.5570144     6210.515     72.27486      1.307     2.36     4.863271     20.39093     831.2511        34     1.195     1.027  82.71   0
       379    425.9595     79.1523 300.2796680 +22.5226756       621.35     72.33007      1.266     2.62      4.35099     20.39093     106.9788        12     0.978     0.743 -89.23   0
       380    793.0265     69.3297 300.3971802 +22.6297485     908.9648     72.27486      1.696     4.55     4.721251     20.39093     122.3091        17     1.469     0.872 -72.79   0
       381    734.7019     70.2201 300.3787134 +22.6125483     375.7086     72.20119      1.492     4.23     4.730369     20.39093     41.88394         8     0.952     0.677  27.27   0
       382    885.4203     67.8693 300.4264595 +22.6569772     500.5586     72.25645      1.361     2.55     4.902221     20.39093     69.94617         8     0.941     0.613  48.34   0
       383    193.6078     64.8158 300.2120402 +22.4489506       265.17     72.20119      1.298     5.37     4.996627     20.39093      34.0262         6     1.262     0.646  46.63   0
       384    233.3161     63.0244 300.2249673 +22.4603335     413.3172     72.23804      1.294     3.50     4.990587     20.39093      62.8683        11     1.099     0.793 -49.54   0
       385    668.9625     59.3176 300.3617639 +22.5897350     6329.387     72.23804      1.327     2.30     4.810369     20.39093     980.3375        35     1.189     1.055  80.34   0
       386    591.8718     61.6830 300.3369840 +22.5673364     451.9455     72.40362      1.356     2.61     4.891714     20.39093     67.90343         7     0.811     0.603  71.94   0
       387    443.7516     58.3473 300.2919494 +22.5220245     1420.431     72.31168      1.253     2.23     4.450004     20.39093     217.0739        16     0.965     0.869  64.48   0
       388    710.0961     56.8795 300.3753703 +22.6013465     824.4085     72.38524      1.303     2.13     4.781671     20.39093     129.9012        13     0.984     0.745  84.91   0
       389    779.7724     55.2091 300.3976262 +22.6217201     434.1692     72.27486      1.782     5.61     4.759296     20.39093     39.29245         9     1.492     0.595 -88.43   0
       390    725.9584     53.0847 300.3815433 +22.6050029     514.0502     72.23804      1.270     2.14     4.778736     20.39093     85.36752         8     0.769     0.620  39.02   0
       391    192.5969     50.7776 300.2162761 +22.4446149     717.5612     72.21961      1.489     2.63     5.033005     20.39093     109.0069        13     0.927     0.875 -41.46   0
       392     39.8267     51.0833 300.1686964 +22.3989220     427.0651     72.25645      1.586     3.09     4.942342     20.39093     50.14132         6     0.792     0.638 -59.73   0
       393    995.7142     50.0198 300.4666476 +22.6848390     588.9592     72.20119      1.592     4.54     4.996436     20.39093     66.79424        12     1.153     0.995  72.46   0
       394    764.3843     48.4230 300.3950297 +22.6151628     526.4438     72.27486      1.336     3.28     4.778349     20.39093     60.44398         9     1.028     0.609  86.52   0
       395    353.8499     45.2819 300.2682087 +22.4913434     433.4134     72.29327      1.518     3.51     4.447999     20.39093     65.95786         8     1.022     0.908  54.42   0
       396    728.4390     43.2613 300.3855005 +22.6029201     1039.781     72.27486      1.750     4.05     4.802033     20.39093     112.6418        18     1.666     0.777  43.86   0
       397    713.2063     44.2168 300.3804440 +22.5986356     2752.632     72.21961      1.328     2.41     4.815847     20.39093     387.9002        24     1.091     0.995  87.49   0
       398      6.7229     38.3854 300.1625273 +22.3853537     741.5298     72.29327      1.350     2.62     4.894536     20.39093     115.2688        11     0.968     0.751  17.78  16
       399    799.5314     35.8270 300.4100678 +22.6220579      1483.68     72.25645      1.383     2.76     4.807365     20.39093     184.6364        18     1.089     0.893  77.03   0
       400    737.6726     29.1141 300.3929634 +22.6016145      760.092     72.40362      1.322     2.31     4.824634     20.39093     109.0557        12     0.895     0.788 -69.25   0
       401    543.2933     28.2521 300.3326922 +22.5431801     1108.632     72.34846      1.309     2.85     4.877214     20.39093     158.6877        14     0.985     0.853 -33.62   0
       402    115.8183     28.3148 300.1996897 +22.4151563     492.1965     72.21961      1.362     3.49     4.985301     20.39093     60.63369        10     0.907     0.767  15.09   0
       403    447.0385     26.3825 300.3033329 +22.5138209     782.9152     72.29327      1.256     2.75     4.525286     20.39093     111.3794        11     0.936     0.736 -77.58   0
       404    829.0932     25.1381 300.4227479 +22.6278291     498.9567     72.36685      1.343     3.32     4.889852     20.39093     62.40234         9     1.029     0.599  75.45   0
       405    220.9180   1004.1101 299.9154714 +22.7266927     2051.467     72.38524      9.006    37.37     73.88072     20.39093     71.82667       160     8.772     4.419  73.18  19
       406    786.4761     17.0522 300.4120834 +22.6127502     573.2571     72.27486      1.324     2.60     4.856541     20.39093     85.83523        12     0.974     0.796 -21.94   0
       407     11.3140     16.8105 300.1709455 +22.3805340     455.2184     72.21961      1.502     3.45     4.877929     20.39093     49.42442         5     0.975     0.353  44.08   0
       408    544.4057     13.8923 300.3376925 +22.5393845     271.0204     72.18276      1.240     3.17     4.882195     20.39093     51.47482         6     0.977     0.458 -32.40   0
       409    641.1359     13.6501 300.3678970 +22.5682724     304.3444     72.33007      1.280     2.21     4.935906     20.39093      59.4435         5     0.730     0.419 -22.38   0
       410    220.0000   1011.5961 299.9127500 +22.7285631     1190.596     72.03515      6.573     9.81     80.07104     20.39093     77.11763        24     3.813     0.704 -88.76  19
       411    216.1933   1009.6295 299.9122066 +22.7268565     1991.015     72.27486      3.224    10.02     78.52346     20.39093     67.65105        37     1.879     1.628  47.47   3
       412    403.0000   1011.4495 299.9697110 +22.7834503     550.1299     72.25645      2.132     4.69     3.247122     20.39093     49.15522         7     1.354     0.461 -75.77   2
       413    400.5021   1011.5693 299.9688949 +22.7827350     496.8795     72.21961      2.714     4.69     3.282639     20.39093     36.12476         6     1.255     0.497 -62.47   2
       414    215.3588    991.6536 299.9177966 +22.7214529     1504.401     72.27486      4.190    13.02     64.59525     20.39093     54.46552        36     2.429     1.941 -71.09   2
