#   1 NUMBER                 Running object number                                     
#   2 X_IMAGE                Object position along x                                    [pixel]
#   3 Y_IMAGE                Object position along y                                    [pixel]
#   4 ALPHA_J2000            Right ascension of barycenter (J2000)                      [deg]
#   5 DELTA_J2000            Declination of barycenter (J2000)                          [deg]
#   6 FLUX_APER              Flux vector within fixed circular aperture(s)              [count]
#   7 FLUXERR_APER           RMS error vector for aperture flux(es)                     [count]
#   8 FLUX_RADIUS            Fraction-of-light radii                                    [pixel]
#   9 FWHM_IMAGE             FWHM assuming a gaussian core                              [pixel]
#  10 BACKGROUND             Background at centroid position                            [count]
#  11 THRESHOLD              Detection threshold above background                       [count]
#  12 FLUX_MAX               Peak flux above background                                 [count]
#  13 ISOAREA_IMAGE          Isophotal area above Analysis threshold                    [pixel**2]
#  14 A_IMAGE                Profile RMS along major axis                               [pixel]
#  15 B_IMAGE                Profile RMS along minor axis                               [pixel]
#  16 THETA_IMAGE            Position angle (CCW/x)                                     [deg]
#  17 FLAGS                  Extraction flags                                          
         1    405.8260     14.3843 300.3408704 +22.5071194     2221.597     72.50856      1.371     2.24     4.388704     20.45166     317.6998        22     1.140     0.926  39.49   0
         2     53.0254     12.2923 300.2318650 +22.4008114      1483.01     72.43468      1.451     2.91     5.189046     20.45166     152.9859        21     1.092     1.011  59.07   0
         3    536.8125      8.9102 300.3834107 +22.5447740     485.6479     72.43468      1.256     2.51     4.168442     20.45166     79.15482         8     0.855     0.589 -88.98   0
         4    195.6655      6.0353 300.2782190 +22.4417614     332.3328      72.4901      1.365     3.82     3.901321     20.45166     50.05106         8     1.127     0.472 -89.89  16
         5    674.6437      5.4682 300.4274476 +22.5850506     241.1591     72.47163      1.217     3.77     4.900995     20.45166     34.84332         5     1.005     0.406 -73.99  16
         6    880.4520      2.7148 300.4924771 +22.6458551     347.3945     63.72522      1.330     4.00     4.111328     20.45166     53.87279         7     0.986     0.469  79.00  24
         7    698.3401   1012.9768 300.1075157 +22.8814908     176.1011     72.47163      1.259     4.73     2.859959     20.45166     28.02245         5     1.031     0.615 -18.18   0
         8    611.7712   1023.6694 300.0770759 +22.8585871     1254.268      56.3932      1.285     4.00     2.919558     20.45166     213.0028        14     1.516     0.524   6.95  24
         9    189.1938   1015.6452 299.9482397 +22.7294484     1401.764     72.50856      6.918     9.41     12.03007     20.45166     46.87281        18     2.030     1.218  33.99  27
        10    174.5241   1023.1226 299.9412468 +22.7271858     810.6973     59.55613      4.739     6.53     15.63829     20.45166     38.95624        12     1.561     0.768  20.77  26
        11    124.8248   1022.6726 299.9259508 +22.7121319     1009.371     61.82764      6.034     8.01     26.08294     20.45166     49.36613        18     1.673     1.071 -16.59  27
        12    120.1563   1020.8864 299.9250819 +22.7102181     1053.714     69.37666      5.947     7.71     26.66392     20.45166     49.42531        13     1.581     1.052 -59.12  19
        13    113.8836   1019.2860 299.9236541 +22.7078757     973.1877      72.6008      4.584     6.01       27.406     20.45166     37.04961         6     2.409     0.422  27.74  19
        14    106.2134   1021.8649 299.9204318 +22.7063110     990.6017     65.56791      6.528     9.75     29.75997     20.45166     37.32557        15     1.924     1.378  49.29  27
        15    102.4680   1023.2403 299.9188205 +22.7055802     568.2079     58.78705      2.555     3.80     30.84078     20.45166     34.62037         5     0.889     0.494 -89.54  27
        16     58.1048   1013.3250 299.9082679 +22.6894155     1561.553     72.63766     12.450    21.32     39.07196     20.45166     45.46096        69     6.298     2.005 -48.11  19
        17     70.6045   1010.7880 299.9129761 +22.6924431     2224.583     72.34224     13.880    22.52     35.06577     20.45166     59.46843       118     4.242     3.321 -23.20  19
        18     40.3808   1013.4333 299.9027279 +22.6841230     3088.743      72.4901     10.823    52.15     43.64218     20.45166     74.42308       519     9.746     7.743 -74.55  27
        19     39.3560    994.0363 299.9087233 +22.6782589     2727.754     72.54547      8.178    27.06     35.27124     20.45166     70.47937       188     6.387     3.184 -12.20  19
        20    345.0264   1011.2227 299.9981248 +22.7749666     6565.995     72.47163      1.659     3.34     3.293482     20.45166     576.7891        40     1.367     1.283   4.54   0
        21    192.9394   1022.8069 299.9470724 +22.7326252     1609.516     61.10907      5.859    11.10     11.78422     20.45166     56.45739        37     2.355     1.471  -7.19  27
        22     34.5348    983.2878 299.9107245 +22.6737319     2393.742     72.58237      4.912    17.29     30.91404     20.45166     57.30128        81     3.073     2.704 -33.63   3
        23     39.9845    980.3380 299.9133770 +22.6745236     2488.179     72.45316      4.839    14.29     28.76655     20.45166     65.70607        73     3.139     2.380  14.21   3
        24    657.3064   1000.1656 300.0989067 +22.8655067     370.4654     72.45316      2.255     5.43     2.984406     20.45166     35.28194         7     1.664     0.499 -43.47   0
        25    377.7894    997.7209 300.0127096 +22.7809307     380.0317     72.47163      1.240     3.37     3.498902     20.45166      56.3724         8     1.156     0.514  48.56   0
        26    891.3834    989.4891 300.1753155 +22.9326459     2039.662     72.41621      1.730     4.05     3.361648     20.45166     143.5169        25     1.294     1.149 -44.30   0
        27     81.3285   1022.7106 299.9124261 +22.6990794     1400.681     61.74099     15.294    21.83     36.44347     20.45166     53.87613        91     6.992     1.892   5.87  27
        28    541.5094    987.4088 300.0670073 +22.8271068      390.775     72.41621      1.408     2.88     3.080623     20.45166     54.64464         7     0.945     0.666 -85.09   0
        29    389.9827    985.9833 300.0203230 +22.7812256     287.2454     72.45316      1.086     2.06      3.57359     20.45166      46.9385         5     0.612     0.559 -89.74   0
        30    573.7160    984.0536 300.0781248 +22.8358077     414.3373     72.52702      1.355     4.02      3.10114     20.45166     40.22163         7     0.769     0.641 -67.62   0
        31    680.4797    978.5975 300.1131446 +22.8662712     841.0096     72.39772      2.093     7.23     3.089496     20.45166     62.58711        18     1.701     0.921  59.95   0
        32     57.2771    976.0035 299.9201585 +22.6784755     1235.318     72.39772      4.902     7.51     24.63621     20.45166     52.77448        16     1.677     0.942 -23.92   3
        33    714.7865    972.9052 300.1256832 +22.8749284     1055.069     72.41621      1.687     4.87     3.107652     20.45166     80.34937        20     1.404     1.039  -0.40   0
        34   1007.3278    977.5853 300.2153442 +22.9639889     362.8093      72.4901      1.488     5.01     3.929727     20.45166     43.71296         9     1.031     0.689  34.08   0
        35    737.1696    966.4869 300.1347450 +22.8798002     11341.83     72.47163      1.578     3.16     3.143228     20.45166     917.0518        47     1.307     1.262 -54.91   0
        36    782.6125    966.3264 300.1489555 +22.8933827     503.3198     72.50856      1.592     3.80     3.121263     20.45166     49.28144         9     0.891     0.784 -61.60   0
        37    928.0751    965.5400 300.1945508 +22.9367731     419.8403     72.54547      1.431     4.70     3.863504     20.45166     35.01959         7     1.159     0.540 -61.00   0
        38    870.4438    960.5340 300.1782136 +22.9180576      308.406     72.47163      1.469     3.37     3.197765     20.45166     40.61938         6     0.879     0.703  -9.72   0
        39     48.7299    958.4813 299.9232065 +22.6708888     286.1581      72.6008      1.460     5.93     18.12969     20.45166     41.23269        11     1.178     0.944 -56.34   0
        40    442.3944    954.9697 300.0467221 +22.7880633     447.3103      72.4901      1.304     3.69     3.347068     20.45166     51.15836         7     0.770     0.641 -76.98   0
        41    788.6442    954.0636 300.1548264 +22.8916727     475.5011      72.4901      1.517     3.96     3.189173     20.45166     45.90752         8     0.909     0.767  -7.35   0
        42    745.8723    948.6160 300.1432730 +22.8772827     1492.527      72.4901      1.640     3.43     3.252123     20.45166     134.3471        23     1.261     1.158  -3.33   0
        43    928.9475    947.5138 300.2006903 +22.9318604     396.2162     72.52702      1.337     4.49     3.843142     20.45166     36.46181         8     0.816     0.717  80.90   0
        44    597.9658    945.3517 300.0982713 +22.8319825     556.0712     72.52702      2.053     5.76     3.280609     20.45166     47.42894         8     1.122     0.833 -88.08   0
        45    783.6214    942.1013 300.1571548 +22.8867339     839.8432     72.41621      1.572     4.35     3.264457     20.45166     60.00033        16     1.232     0.942 -11.19   0
        46    892.3256    938.9024 300.1920756 +22.9184096     370.0175     72.63766      1.846     5.61     3.502778     20.45166     46.92914         6     1.465     0.606   5.18   0
        47    832.2260    933.3483 300.1751501 +22.8987963     587.4179     72.50856      1.591     3.89     3.300296     20.45166     58.92816        11     0.996     0.831 -48.46   0
        48    683.3400    932.2040 300.1291357 +22.8538196     672.1257     72.45316      1.371     3.28     3.382668     20.45166     75.64481        13     1.065     0.815   9.44   0
        49    287.3436    932.4536 300.0058259 +22.7350729     310.8054     72.54547      1.511     3.95     4.023936     20.45166     25.81827         6     0.942     0.475  89.21   0
        50    694.5355    929.4684 300.1335130 +22.8563925     630.7333     72.54547      1.629     4.54      3.40016     20.45166     57.53384        14     1.303     0.826 -50.68   0
        51    396.1204    928.9096 300.0408076 +22.7667045     4124.649     72.61923      1.516     3.00     3.360442     20.45166     442.1263        30     1.244     1.124  -7.22   0
        52    174.6256    917.5777 299.9756296 +22.6969716     430.0722     72.45316      1.854     3.11     4.472115     20.45166     48.48668         7     0.921     0.737 -42.37   0
        53    439.5468    917.1237 300.0581527 +22.7763565     395.2908     72.52702      1.470     4.79     3.267294     20.45166     47.86504         7     0.916     0.708  47.59   0
        54     57.3122    915.8017 299.9397605 +22.6612382     472.1184     72.41621      2.077     5.78     5.659724     20.45166     32.45135         8     1.487     0.634  34.80   0
        55    122.0409    914.4056 299.9603224 +22.6802745     897.6508     72.50856      1.967     3.93     5.405513     20.45166     73.91783        13     1.199     0.758  57.60   0
        56     98.6703    911.6130 299.9539704 +22.6724570     1571.379      72.4901      1.764     3.70     5.857657     20.45166     140.3361        24     1.322     1.153   5.20   0
        57     30.6075    912.5205 299.9325342 +22.6522787     528.1872     72.41621      2.064     5.13     5.361477     20.45166     43.90184         8     1.301     0.750  71.73   2
        58    970.3452    900.4606 300.2289127 +22.9307621     2178.626     72.54547      1.694     3.57     3.849278     20.45166     154.8203        26     1.287     1.200  45.39   0
        59    630.3836    898.7801 300.1235209 +22.8283469     343.0274     72.47163      1.556     4.70     3.470542     20.45166     38.63458         6     0.999     0.628  14.94   2
        60    924.5578    898.8572 300.2151570 +22.9165772     2178.817     72.47163      1.627     3.29     3.792969     20.45166     180.5788        26     1.223     1.166  23.18   0
        61    130.7134    893.2905 299.9698872 +22.6768274      482.952     72.65609      1.524     2.88     4.780291     20.45166     62.25481         9     0.896     0.794 -58.19   0
        62    707.9709    892.7625 300.1496429 +22.8498899     533.5048     72.50856      1.289     3.35     3.511178     20.45166     74.20464        10     0.902     0.744  73.53   0
        63    576.2294    886.8293 300.1105486 +22.8086747      4794.08     72.45316      1.420     2.69     3.412181     20.45166     513.2884        34     1.188     1.140  45.26   0
        64     65.8463    887.6202 299.9515806 +22.6557260     395.1429     72.54547      1.489     4.61     5.012436     20.45166     36.12201         6     1.082     0.557  61.43   0
        65    378.5081    883.9836 300.0499479 +22.7485374     507.0858     72.41621      1.223     2.49      3.48044     20.45166     89.54666        10     0.937     0.656 -24.57   0
        66    126.3294    880.9547 299.9725385 +22.6719759      1370.59     72.47163      1.644     3.05     4.592509     20.45166     163.7456        20     1.132     1.075  70.77   0
        67    596.8896    879.3810 300.1194043 +22.8127352     835.4646     72.41621      1.593     2.86     3.490301     20.45166     94.62793        13     0.988     0.850  28.62   0
        68    395.2502    878.4471 300.0569570 +22.7519737     362.9355     72.52702      1.135     2.59     3.464984     20.45166     52.02154         5     0.721     0.429  25.67   0
        69    145.8221    877.8361 299.9796097 +22.6769343     462.5252     72.50856      1.578     4.50     4.330175     20.45166     48.93916        10     1.116     0.641 -39.32   0
        70    727.1602    870.6068 300.1628295 +22.8492866     132.9943     72.52702      1.362     4.27      3.60486     20.45166     26.45141         5     0.955     0.545  48.38   0
        71    513.5488    870.0629 300.0964932 +22.7850624     250.7489     72.54547      1.366     3.77     3.433512     20.45166     32.42775         6     0.821     0.497  89.03   0
        72    752.1744    866.5987 300.1719266 +22.8556370     4341.432     72.43468      1.463     2.63      3.66453     20.45166     452.3701        31     1.156     1.111  44.88   0
        73    969.1145    866.6263 300.2395386 +22.9206790     1113.873     72.47163      1.476     3.03      3.81131     20.45166     101.3208        17     1.112     0.875  21.32   0
        74   1007.5009    866.8552 300.2514360 +22.9322491      437.501     72.58237      1.290     2.70     3.813496     20.45166      54.5247         5     0.951     0.342  -5.29   0
        75    483.4578    863.5151 300.0892589 +22.7741570     276.9846      72.6008      1.281     4.61     3.464808     20.45166     28.21936         7     0.901     0.670 -70.64   0
        76    161.0365    861.1502 299.9897658 +22.6767194     498.7636     72.50856      1.532     3.83     4.056436     20.45166     51.39092         6     0.741     0.568  26.67   0
        77    469.3762    859.2526 300.0862638 +22.7687098     504.9029     72.50856      1.186     2.77     3.470917     20.45166     84.22862        10     0.879     0.789  89.98   0
        78    115.7463    857.2025 299.9769777 +22.6619914     979.4673     72.45316      1.552     3.35     4.277552     20.45166     107.3773        18     1.180     0.951  56.77   0
        79    530.6582    852.2901 300.1076006 +22.7850968     521.6111     72.56392      1.495     4.86      3.52509     20.45166     52.71025        11     1.057     0.859 -54.23   0
        80    265.2009    849.2938 300.0259990 +22.7045870     52987.74     72.36074      1.517     2.77     4.035608     20.45166     5562.518       101     1.418     1.374  29.81   0
        81    523.1290    848.3101 300.1065520 +22.7816966     1642.591     72.65609      1.391     2.64     3.534561     20.45166     193.9251        18     1.029     0.928  24.49   0
        82    936.0989    847.4601 300.2354793 +22.9052807     935.5845     72.58237      1.539     3.41     3.845574     20.45166     88.21909        18     1.166     0.961 -16.04   0
        83    193.5620    847.3538 300.0043618 +22.6825284     403.4616     72.54547      1.150     4.66     4.046144     20.45166     50.54947         9     1.245     0.624  48.36   0
        84    551.9427    844.2029 300.1168568 +22.7891614     950.3401     72.45316      1.377     2.65     3.574442     20.45166     112.7415        13     0.961     0.793 -85.45   0
        85    563.2333    842.6317 300.1208826 +22.7920973     629.8947     72.50856      1.339     2.66     3.563548     20.45166     81.55141        10     0.818     0.804  35.83   0
        86    882.8985    839.6483 300.2214345 +22.8870919     329.7974     72.52702      1.412     3.14     3.871767     20.45166     40.73839         5     0.754     0.428  19.87   0
        87    668.5296    838.4446 300.1550309 +22.8224756     583.7687     72.45316      1.485     4.07     3.486393     20.45166      58.6674        10     1.094     0.711 -87.30   0
        88    705.9983    829.3063 300.1696741 +22.8310888     813.4969     72.39772      1.492     3.54     3.485033     20.45166     79.75507        11     0.945     0.785 -61.59   0
        89    314.9370    826.5182 300.0488720 +22.7129829      31148.5      72.6008      1.444     2.61     3.981298     20.45166     3321.344        71     1.288     1.273  -4.74   0
        90    329.2446    827.0894 300.0531355 +22.7174401     1840.357     72.50856      1.353     2.73     3.946914     20.45166     226.5078        20     1.070     0.956 -32.86   0
        91    204.7052    825.1769 300.0150390 +22.6795159     227.1514     72.37923      1.351     3.40     4.049277     20.45166     37.75338         5     0.947     0.352  46.35   0
        92    838.0209    822.1920 300.2131248 +22.8686282     2804.499     72.45316      1.412     2.69     3.939328     20.45166     284.4573        25     1.118     1.058 -54.27   0
        93    326.1370    820.8847 300.0541873 +22.7147284     684.2642      72.6008      1.563     3.12     3.986833     20.45166     69.82454        11     0.939     0.792  64.80   0
        94    595.8443    818.1755 300.1389908 +22.7948616     890.6846     72.50856      1.326     2.63     3.500268     20.45166      131.839        15     0.987     0.875  45.43   0
        95    197.3832    818.3169 300.0149946 +22.6753517     688.3515     72.45316      1.394     3.32     4.052287     20.45166     90.31065        15     1.036     0.966  36.15   0
        96    442.9156    813.3126 300.0929750 +22.7475948     788.0465     72.61923      1.414     2.85     3.528411     20.45166      116.807        14     1.003     0.888  20.38   0
        97      2.5688    813.9731 299.9558852 +22.6156224      394.022      62.9858      1.255     2.48     4.478645     20.45166     76.00867         7     0.867     0.577 -30.26  24
        98    432.1042    818.3877 300.0879605 +22.7458070     552.0615     72.41621      1.540     3.75     3.522162     20.45166     53.79001        10     0.971     0.757  40.14   0
        99    844.4214    809.7825 300.2191565 +22.8669843     470.3255     72.47163      1.426     3.38       3.9715     20.45166     64.84817        10     1.060     0.701  46.61   0
       100    345.6036    809.7561 300.0638610 +22.7173784     379.6091     72.50856      1.161     3.31     4.043255     20.45166     44.65718         6     0.726     0.629 -45.19   0
       101    301.3300    808.7011 300.0504363 +22.7037908     315.5402     72.61923      1.448     2.93     4.052631     20.45166     43.37492         6     0.836     0.498  44.25   0
       102    388.7199    807.9960 300.0778441 +22.7298104     374.3946     72.39772      1.374     4.09     3.764606     20.45166     55.24273        10     1.003     0.744  49.69   0
       103     30.6599    807.7507 299.9666327 +22.6222736     651.2231     72.54547      2.345     6.56     4.404695     20.45166     50.15751        10     1.180     1.024  26.41   0
       104    597.6304    806.9960 300.1431834 +22.7921896     299.0004     72.45316      1.426     2.95     3.481359     20.45166     42.40777         5     0.770     0.559   0.51   0
       105    821.5353    804.8904 300.2136150 +22.8587196     257.2758      72.6008      1.076     2.64     4.017181     20.45166     73.61272         8     0.919     0.584  46.80   0
       106    195.1835    802.6237 300.0194152 +22.6701925     414.6904      72.4901      1.315     3.03     4.055975     20.45166     66.29442         9     0.845     0.734  57.47   0
       107    518.4761    793.0687 300.1230732 +22.7644536     453.3111     72.58237      1.456     3.17     3.755118     20.45166     61.47208         9     0.922     0.659 -23.62   0
       108    488.0871    791.2464 300.1142082 +22.7548156     586.7429     72.45316      1.393     2.99     3.659168     20.45166     60.01166        11     0.943     0.749  73.50   0
       109    509.9294    788.6521 300.1218496 +22.7606229     1289.983     72.47163      1.254     2.40     3.750986     20.45166     191.7312        19     1.133     0.874  54.71   0
       110    904.3816    787.5049 300.2450942 +22.8785599     4413.863     72.41621      1.388     2.53     4.003719     20.45166     473.8952        31     1.127     1.105  75.26   0
       111    429.1704    788.3367 300.0968220 +22.7363073     281.6418     72.50856      1.446     3.84     3.612751     20.45166     60.50433         8     1.021     0.738 -52.06   0
       112    637.7307    784.1743 300.1630927 +22.7976663     276.9035      72.4901      1.626     4.35     3.524554     20.45166      31.3303         5     0.746     0.723 -79.49   0
       113    591.2544    783.5603 300.1488209 +22.7835529     326.6706      72.4901      1.321     3.03     3.612601     20.45166     55.44588         6     0.866     0.567 -64.99   0
       114    892.8747    778.9026 300.2443047 +22.8726412     1592.403     72.63766      1.328     2.71     4.036376     20.45166     191.9848        18     1.024     0.936  29.44   0
       115    255.9289    773.2046 300.0478651 +22.6799882     910.9214     72.43468      1.310     2.83     4.044287     20.45166     128.3415        15     1.034     0.943  59.79   0
       116    122.3549    774.1608 300.0060405 +22.6401734     277.5493     72.56392      1.459     3.09     4.134945     20.45166     36.05158         5     0.749     0.434  70.81   0
       117    719.2673    770.2778 300.1930078 +22.8181255     2616.435      72.6008      1.445     2.37     3.608942     20.45166     333.0457        31     1.424     1.079  -5.97   0
       118    924.0181    768.9016 300.2572673 +22.8791029     1540.325     72.41621      1.365     2.52     4.034585     20.45166      208.142        20     1.031     1.018  16.01   0
       119    937.8475    758.7995 300.2648649 +22.8803461     308.0288      72.4901      1.166     3.56     3.999515     20.45166     44.16885         5     1.022     0.358 -88.09   0
       120    104.6331    756.6859 300.0062171 +22.6298446     738.5658     72.45316      1.612     3.35     4.177596     20.45166     87.55152        14     1.162     0.839 -86.56   0
       121    801.4055    756.2220 300.2231712 +22.8387137     494.7578     72.47163      1.408     3.08     4.180568     20.45166     76.10777        10     0.987     0.821  14.65   0
       122    837.6508    747.1506 300.2374173 +22.8469731     146392.9     72.52702      1.346     2.37     4.193395     20.45166     18146.97       162     1.387     1.356  86.91   0
       123    600.0641    750.7823 300.1622239 +22.7767888     419.9319     72.47163      1.189     3.64     3.745705     20.45166     63.13206         6     0.888     0.571  58.50   0
       124    984.5964    748.8173 300.2826899 +22.8914874     1199.225     72.41621      1.355     2.60     3.746558     20.45166     148.4174        17     1.010     0.929 -33.75   0
       125    690.0833    747.5448 300.1913102 +22.8028509     772.8641     72.54547      1.190     2.22     3.819918     20.45166     113.8917        12     0.864     0.781  82.97   0
       126    228.1174    741.5662 300.0495077 +22.6625704     1319.767     72.45316      0.643     0.88     4.030836     20.45166     647.4693         5     0.499     0.363 -79.89   0
       127    870.3088    740.1022 300.2498890 +22.8547371     474.9376     72.67451      1.235     2.50     4.203804     20.45166     61.19095         8     0.773     0.673 -47.69   0
       128    523.9305    736.0938 300.1432998 +22.7497427     1638.909     72.61923      1.239     2.30     4.075966     20.45166     276.2527        19     0.988     0.914  45.54   0
       129    705.1602    733.3416 300.2006252 +22.8032940      9344.92      72.4901      1.277     2.26     3.884057     20.45166     1245.517        40     1.123     1.073 -58.54   0
       130    206.5502    728.5876 300.0470240 +22.6523769     4935.937     72.54547      1.446     2.59     4.027785     20.45166     633.0141        34     1.193     1.116   7.04   0
       131    288.7509    726.6233 300.0732168 +22.6764790     1167.763      72.4901      1.363     2.24     4.028689     20.45166     179.2227        16     1.029     0.887  73.31   0
       132    164.0382    724.1690 300.0352483 +22.6383522     464.5443      72.4901      1.473     4.38     4.040524     20.45166     51.53326         7     1.011     0.787  57.17   0
       133    497.0573    722.1634 300.1394655 +22.7376862     641.0179      72.4901      1.141     2.19      4.16474     20.45166     122.0003        12     0.907     0.776  21.46   0
       134    488.5569    714.2093 300.1394064 +22.7328546     3238.499     72.50856      1.255     2.17     4.203229     20.45166     456.5855        24     1.092     0.911  33.80   0
       135    478.8935    707.9105 300.1384471 +22.7281491     1238.011     72.65609      1.217     2.21     4.223425     20.45166     217.0316        16     1.008     0.817 -73.36   0
       136    407.3987    707.2380 300.1164206 +22.7065125     190.8696     72.50856      1.323     3.58     3.980152     20.45166     37.86393         5     0.848     0.580 -38.76   0
       137    872.5942    705.3824 300.2618915 +22.8454519     471.6681     72.45316      1.343     2.80     4.217513     20.45166     65.70922         6     0.685     0.653  77.87   0
       138    389.4824    705.1432 300.1115282 +22.7005374     267.3488     72.54547      1.120     2.26     4.008107     20.45166     48.42752         5     0.709     0.471  71.60   0
       139    156.1703    702.9488 300.0397024 +22.6299067     640.5809     72.50856      1.467     4.02     4.114017     20.45166     76.26953        12     1.049     0.903  20.61   0
       140    142.2249    704.1605 300.0349750 +22.6260690      535.614     72.52702      1.282     2.96     4.132318     20.45166     78.11687        10     0.903     0.736  11.36   0
       141    182.1681    699.6802 300.0488444 +22.6367712      408.158      72.4901      1.234     3.20     4.087416     20.45166     57.67816         8     0.819     0.705  -1.10   0
       142    925.8231    698.7632 300.2806387 +22.8595011     560.8384     72.50856      1.391     3.51     4.173512     20.45166     64.59863         9     0.952     0.656 -55.64   0
       143    403.5918    697.8145 300.1183001 +22.7026672     1921.646     72.39772      1.244     2.16     4.016904     20.45166     300.6676        18     0.953     0.904  17.39   0
       144    213.2101    699.4243 300.0585757 +22.6460128     393.0539      72.4901      1.252     4.16      4.04571     20.45166     48.30544         6     0.742     0.666 -56.31   0
       145    502.8568    698.1805 300.1490682 +22.7325439     421.3134      72.4901      1.190     2.67     4.258655     20.45166     66.51127         8     0.796     0.659  40.12   0
       146     57.5363    692.8326 300.0123471 +22.5974037     19630.43      72.4901      1.560     2.78     4.156862     20.45166     2351.376        64     1.375     1.317  26.05   0
       147    979.3679    695.1363 300.2985153 +22.8745022     831.1201      72.4901      1.291     2.58     4.005251     20.45166     116.3356        13     1.011     0.813  55.97   0
       148    523.8387    692.1846 300.1575480 +22.7371155     419.5247     72.50856      1.316     3.43     4.275948     20.45166     66.32858         8     0.939     0.666  58.45   0
       149    488.4012    692.9175 300.1462804 +22.7266986     999.3025     72.37923      1.341     2.41     4.285086     20.45166     153.1191        14     0.986     0.820  13.61   0
       150    405.9338    690.3662 300.1214502 +22.7012329     268.9922      72.4901      1.517     4.01     4.046107     20.45166     36.51675         5     0.950     0.581 -76.33   0
       151    241.9709    684.7012 300.0723024 +22.6504203     250.4399     72.41621      1.329     2.32     4.028784     20.45166     50.24454         7     0.698     0.661  24.29   0
       152    906.5085    679.0778 300.2810169 +22.8480599     1034.703     72.63766      1.297     2.36     4.217645     20.45166     137.4263        14     0.935     0.825  40.55   0
       153    328.2562    679.8834 300.1006972 +22.6749251     166.5228     72.58237      1.183     3.42     4.040808     20.45166     28.05462         5     0.991     0.342  45.65   0
       154      3.5796    677.0645 300.0007149 +22.5766879     1527.159     67.41979      1.837     4.81     3.955858     20.45166      117.718        23     1.511     1.003 -88.80  16
       155    773.3679    677.1710 300.2401388 +22.8076135     471.9445      72.4901      1.291     2.79     4.153404     20.45166     69.94338         8     0.821     0.685 -45.64   0
       156     70.2164    677.3073 300.0213327 +22.5967588     276.7418     72.41621      1.263     4.22     4.129403     20.45166     43.51875         6     0.806     0.630  84.63   0
       157    451.7128    673.5358 300.1411647 +22.7101344       411.31     72.58237      1.225     2.52     4.250076     20.45166     64.43141         8     0.765     0.721 -88.88   0
       158    244.1747    672.8538 300.0768388 +22.6476837     289.9638     72.50856      1.410     4.84     4.028811     20.45166     35.29241         7     0.852     0.779  49.69   0
       159    846.8653    671.8511 300.2647734 +22.8281124     851.0326     72.52702      1.362     2.39     4.255208     20.45166     115.4845         9     0.892     0.606 -57.34   0
       160    311.0239    671.7635 300.0979779 +22.6674265     253.4575     72.50856      1.632     2.27     4.040198     20.45166     43.75943         5     0.752     0.472  59.44   0
       161    600.4196    670.1834 300.1885408 +22.7537637     197.9729     72.47163      1.168     2.94     4.299395     20.45166     32.52583         5     0.722     0.460  71.32   0
       162    591.0936    670.3555 300.1855811 +22.7510170     276.7826     72.50856      1.370     3.82     4.314101     20.45166     38.43355         6     1.018     0.411 -15.30   0
       163    408.7788    665.9377 300.1302766 +22.6950777     726.7527     72.45316      1.299     2.75     4.139163     20.45166     129.1928        12     1.028     0.804  14.07   0
       164    556.9675    664.3333 300.1769146 +22.7390566     425.6962      72.4901      1.319     3.30     4.421442     20.45166     62.03842         7     0.727     0.687 -40.89   0
       165    603.6230    662.9022 300.1919052 +22.7526343     481.0113     72.41621      1.254     2.40     4.343519     20.45166     66.59358         8     0.778     0.655  -8.77   0
       166    574.3468    662.8347 300.1828121 +22.7438373     513.3729     72.50856      1.159     2.11     4.398766     20.45166     83.61163         7     0.667     0.650  16.28   0
       167    452.9142    661.7394 300.1453732 +22.7071099     1077.994      72.6008      1.375     2.47     4.308711     20.45166      123.677        11     0.990     0.667  59.97   0
       168    886.5870    657.1836 300.2819240 +22.8358025     3365.771     72.43468      1.310     2.32     4.261728     20.45166     426.4141        25     1.051     1.014  44.37   0
       169    418.4569    657.2515 300.1361111 +22.6954882     1737.038     72.54547      1.233     2.23     4.182786     20.45166     215.1317        17     0.980     0.830  31.01   0
       170    984.5169    655.2040 300.3131038 +22.8645738     674.9754     72.41621      1.294     2.58     4.219983     20.45166     80.26402        10     0.857     0.715 -14.95   0
       171    783.5137    654.2709 300.2507449 +22.8040788     247.6349      72.6008      1.029     2.63     4.250742     20.45166     51.33187         5     0.712     0.462  69.50   0
       172    393.8816    652.3809 300.1300490 +22.6867200     327.6449     72.47163      1.181     3.40     4.176087     20.45166     35.68157         5     0.756     0.443 -18.87   0
       173    447.7509    648.0948 300.1482019 +22.7016462     290.9558     72.54547      1.462     3.24     4.350573     20.45166     45.48076         7     0.844     0.599  57.43   0
       174    281.7874    644.0209 300.0979047 +22.6506980     9100.211     72.47163      1.318     2.20     4.151747     20.45166     1397.699        41     1.139     1.107  -8.52   0
       175    404.2495    641.0267 300.1369650 +22.6865719     9084.299     72.50856      1.268     2.11     4.224483     20.45166     1384.491        43     1.135     1.102 -50.39   0
       176    169.2234    638.3160 300.0647684 +22.6152902     362.7794     72.45316      1.642     4.26     4.124924     20.45166     34.24689         6     0.759     0.682 -86.79   0
       177     47.7930    637.0175 300.0274631 +22.5784781     212.1396     72.43468      1.328     3.32      4.23558     20.45166     35.19452         5     0.793     0.496  29.74   0
       178   1008.7377    636.0524 300.3268840 +22.8663272     864.1411     72.54547      1.339     3.37     4.336917     20.45166     99.41566        15     1.184     0.755  11.05   0
       179    815.9090    634.8636 300.2671489 +22.8082138     2074.062     72.58237      1.298     2.07     4.310642     20.45166     322.4321        20     1.034     0.895 -72.58   0
       180    900.5068    632.2313 300.2943749 +22.8328063     12418.15     72.41621      1.267     2.24     4.330352     20.45166     1549.068        43     1.132     1.091 -78.14   0
       181    464.8014    630.6312 300.1591837 +22.7017481     11553.31     72.45316      1.221     2.12     4.513256     20.45166     1811.993        43     1.102     1.058  42.48   0
       182    192.3440    626.2279 300.0758828 +22.6187607     1415.925      72.4901      1.502     3.23     4.080474     20.45166     152.5139        20     1.135     1.024 -86.49   0
       183    634.2659    626.3625 300.2133244 +22.7513318      583.124     72.47163      1.202     2.05     4.549245     20.45166     87.52166         6     0.653     0.605 -85.58   0
       184    350.3752    625.3621 300.1252983 +22.6659193      289.665     72.50857      1.086     3.54     4.260159     20.45166     39.10072         6     0.822     0.553 -46.61   0
       185    439.1902    623.5698 300.1535097 +22.6920415     425.0193      72.4901      1.411     2.63      4.40926     20.45166     71.99986         7     0.908     0.482   8.50   0
       186    396.4194    618.7866 300.1417576 +22.6778423     4452.228     72.45316      1.241     2.15     4.301533     20.45166     660.8243        26     1.047     0.957  58.39   0
       187    739.2092    618.6472 300.2485199 +22.7805716     818.1451     72.50856      1.140     2.41     4.255375     20.45166     126.2254        10     0.882     0.653  56.18   0
       188    374.7471    617.2568 300.1355132 +22.6709036     1316.667     72.54547      1.206     2.37     4.302523     20.45166     214.3407        14     0.955     0.743  32.98   0
       189    129.1688    616.9476 300.0592663 +22.5971437     756.6658     72.50856      1.491     3.42     4.099145     20.45166     96.08488        12     1.135     0.750  13.55   0
       190    816.2746    614.2588 300.2739602 +22.8024059     1597.497     72.54547      1.311     2.48     4.315241     20.45166     201.6241        19     1.033     0.919 -61.58   0
       191     62.9942    613.9974 300.0396663 +22.5764400     248.7302     72.30522      1.086     3.53     4.273085     20.45166     35.22663         5     1.409     0.254  68.07   0
       192    916.5295    613.0971 300.3055899 +22.8321103     323.9199     72.61923      1.412     3.52     4.400079     20.45166      42.7174         5     0.891     0.521 -42.59   0
       193    513.0623    606.3215 300.1821040 +22.7092426     198396.1     72.56392      1.232     2.10     4.831758     20.45166     30585.01       213     1.415     1.377  27.30   0
       194    336.4042    612.6675 300.1250789 +22.6580868     384.4872     72.47163      1.277     3.44     4.313032     20.45166     47.52229         8     0.945     0.587  17.73   0
       195    696.8129    611.0851 300.2377703 +22.7656937     707.1836     72.43468      1.106     2.25     4.451346     20.45166     127.5808         9     0.767     0.701  40.77   0
       196    199.0905    606.4232 300.0844160 +22.6151047     3526.637     72.41621      1.365     2.58     4.082348     20.45166      363.612        28     1.130     1.095 -75.43   0
       197    473.8204    607.0955 300.1696397 +22.6976984     270.1277     72.39772      1.243     3.02     4.681498     20.45166     40.32816         6     0.899     0.584  65.66   0
       198    765.1804    602.3567 300.2619065 +22.7836769     435.0828     72.50856      1.173     2.91     4.324718     20.45166     66.26699         6     0.792     0.576  37.89   0
       199    783.8555    600.4539 300.2683441 +22.7887267     292.3823     72.52702      1.286     4.06     4.318864     20.45166     39.15874         6     1.006     0.469 -59.71   0
       200    543.9906    592.7943 300.1961272 +22.7146327     226.8141     72.34224      1.302     4.94     4.934763     20.45166     37.17647         6     1.031     0.670  -7.15   0
       201    403.6597    586.6434 300.1544561 +22.6707904     2788.925      72.4901      1.334     2.16     4.341207     20.45166     393.2097        25     1.104     0.977  50.50   2
       202    247.9703    588.9202 300.1052982 +22.6247479     441.7285      72.4901      1.261     2.77     4.241237     20.45166     65.22066         7     0.772     0.708 -81.83   0
       203    821.3382    585.2020 300.2849820 +22.7955778     328.3611     72.47163      1.470     4.90      4.32919     20.45166     30.81188         5     1.000     0.748  13.40   0
       204    559.9380    583.6546 300.2040617 +22.7167901     334.9963     72.54547      1.622     4.28     4.905989     20.45166     33.43092         6     0.911     0.574 -87.54   0
       205    815.1756    582.6144 300.2839022 +22.7929881     402.8812     72.50856      1.332     4.08     4.324001     20.45166     52.12725         8     1.110     0.583  47.49   0
       206    634.3753    582.2126 300.2277072 +22.7386896     230.9841      72.4901      1.186     2.58     4.715629     20.45166       51.278         5     0.718     0.449  71.22   0
       207    833.0124    578.0135 300.2909567 +22.7970109     54.66521     72.41621      1.020     3.71     4.345798     20.45166     24.92591         5     0.638     0.620  -0.42   0
       208    720.9534    575.2819 300.2569261 +22.7626480     399.4211     72.47163      1.138     2.23     4.472001     20.45166     65.64932         7     0.698     0.635 -20.93   0
       209    800.7314    572.6653 300.2826339 +22.7858026     1707.104     72.54547      1.200     2.03     4.309816     20.45166     286.6329        19     0.990     0.870 -54.47   0
       210    671.8755    570.3143 300.2432527 +22.7465131     2390.687      72.6008      1.174     2.05     4.579838     20.45166     396.3295        21     0.987     0.877  57.95   0
       211    916.1706    567.8112 300.3201958 +22.8189933     499.2899      72.4901      1.331     2.48     4.468149     20.45166     61.37363         8     0.789     0.644  39.88   0
       212    881.4061    567.0980 300.3095889 +22.8083741     327.2336     72.37923      1.347     2.94      4.42007     20.45166     49.55701         5     0.743     0.430  66.88   0
       213    576.7560    566.9489 300.2147262 +22.7170360     503.2458     72.52702      1.200     1.78     4.899588     20.45166     92.41225         8     0.712     0.633 -44.37   0
       214    458.9915    566.3406 300.1782692 +22.6815556     771.9224     72.45316      1.368     2.68     4.672651     20.45166     93.65408        11     0.939     0.748  -9.85   0
       215    929.2490    564.3539 300.3253972 +22.8219177     1253.352     72.50856      1.295     2.34      4.49217     20.45166     163.0553        16     0.990     0.826 -19.21   0
       216    800.9733    562.8344 300.2859040 +22.7830515     2147.716     72.50856      1.381     2.29     4.309816     20.45166      347.365        25     1.405     0.924  77.00   0
       217    915.0709    563.4032 300.3212853 +22.8173975     706.1003     72.43468      1.220     2.67     4.473796     20.45166     104.5567        10     0.935     0.729   1.58   0
       218    554.3224    560.9256 300.2096994 +22.7085820     696.4436      72.6008      1.564     2.30     4.929714     20.45166     84.39844         9     0.867     0.622  39.00   0
       219    839.1707    557.8601 300.2994252 +22.7930671     4372.643     72.52702      1.265     2.09     4.369456     20.45166     733.2455        29     1.048     1.027  29.05   0
       220    480.3865    557.6281 300.1877581 +22.6854697     161.4335      72.4901      1.036     2.63      4.86099     20.45166     53.47145         5     0.717     0.484 -84.28   0
       221    392.7808    559.7141 300.1598222 +22.6598003     314.5923     72.41621      1.066     2.49     4.341285     20.45166     72.46974         7     0.813     0.557  84.45   0
       222    576.9502    554.9282 300.2186927 +22.7136433     294.6947      72.4901      1.233     4.29     4.920246     20.45166     45.30389         6     1.023     0.515  76.64   0
       223    499.7621    553.8433 300.1950179 +22.6901924     357.4399     72.58237      1.131     2.05     4.897862     20.45166     73.12547         6     0.700     0.542  50.41   0
       224     71.0393    548.4337 300.0634692 +22.5600539     1103.445     72.52702      1.580     3.17     4.276549     20.45166     107.0199        18     1.119     0.965  55.54   0
       225    930.8094    548.1903 300.3311362 +22.8177412     686.8486     72.37923      1.228     2.66     4.515711     20.45166     107.9777        11     0.918     0.714  -4.71   0
       226    870.3414    545.6665 300.3131037 +22.7989026     295.1606     72.52702      1.453     2.97     4.434395     20.45166     43.37797         5     0.965     0.724 -81.06   0
       227    731.9732    542.2213 300.2711020 +22.7564561     349.2759      72.4901      1.218     2.30     4.544252     20.45166     56.62218         7     0.701     0.663 -17.17   0
       228    118.4896    540.2563 300.0808677 +22.5719455     141.6892     72.52702      1.066     2.87      4.27186     20.45166     47.44215         5     0.720     0.470  71.89   0
       229     63.4159    538.4910 300.0643313 +22.5549152     414.5017     72.41621      1.430     3.35     4.335129     20.45166      48.2019         7     0.966     0.768  18.74   0
       230    927.2770    537.3366 300.3335614 +22.8135647     223.0431     72.56392      1.121     1.86     4.519184     20.45166     61.87179         5     0.687     0.436  20.08   0
       231    671.3508    532.0588 300.2555197 +22.7353709     441.7946     72.54547      1.217     3.72     4.583965     20.45166     59.14558         9     0.993     0.673  16.80   0
       232    560.1372    530.1392 300.2215126 +22.7014869     386.7739     72.52702      1.253     3.52     4.934482     20.45166       51.355         7     0.978     0.624  61.28   0
       233    612.5323    528.3056 300.2384215 +22.7166651     668.5485     72.63766      1.101     2.30      4.92476     20.45166     105.9062        12     0.882     0.749  27.14   0
       234   1019.8856    525.9690 300.3661373 +22.8380345     1099.283     71.98985      1.359     2.35     4.556728     20.45166     148.8899        12     0.902     0.832  65.10  16
       235    591.2646    526.5858 300.2323582 +22.7097969      116.234     72.45316      0.906     3.49     4.943632     20.45166     31.90694         5     0.752     0.467 -15.39   0
       236    927.0101    520.7452 300.3388689 +22.8087177      461.088      72.4901      1.209     2.76     4.525313     20.45166     99.37185         9     0.966     0.598  -2.01   0
       237    673.4371    520.4161 300.2599522 +22.7326527     772.7273      72.4901      1.167     2.37     4.555394     20.45166     118.7455        14     0.921     0.860 -74.77   0
       238    830.5563    516.7029 300.3101130 +22.7786636     949.6315     72.50856      1.166     1.97     4.335973     20.45166     164.2239        14     0.935     0.761 -40.79   0
       239    814.7843    512.8394 300.3064526 +22.7728287     617.4774     72.50856      1.169     2.30     4.314072     20.45166     108.1761        10     0.929     0.643  68.48   0
       240    795.1827    513.2220 300.3002195 +22.7670661     206.7144     72.47163      1.170     3.13     4.311014     20.45166     46.35635         6     0.749     0.558  57.69   0
       241    559.0739    511.2562 300.2273164 +22.6957469     3239.032     72.52702      1.231     1.99     4.930115     20.45166     556.0469        22     1.015     0.901  85.99   0
       242    919.4844    509.9737 300.3400220 +22.8033686     509.7843     72.47163      1.202     2.14     4.508133     20.45166     91.80978         8     0.779     0.644  -0.89   0
       243     35.4168    503.3690 300.0670436 +22.5364419     387.3593     72.47163      1.602     4.42     4.469205     20.45166     43.59126         7     1.129     0.492 -88.28   0
       244    564.5300    499.2103 300.2329282 +22.6939238     265.9266     72.47163      1.110     2.34     4.932343     20.45166     43.61266         5     0.701     0.449 -66.08   0
       245    398.8465    498.0993 300.1817269 +22.6439364     464.2907     72.50856      1.213     2.34     4.376502     20.45166     65.76826         8     0.786     0.629  48.16   0
       246    970.4379    490.1094 300.3623647 +22.8129210     1187.646     72.47163      1.192     2.27      4.54661     20.45166     179.0818        14     0.927     0.790 -61.15   0
       247    842.3710    489.9616 300.3224831 +22.7745205      518.353     72.50856      1.225     1.90     4.313611     20.45166     108.8689         9     0.848     0.588  35.55   0
       248    928.8331    488.8813 300.3497893 +22.8001080     992.4587     72.45316      1.248     1.88      4.54444     20.45166     157.9348        12     0.871     0.781  12.54   0
       249    669.6694    485.0594 300.2702648 +22.7213700     1027.329     72.50856      1.162     2.00     4.528193     20.45166     177.3087        13     0.898     0.801  55.91   0
       250    465.6019    485.9370 300.2064480 +22.6604589     454.8795     72.47163      1.116     2.51     4.712107     20.45166     77.38879         7     0.801     0.566  57.28   0
       251    173.6626    483.5734 300.1164259 +22.5722376     700.5471      72.4901      1.395     2.66     4.477069     20.45166     84.29609        12     0.939     0.776  28.91   0
       252    236.0102    479.2571 300.1372075 +22.5896994     3690.492     72.45316      1.316     2.31     4.498151     20.45166     523.8276        29     1.107     1.071   2.82   0
       253    969.0856    477.3680 300.3660820 +22.8088544     4247.467     72.47163      1.276     2.14     4.507157     20.45166     656.5891        28     1.103     0.988 -70.11   0
       254    183.2268    474.0026 300.1225070 +22.5723606     7415.834     72.43468      1.292     2.25      4.48023     20.45166     1006.204        32     1.097     1.020  50.82   0
       255    561.6293    473.2871 300.2404459 +22.6856113     206.9443      72.4901      1.066     2.32     4.902911     20.45166     44.87518         5     0.701     0.451 -71.28   0
       256    324.0188    468.1916 300.1681666 +22.6129165     4769.742     72.45316      1.234     2.17     4.419133     20.45166     763.1636        25     1.049     0.886  56.64   0
       257    948.9709    468.4016 300.3627217 +22.8002539     1727.102     72.45316      1.234     2.25     4.419326     20.45166     287.2668        19     0.987     0.931  88.21   0
       258    568.1766    464.7635 300.2452528 +22.6851262     18004.93     72.50856      1.195     1.91     4.868545     20.45166     3248.919        52     1.174     1.036  63.41   0
       259    585.8015    464.7436 300.2507466 +22.6904026     793.8725     72.41621      1.891     6.32     4.837679     20.45166     69.19907        13     1.782     0.630 -44.10   0
       260    415.3683    466.2611 300.1972087 +22.6397514     333.7475     72.52702      1.309     2.64     4.482772     20.45166     46.99687         5     0.743     0.423  67.61   0
       261    195.2470    463.2236 300.1297439 +22.5728734     407.8706     72.50856      1.492     2.28     4.482351     20.45166     54.19687         6     0.697     0.598 -32.33   0
       262    765.0778    455.2997 300.3096541 +22.7414082     347.0833     72.61923      1.161     1.99     4.285249     20.45166     62.88669         7     0.693     0.612 -19.80   0
       263    812.1491    460.6924 300.3225712 +22.7570585     202.5141     72.54547      0.967     1.95     4.273103     20.45166     59.54928         6     0.676     0.604  64.94   0
       264    901.6451    447.2689 300.3548291 +22.7800077     790.1739     72.47163      1.216     2.28      4.24213     20.45166     109.6785        11     0.870     0.767 -83.60   0
       265    122.8288    445.0672 300.1131350 +22.5459432     2017.074      72.4901      1.356     2.56     4.480224     20.45166     278.7271        21     1.021     0.976  65.40   0
       266    136.1737    440.6014 300.1187319 +22.5486649     207.8538     72.43468      1.156     2.53     4.477911     20.45166      34.3281         5     0.709     0.457 -18.79   0
       267    922.4924    434.3855 300.3655136 +22.7825488     1201.575     72.41621      1.195     2.22     4.114963     20.45166     166.3079        16     0.991     0.806  72.12   0
       268    508.8174    434.2108 300.2366980 +22.6585627     6465.768     72.45316      1.211     2.07     4.892454     20.45166     1028.655        35     1.060     0.998  38.94   0
       269    223.6731    433.7447 300.1481536 +22.5729405     707.1532      72.4901      1.296     3.24     4.478934     20.45166      103.791        13     1.041     0.888  46.74   0
       270     81.5099    426.9937 300.1061666 +22.5283644     472.7493     72.39772      1.278     2.29     4.508201     20.45166     65.45914         8     0.747     0.674  -7.89   0
       271    768.6773    425.8414 300.3203433 +22.7340238     341.1053     72.47163      0.910     1.53     4.265675     20.45166     74.23137         5     0.644     0.442  71.13   0
       272    622.8191    424.4023 300.2753752 +22.6899107     642.3673     72.41621      1.418     2.62     4.341008     20.45166     67.77248         9     0.848     0.660  56.36   0
       273    712.9910    423.2145 300.3038465 +22.7165869     1134.466     72.39772      1.217     1.86     4.317735     20.45166     204.3019        15     1.000     0.766  88.67   0
       274    415.4319    420.5328 300.2120796 +22.6266438     6038.653      72.4901      1.143     2.00     4.764518     20.45166     884.1485        34     1.071     0.999  62.57   0
       275    807.4638    414.7544 300.3360309 +22.7424567     1374.072     72.50856      1.172     2.11     4.233327     20.45166     210.4514        17     1.001     0.804  74.89   0
       276    904.7587    414.9106 300.3663091 +22.7716413     620.8662      72.4901      1.262     2.16     4.057827     20.45166     103.3463         8     0.730     0.668 -40.20   0
       277    400.0479    409.2441 300.2109592 +22.6187915     488.5445     72.50856      1.151     1.76     4.624538     20.45166     93.19557         7     0.664     0.613  76.92   0
       278    481.2885    405.3710 300.2374956 +22.6420311     1433.508     72.47163      0.661     2.78     4.794212     20.45166     1074.032         7     1.022     0.224  53.39   0
       279    760.8406    405.7383 300.3244299 +22.7259007     175.4791     72.47163      1.191     3.86     4.261239     20.45166     40.76201         6     0.932     0.562  63.24   0
       280    780.2764    402.3770 300.3315777 +22.7307569     737.1274     72.50856      1.271     2.02     4.246793     20.45166     105.2601        10     0.818     0.677 -48.29   0
       281    302.9196    399.6756 300.1838557 +22.5869260     2470.913      72.6008      1.299     2.45     4.359779     20.45166     398.9855        22     1.146     0.904  37.60   0
       282     21.6121    397.2998 300.0972023 +22.5018786     997.2998     72.39772      1.405     2.94      4.58056     20.45166     116.8792        15     1.059     0.856   0.34   0
       283    272.3676    389.2589 300.1777378 +22.5747759      29447.3     72.50856      1.240     2.20     4.414937     20.45166     3781.822        71     1.250     1.136  64.34   0
       284    807.0640    386.5496 300.3450653 +22.7342328      1215.39     72.54547      1.122     1.84     4.235551     20.45166     246.5329        15     0.854     0.805  -4.58   0
       285    762.5966    384.1342 300.3319924 +22.7202197     298.4517     72.50856      1.165     4.50     4.248766     20.45166      45.7366         8     1.096     0.582   0.37   0
       286    722.2867    375.5026 300.3222357 +22.7056651     563.8171     72.65609      1.179     2.46     4.275649     20.45166     107.9213        10     0.854     0.834  47.39   0
       287    146.4788    375.7113 300.1430044 +22.5331382      479.076     72.61923      1.431     2.53     4.501454     20.45166     66.17745         7     0.815     0.597  17.16   0
       288    370.9323    374.4791 300.2131899 +22.6000834     566.2365      72.6008      1.184     2.07     4.308675     20.45166     86.14177         8     0.756     0.623  84.66   0
       289    682.7609    368.8890 300.3120701 +22.6919245     1997.313     72.47163      1.256     1.89     4.334495     20.45166     343.8722        21     1.003     0.909 -51.07   0
       290    490.8024    363.7265 300.2539782 +22.6329247     288.8535     72.39772      1.027     2.19     4.431021     20.45166      65.6572         5     0.697     0.438   8.85   0
       291    897.8917    361.6616 300.3814591 +22.7542813     711.1212     72.58237      1.246     2.05     4.335685     20.45166     109.3909         9     0.781     0.670 -63.00   0
       292    344.5385    353.4803 300.2117976 +22.5861432     2299.035     72.58237      1.526     2.63     4.258612     20.45166     280.6946        26     1.403     0.941  64.95   0
       293    556.8184    352.0307 300.2783244 +22.6493486     332.8235     72.47163      1.124     2.25     4.460914     20.45166     62.90434         6     0.836     0.449  56.44   0
       294    783.7830    346.2047 300.3509093 +22.7156670     612.7145     72.43468      1.217     1.86     4.232835     20.45166     107.0571         8     0.720     0.625  45.51   0
       295    665.9524    343.8901 300.3149509 +22.6797075     373.1231     72.45316      1.203     2.33     4.326707     20.45166     78.22945         9     0.782     0.724 -79.34   0
       296    744.3445    337.4224 300.3414714 +22.7013313     379.2459     72.52702      1.673     2.56     4.223208     20.45166     56.50866         6     0.842     0.471  84.81   0
       297    420.3933    332.8803 300.2420822 +22.6029657     1313.565     72.41621      1.221     2.16     4.231669     20.45166     203.3389        12     0.815     0.776 -42.36   0
       298    227.8262    332.9444 300.1821721 +22.5452584     250.8388      72.4901      1.314     4.85     4.470513     20.45166     43.54824         7     0.918     0.725 -88.66   0
       299    803.3624    325.7833 300.3636407 +22.7156625     343.6131      72.4901      1.489     3.21     4.242361     20.45166     36.20579         5     0.719     0.467 -77.81   0
       300    665.1920    324.6488 300.3209605 +22.6739520     2307.648      72.4901      1.207     1.88     4.283756     20.45166     411.7322        20     0.966     0.914 -85.77   0
       301    926.5446    318.9726 300.4042523 +22.7505901       3095.6      72.4901      1.228     2.09     4.461528     20.45166     456.9043        24     1.019     0.944 -73.27   0
       302    987.9490    313.6075 300.4251437 +22.7674307     432.4817      72.4901      1.292     2.35     4.212954     20.45166     76.86364         8     0.743     0.717  65.23   0
       303    373.4189    308.7423 300.2353034 +22.5819560     543.9579     72.45316      1.077     2.10     4.229353     20.45166     113.3406         7     0.744     0.590  59.49   0
       304    995.8251    306.7663 300.4298212 +22.7678215     1673.874      72.4901      1.276     2.22     4.239634     20.45166     279.6986        18     1.084     0.820  79.68   0
       305     79.1411    302.8376 300.1457369 +22.4920338     489.6682     72.50856      1.284     3.38     4.741919     20.45166     86.24561        12     1.113     0.722  73.71   0
       306     48.4285    302.8257 300.1361999 +22.4828196     1416.005     72.47163      1.712     3.65     4.881666     20.45166     124.0566        25     1.389     1.078 -51.49   0
       307    942.4085    299.1123 300.4156461 +22.7496303     556.4636     72.41621      1.313     3.08     4.434842     20.45166     67.82234        10     0.993     0.703  -9.47   0
       308    785.7445    296.1793 300.3677599 +22.7018787      306.568      72.4901      1.147     3.45     4.232097     20.45166     51.11407         7     0.876     0.554  57.91   0
       309    132.3891    294.7696 300.1649001 +22.5056865     404.3985      72.4901      1.393     3.29     4.671202     20.45166     58.35144         7     0.932     0.482  84.83   0
       310    927.2587    291.9815 300.4132365 +22.7430448     264.4767     72.45316      1.181     2.14     4.465221     20.45166     56.10763         7     0.709     0.632  85.76   0
       311    808.5628    288.6548 300.3773135 +22.7065494     271.0251      72.4901      0.973     3.04     4.273248     20.45166     49.12102         5     0.704     0.478  75.16   0
       312    736.7994    285.9366 300.3558332 +22.6842772     738.6442      72.4901      1.243     2.11     4.186888     20.45166     135.4768         9     0.836     0.641 -71.24   0
       313    327.2096    285.7186 300.2284031 +22.5614953     379.5166     72.43468      1.133     3.09     4.323081     20.45166     80.26116        10     1.045     0.717  68.40   0
       314    827.4647    279.0021 300.3863378 +22.7094350     316.8638      72.4901      0.965     2.16     4.352285     20.45166     52.72337         6     0.733     0.497  85.72   0
       315    834.9537    275.0176 300.3899653 +22.7105322     2062.974     72.52702      1.263     2.05     4.384217     20.45166      345.729        20     0.967     0.914  85.41   0
       316    253.4862    272.6101 300.2097322 +22.5356330     2129.075     72.43469      1.231     2.23     4.607172     20.45166     296.6471        18     1.122     0.804  63.63   0
       317    331.3896    267.6077 300.2355808 +22.5575483     1061.617     72.36074      1.385     2.36     4.406103     20.45166     131.5133        14     0.907     0.865 -43.24   0
       318     83.0319    267.6505 300.1583651 +22.4831037      268.532     72.52702      1.395     3.85     4.883581     20.45166     48.99775         8     1.007     0.731  58.58   0
       319    733.3707    266.9106 300.3609400 +22.6777829     572.1825     72.45316      1.156     2.29     4.187156     20.45166     88.13692         7     0.727     0.581  75.06   0
       320    840.6599    263.7523 300.3954001 +22.7090027     404.0822     72.54547      1.106     2.95     4.418582     20.45166     79.47915         7     0.990     0.464  83.75   0
       321    377.9920    264.3498 300.2511338 +22.5705800     285.3659      72.4901      1.515     4.57      4.30282     20.45166     24.26585         6     0.882     0.673  34.03   0
       322    148.1645    259.7697 300.1811608 +22.5003719     866.2621     72.50856      1.424     2.39     4.878219     20.45166     113.9321        12     0.897     0.835  13.81   0
       323    265.9953    258.6217 300.2181610 +22.5353671     203.9657     72.45316      1.168     4.27     4.735154     20.45166     31.19613         5     0.813     0.640  89.33   0
       324    751.0342    256.3595 300.3698678 +22.6800404     593.2432     72.54547      1.059     1.85     4.216258     20.45166     120.3056         8     0.744     0.618 -44.86   0
       325    685.9921    256.4310 300.3495811 +22.6605819     1685.277      72.4901      1.221     2.19     4.182554     20.45166     277.8902        16     1.058     0.778  65.38   0
       326    169.6044    253.2346 300.1899446 +22.5049243     431.5754      72.4901      1.258     2.57     4.911516     20.45166     54.91461         5     0.691     0.475 -76.70   0
       327    957.5870    249.0164 300.4366390 +22.7397713     881.3044     72.43468      1.242     2.28     4.493224     20.45166     138.9148        13     0.889     0.807  39.14   0
       328    610.5929    247.3252 300.3290532 +22.6353817     1244.505     72.43469      1.113     2.06     4.154655     20.45166     199.5665        15     0.922     0.819  77.99   0
       329    459.4766    249.3299 300.2813608 +22.5906846     252.0124      72.6008      1.181     3.17     4.299228     20.45166     43.97755         5     0.716     0.476  73.74   0
       330    690.1513    247.9813 300.3536188 +22.6593995     757.7525     72.50856      1.239     2.10     4.177701     20.45166     136.8268        10     0.860     0.746 -56.99   0
       331    431.9274    243.6517 300.2746308 +22.5807989     412.4071      72.4901      1.442     2.57     4.342439     20.45166     57.69107         7     0.831     0.573  76.02   0
       332    806.1589    238.7375 300.3927647 +22.6914823     1386.769     72.47163      1.191     2.04     4.371733     20.45166     245.2129        14     0.888     0.792  57.79   0
       333    536.9343    238.8381 300.3088738 +22.6108780     910.0643     72.47163      1.246     2.22     4.299235     20.45166     165.0773        12     1.147     0.684 -89.00   0
       334    818.1575    237.7671 300.3968192 +22.6947959     764.9706     72.54547      1.358     2.18     4.401848     20.45166     125.2047        13     0.944     0.803  12.10   0
       335    978.9781    228.7007 300.4499032 +22.7403325     1555.096     72.41621      1.227     1.73     4.483878     20.45166     314.7751        18     1.022     0.862 -11.20   0
       336    934.9055    228.0854 300.4363581 +22.7269637     1024.754     72.67451      1.214     2.08     4.565734     20.45166     196.6859        13     0.908     0.759  79.88   0
       337    169.0965    221.3842 300.2001214 +22.4956298     777.4418     72.39772      1.414     2.70     5.114166     20.45166     93.51078        13     0.958     0.826  21.68   0
       338     30.8916    216.2867 300.1588341 +22.4527290     2138.273     72.65609      1.408     2.45     5.170566     20.45166     250.1184        27     1.211     1.099  49.46   0
       339    853.8135    212.9657 300.4159812 +22.6983416     688.4512     72.47163      1.203     2.05     4.511987     20.45166     126.8087        11     0.877     0.721  84.11   0
       340    188.1672    209.5553 300.2098867 +22.4979513     5517.887     72.54547      1.312     2.35     5.119476     20.45166     746.5605        33     1.138     1.054  67.28   0
       341    169.5652    210.2902 300.2038665 +22.4925858     347.9401     72.45316      1.078     2.65     5.123808     20.45166     55.61908         5     0.729     0.440  66.80   0
       342    987.0397    196.7154 300.4627963 +22.7335475     18168.36     72.45316      1.314     2.13     4.674522     20.45166     3105.936        50     1.177     1.108  81.35   0
       343    171.4432    200.2643 300.2077029 +22.4902708     642.2161      72.4901      1.362     2.68     5.132231     20.45166     81.71008        10     0.953     0.665   3.78   0
       344    832.1801    190.8374 300.4164175 +22.6855036     3534.219     72.50856      1.234     2.01     4.490828     20.45166     610.6887        25     1.024     0.963  74.77   0
       345    935.8805    189.5557 300.4491641 +22.7161769     2782.091     72.47163      1.240     2.02     4.768035     20.45166     482.1462        23     1.034     0.935  78.52   0
       346    381.7531    186.3130 300.2776244 +22.5492967     713.7962     72.45316      1.315     2.52     4.535985     20.45166     102.6135        12     0.956     0.756  29.67   0
       347    134.6525    187.2938 300.2004769 +22.4755184     299.8319     72.56392      1.101     2.20      5.14959     20.45166     51.93021         5     0.695     0.451 -73.12   0
       348    496.1185    184.2017 300.3138962 +22.5829550     336.6651     72.39772      1.173     2.40     4.247766     20.45166     58.87542         6     0.721     0.555  40.30   0
       349    305.6425    178.1222 300.2566082 +22.5241370     641.4978     72.47163      1.513     2.51     4.541256     20.45166     93.47533        10     0.942     0.674 -48.53   0
       350     71.9608    175.4686 300.1848338 +22.4533290     608.5348     72.45316      1.302     3.95     5.164691     20.45166     78.78613        10     1.041     0.703  68.76   0
       351    840.6064    175.7877 300.4239268 +22.6836995     199.3377     72.36074      0.998     2.63     4.523328     20.45166     40.07805         5     0.703     0.467  74.11   0
       352    433.0723    173.5461 300.2977328 +22.5610062     1578.521     72.47163      1.191     2.13     4.628804     20.45166     262.5695        16     1.038     0.764  67.18   0
       353    361.2542    173.8166 300.2753016 +22.5395654     509.1125     72.47163      1.343     2.60     4.460196     20.45166     80.28223         8     0.793     0.749 -66.16   0
       354    494.6545    172.5939 300.3172063 +22.5791818     312.3997     72.47163      1.128     2.21     4.233548     20.45166     53.76286         5     0.658     0.480  13.61   0
       355    176.6354    169.2278 300.2193850 +22.4829175     319.3914     72.50856      1.243     2.73     5.153697     20.45166     63.58828         8     0.933     0.592  16.91   0
       356    721.3492    162.4536 300.3910881 +22.6441619     329.3358     72.52702      1.135     3.14     4.352652     20.45166     53.91255         5     0.718     0.453  21.67   0
       357    568.8082    159.3713 300.3445793 +22.5975948      310.386      72.4901      1.284     3.45     4.204379     20.45166     33.04067         5     0.753     0.457 -15.10   0
       358    603.6321    158.2984 300.3557705 +22.6077164     253.4859     72.47163      0.920     3.37     4.195981     20.45166     38.92393         5     0.758     0.433 -70.10   0
       359    306.6280    158.2264 300.2633686 +22.5187189     287.8379     72.45316      1.289     4.15      4.42557     20.45166      34.9522         6     0.738     0.665  -1.60   0
       360    997.5011    153.9339 300.4799391 +22.7243745     3563.143     72.58237      1.314     2.28     4.932874     20.45166     490.2343        27     1.072     1.057   6.45   0
       361    207.1101    153.4393 300.2339790 +22.4875191     5800.778      72.4901      1.313     2.42     5.123812     20.45166      757.826        31     1.132     1.018  57.02   0
       362    618.2932    154.3053 300.3616313 +22.6109597     375.1328     72.65609      1.313     2.98     4.208497     20.45166     59.21363         5     0.745     0.444  80.34   0
       363    713.7525    153.2255 300.3917150 +22.6392348     312.7559      72.4901      1.210     3.78     4.391558     20.45166     50.73874         8     0.901     0.697  31.62   0
       364     57.8948    152.7153 300.1878445 +22.4425813     695.8188     72.67451      1.571     3.83     5.174506     20.45166     86.71073        12     1.139     0.876  67.63   0
       365    836.2386    150.5128 300.4307646 +22.6751254      417.052     72.47163      1.136     3.39     4.548338     20.45166     59.74815         7     0.992     0.513  48.35   0
       366    179.0521    147.0833 300.2273192 +22.4772844     320.1882     72.52702      1.290     3.22     5.154215     20.45166      53.9519        10     0.913     0.806 -45.19   0
       367    683.1844    144.0269 300.3851762 +22.6274379     168.5519     72.50856      1.121     3.31      4.38086     20.45166      34.4864         5     0.794     0.500 -34.34   0
       368    222.6577    144.6434 300.2416653 +22.4896535     279.6036     72.47163      0.967     2.04     5.098495     20.45166      59.3116         5     0.658     0.472  10.43   0
       369    453.1930    138.6741 300.3153057 +22.5570168     6135.336     72.43468      1.244     2.06      4.52519     20.45166     1005.594        34     1.226     0.954  66.47   0
       370    338.6138    138.5052 300.2797135 +22.5226399     647.9095     72.41621      1.204     2.40     4.609099     20.45166     87.57961        11     0.922     0.711  66.15   0
       371    510.2018    133.1792 300.3348308 +22.5725152     388.6386     72.41621      1.228     3.90     4.250935     20.45166     46.40217         6     0.770     0.567  58.39   0
       372    473.5688    132.8628 300.3235317 +22.5614511     254.0949     72.50856      1.233     4.40     4.350965     20.45166      40.8816         6     0.974     0.565 -21.76   0
       373    705.5452    128.7625 300.3970932 +22.6297458     980.9528      72.4901      1.646     5.19       4.5304     20.45166       112.93        15     1.698     0.735 -71.41   0
       374    647.3828    129.7321 300.3786615 +22.6126089     365.2928      72.4901      1.248     3.38      4.34711     20.45166     53.12822         7     0.964     0.469  81.41   0
       375    797.8895    126.6274 300.4265597 +22.6567783     470.1519     72.47163      1.217     2.72     4.644277     20.45166      86.1329         9     0.873     0.727  47.09   0
       376    146.0306    122.5440 300.2250152 +22.4603414     393.8866     72.50856      1.209     3.39     5.178613     20.45166     61.03886         8     1.065     0.464  10.88   0
       377    581.5072    118.7277 300.3617165 +22.5897190     6306.268     72.61923      1.243     2.12     4.197096     20.45166     926.9492        32     1.086     1.040  74.89   0
       378    504.2378    120.9610 300.3369373 +22.5672182     419.3043     72.56392      1.396     2.07      4.27721     20.45166     63.84415         8     0.774     0.610  40.08   0
       379    356.4589    117.6812 300.2920181 +22.5220057     1342.745     72.54547      1.228     2.34     4.902177     20.45166     201.5647        17     1.041     0.805  71.27   0
       380    622.6083    115.9630 300.3754118 +22.6012329     936.8318      72.4901      1.291     2.33     4.271223     20.45166     132.0609        12     0.922     0.725  56.83   0
       381    692.3942    113.3298 300.3980019 +22.6213722     378.6085     72.45316      1.239     2.99     4.604913     20.45166     46.70474         5     0.719     0.456  71.46   0
       382    638.7217    112.0886 300.3816866 +22.6049445     701.1995     72.61923      1.269     2.10     4.370994     20.45166     94.52689        10     0.807     0.693 -13.79   0
       383    105.0993    110.2389 300.2162865 +22.4445397     634.5845     72.50856      1.340     2.70     5.187941     20.45166     79.54157        10     0.880     0.719 -87.80   0
       384    908.4724    109.6439 300.4665404 +22.6849939     489.0252     72.47163      1.080     2.11     4.802308     20.45166     89.46959         9     0.777     0.687 -72.74   0
       385    947.4508    109.2006 300.4788390 +22.6965312     225.5247     72.45316      0.973     2.85     4.932874     20.45166     51.54117         5     0.742     0.413  63.22   0
       386    677.0421    107.4188 300.3951367 +22.6150765     518.5894     72.50856      1.314     2.25     4.612367     20.45166     81.26757         6     0.718     0.610  39.43   0
       387    640.8728    102.4174 300.3854932 +22.6028090     990.6465      72.4901      2.043     4.80     4.415894     20.45166     85.78742        18     1.603     0.920  64.47   0
       388    625.8141    103.5725 300.3804287 +22.5986318     2702.351     72.50856      1.257     2.15     4.308735     20.45166     398.1312        25     1.132     0.884  72.70   0
       389    266.3844    104.2516 300.2683604 +22.4911590     411.4767      72.4901      1.217     3.48     4.623756     20.45166     63.87236         8     1.122     0.468  66.68   0
       390    712.1332     95.0492 300.4100799 +22.6220271     1565.512      72.4901      1.291     2.03     4.754782     20.45166     254.7002        19     1.109     0.793  44.40   0
       391    872.6653     93.2743 300.4606854 +22.6695700     254.4345     72.52702      1.083     2.94      4.55452     20.45166     38.10851         6     0.695     0.645  27.02   0
       392    650.2563     88.3126 300.3929899 +22.6015646     741.4759     72.54547      1.146     2.22     4.511817     20.45166      112.424        12     0.876     0.781 -80.53   0
       393    455.8354     87.7355 300.3326485 +22.5431739     1031.536      72.4901      1.185     2.27     4.536823     20.45166     167.3708        14     0.896     0.839  44.80   0
       394     28.5501     88.0416 300.1997032 +22.4152204     418.3564     72.50856      1.123     2.12     5.193085     20.45166     85.18302         6     0.718     0.591 -40.38   0
       395    359.5722     85.9562 300.3032750 +22.5138257     754.8824     72.50856      1.200     2.15     5.096398     20.45166      119.484        11     0.826     0.777  16.25   0
       396    741.7981     84.3163 300.4228031 +22.6278225     445.0279     72.39772      1.161     2.22     4.803073     20.45166     86.79476         6     0.689     0.605  40.54   0
       397   1002.6596     82.3507 300.5047664 +22.7053282     2251.354     72.54547      1.291     2.33     4.836443     20.45166     310.5909        21     1.063     0.954 -89.95   0
       398    130.9555     76.0182 300.2354180 +22.4424652     3792.038     72.50856      1.445     2.45     5.022841     20.45166     477.5498        32     1.261     1.100  35.90   0
       399    698.9892     76.3648 300.4120444 +22.6127208     659.7648      72.4901      1.243     2.27     4.760052     20.45166     95.94037         9     0.798     0.707  73.48   0
       400    262.1147     76.5445 300.2760176 +22.4819224     338.2433     72.56392      1.635     3.71     4.556305     20.45166     40.15633         5     0.867     0.538  47.47   0
       401    553.3244     72.9649 300.3677830 +22.5681278     358.9501     72.45316      1.172     3.20     4.179364     20.45166     45.66861         7     0.824     0.609 -66.61   0
       402    456.9161     73.0168 300.3377577 +22.5392687      271.782     72.45316      1.231     3.63     4.489548     20.45166     40.15601         5     0.666     0.571  89.31   0
       403    692.2401     68.1703 300.4125992 +22.6083445     910.8906     72.50856      1.295     2.30     4.765377     20.45166     132.1144        13     0.967     0.770 -67.40   0
       404    246.9706     67.9422 300.2740983 +22.4749140     1225.408      72.4901      1.378     2.35     4.583762     20.45166     172.1085        14     0.990     0.778  78.38   0
       405    657.7084     67.3264 300.4021165 +22.5977634     422.5321     72.65609      1.584     3.24     4.612305     20.45166     57.88605         6     0.864     0.474  49.00   0
       406    730.2800     63.1209 300.4260876 +22.6182808     790.8741     72.61923      1.616     3.65     4.812418     20.45166     88.15745        15     1.245     0.831  70.74   0
       407    653.2335     63.1969 300.4020617 +22.5952366     485.5604      72.4901      1.300     3.25     4.573884     20.45166     64.30447         6     0.864     0.493  55.84   0
       408    750.1498     59.4661 300.4334638 +22.6231781     2106.698     72.47163      1.184     2.12     4.764965     20.45166     358.5037        22     1.130     0.870  49.27   0
       409    455.7146     57.8405 300.3423048 +22.5345482     420.1742     72.47163      1.163     2.33     4.451385     20.45166      80.4816         8     0.833     0.596 -88.88   0
       410    133.4090     54.9481 300.2430122 +22.4371508     964.7971      72.4901      1.452     3.10     4.842432     20.45166     110.7038        14     1.086     0.851  -7.84   0
       411    925.0054     52.7296 300.4901529 +22.6735726     761.4148     72.45316      1.231     2.47     4.530716     20.45166     116.4753        12     1.029     0.733  72.54   0
       412    698.7326     52.0368 300.4198532 +22.6056502     912.6954     72.47163      1.177     2.35     4.800218     20.45166     138.7069        12     0.957     0.753  85.50   0
       413    405.7817     49.8101 300.3293713 +22.5172846     394.4708     72.45316      1.394     3.87     4.609473     20.45166     38.04732         6     0.778     0.551  46.97   0
       414    149.2576     45.1358 300.2511188 +22.4390832     225.5021     72.54547      1.125     3.63     4.572731     20.45166     41.30024         7     0.913     0.684  85.61   0
       415    456.2578     44.6629 300.3467465 +22.5309246      303.054     72.54547      1.113     2.64     4.414362     20.45166     41.68096         5     0.715     0.454 -13.77   0
       416    283.5961     41.3861 300.2940969 +22.4782608      467.422     72.34224      1.593     3.52     4.373898     20.45166     51.59415        11     0.997     0.798  39.18   0
       417    551.1218     36.9690 300.3787688 +22.5571232     917.7564     72.47163      1.250     1.98     4.156205     20.45166     151.0953        10     0.807     0.697  -1.27   0
       418    285.5283     34.9371 300.2967886 +22.4769873     410.2616     72.52702      1.267     3.73     4.370934     20.45166     43.24341         6     0.802     0.498 -87.58   0
       419    160.4399     34.3559 300.2580891 +22.4393388     642.9492     72.56392      1.515     2.23     4.288018     20.45166     86.08027        10     0.841     0.723  36.13   0
       420    714.0317     31.8325 300.4311704 +22.6044213     756.7531     72.52702      1.232     2.07     4.833196     20.45166     141.2355        11     0.930     0.687 -78.70   0
       421    522.6876     30.0074 300.3721740 +22.5466077     1934.747     72.39772      1.246     2.16     4.230244     20.45166     300.5773        20     0.992     0.896  78.58   0
       422    245.8725     27.5046 300.2868676 +22.4629711     677.8653      72.6008      1.258     2.70     4.255836     20.45166     97.13444        10     0.931     0.663  58.95   0
       423    480.0414     23.7766 300.3609200 +22.5320458     1301.808     72.52702      1.287     2.22     4.379162     20.45166     215.9052        14     0.941     0.810  60.59   0
       424    585.4310     20.4421 300.3948092 +22.5626463     1406.824     72.52702      1.235     2.31     4.145269     20.45166     182.8383        15     0.934     0.870  68.94   0
       425    180.8684     19.2934 300.2693216 +22.4411351     593.9269     72.61923      1.638     4.06     4.067406     20.45166     54.25299        10     1.112     0.624  43.46   0
       426    229.4268     17.5174 300.2849923 +22.4551751     459.5421     72.47163      1.392     3.53     4.092522     20.45166     51.34928        10     0.940     0.828  67.89   0
       427    491.7908   1019.9510 300.0409400 +22.8215189     459.0447     71.91544      1.727     5.93     3.080623     20.45166     47.65981        11     1.350     0.733  43.26  16
       428    203.4047   1020.0382 299.9512262 +22.7349743     730.1248     71.71042      1.846     4.28     9.473268     20.45166     75.71058        17     1.263     1.085 -51.49  16
       429    896.5250     11.5106 300.4946369 +22.6531945      153.274     72.65609      0.973     3.66     4.167459     20.45166     46.51123         6     0.930     0.413  19.70   0
       430    764.1038   1019.6030 300.1258450 +22.9031176     442.9389     72.36074      1.789     3.10     2.787972     20.45166     38.10177         6     0.822     0.699  12.04  16
       431    520.5730   1016.7520 300.0509388 +22.8292389     1387.519     72.50856      1.640     3.49     3.080623     20.45166     120.1598        21     1.187     1.089   4.05  16
       432    414.4489   1013.0999 300.0191066 +22.7963427     967.8444     72.54547      1.519     3.31     3.963692     20.45166     105.7809        14     1.030     0.882  53.03   0
