#   1 NUMBER                 Running object number                                     
#   2 X_IMAGE                Object position along x                                    [pixel]
#   3 Y_IMAGE                Object position along y                                    [pixel]
#   4 ALPHA_J2000            Right ascension of barycenter (J2000)                      [deg]
#   5 DELTA_J2000            Declination of barycenter (J2000)                          [deg]
#   6 FLUX_APER              Flux vector within fixed circular aperture(s)              [count]
#   7 FLUXERR_APER           RMS error vector for aperture flux(es)                     [count]
#   8 FLUX_RADIUS            Fraction-of-light radii                                    [pixel]
#   9 FWHM_IMAGE             FWHM assuming a gaussian core                              [pixel]
#  10 BACKGROUND             Background at centroid position                            [count]
#  11 THRESHOLD              Detection threshold above background                       [count]
#  12 FLUX_MAX               Peak flux above background                                 [count]
#  13 ISOAREA_IMAGE          Isophotal area above Analysis threshold                    [pixel**2]
#  14 A_IMAGE                Profile RMS along major axis                               [pixel]
#  15 B_IMAGE                Profile RMS along minor axis                               [pixel]
#  16 THETA_IMAGE            Position angle (CCW/x)                                     [deg]
#  17 FLAGS                  Extraction flags                                          
         1     83.4248     15.9278 300.1997250 +22.4153002     634.4553     72.37642      1.719     5.37     6.077981     20.40919     73.90013        16     1.364     1.144  89.72   0
         2    510.6223     15.7179 300.3326970 +22.5431247     1028.974     72.30272      1.487     2.89     5.609902     20.40919     145.6455        19     1.162     1.031 -87.93   0
         3    414.4116     14.3694 300.3031805 +22.5139451       783.16     72.33958      1.392     2.76      5.19638     20.40919     98.91418        11     1.059     0.637 -27.38   0
         4    796.8983     12.9550 300.4227922 +22.6279678      433.037     72.33958      1.364     5.06     6.081575     20.40919     46.18134         9     0.969     0.789  87.72   0
         5    185.8410      4.0320 300.2354176 +22.4425514     3788.446     69.05911      1.573     3.14     6.108449     20.40919     396.1915        36     1.345     1.224  46.44  24
         6    753.7959      4.8766 300.4119715 +22.6127534      729.256     71.30027      1.559     2.99     6.215108     20.40919     73.98963        12     0.947     0.827   9.47  16
         7    316.4186      5.2379 300.2756426 +22.4819900     267.6482     72.09965      1.292     3.46     5.725777     20.40919     32.11573         5     0.729     0.475  76.09  16
         8    608.6664      1.7196 300.3677679 +22.5684343     248.0285     58.59678      1.175     3.43     6.282314     20.40919     51.15774         6     0.738     0.645 -27.90  24
         9    511.8550      1.7975 300.3375895 +22.5394914     298.0393     58.86911      1.176     2.69     5.663966     20.40919     57.06888         6     0.749     0.587 -86.77  24
        10    746.6704    988.0115 300.0906600 +22.8931102     735.1663       72.358      2.629     6.30     3.555249     20.40919      37.4856        10     1.408     0.792 -86.17   2
        11    263.0832   1015.1551 299.9312761 +22.7558912     2202.968     72.30272      6.672    32.56     41.01631     20.40919     73.88386       168     7.731     3.806  85.84  27
        12    213.5438   1004.6790 299.9192782 +22.7380253     1961.661     72.37642      3.566    26.05      82.5124     20.40919     56.89879       113     5.608     3.360   7.97  19
        13    214.8170    985.9555 299.9257631 +22.7330398     4312.606       72.358      8.346    32.56     65.21745     20.40919     84.79283       318     5.888     4.999  44.63   3
        14    234.4216    985.1470 299.9321221 +22.7386896     5794.047     72.33958      9.204    39.37     54.94258     20.40919     107.9726       480     7.883     5.456  72.35  19
        15    252.9110    974.7239 299.9412612 +22.7412481     8736.438     72.46844     12.332    40.33     32.92683     20.40919     174.5288      1059    13.354     5.784  70.91  19
        16     91.8694    950.9880 299.8989150 +22.6861268     5659.764       72.358     25.640   105.96     29.44178     20.40919     1243.246      3725    20.178    15.440 -26.38  19
        17    189.4446    988.7435 299.9169678 +22.7262266     1111.029       72.358      4.257     7.43     71.48978     20.40919     40.64397        13     1.817     0.850   0.43   3
        18    180.7092    977.3942 299.9179427 +22.7203524      1862.75     72.24739      4.502    12.09      62.4986     20.40919     64.19232        41     2.788     1.460 -83.86   2
        19    501.4304   1001.6845 300.0098220 +22.8235161     303.7809       72.358      1.337     3.51     4.244332     20.40919     39.43432         5     0.754     0.472 -75.30   0
        20    189.2732   1004.0253 299.9119447 +22.7305558     1674.405     72.37642      4.120    12.95     84.32375     20.40919     56.80846        35     2.882     1.620 -44.99   3
        21    940.2206    971.2695 300.1564533 +22.9462979     889.8811     72.32115      2.344     8.56     3.870868     20.40919     47.51347        18     1.547     1.323 -28.34   0
        22      7.5749    994.0679 299.8587159 +22.6731755      2637.63     72.32115     17.334    32.23    -19.78061     20.40919     62.88867       186     7.177     4.018 -75.60  19
        23    158.4887    955.6528 299.9181044 +22.7074531     1638.843       72.358      5.991     8.01      48.2329     20.40919     50.51564        32     2.203     1.584 -29.09   2
        24    666.0916    954.1729 300.0765555 +22.8592483     6866.034     72.28428      1.982     4.84     3.674011     20.40919     408.2343        50     1.555     1.490  63.20   0
        25    101.4513   1011.0208 299.8823714 +22.7062080     4224.616     72.33958     16.058    89.41     87.26144     20.40919     152.9741      1933    18.883    11.747  47.95  27
        26    817.4964    947.7041 300.1258458 +22.9027641     373.5697      72.5236      2.049     7.06     4.087167     20.40919     34.40014         9     1.564     0.894 -46.69   0
        27    257.5231    948.3235 299.9512801 +22.7350621     561.8958     72.43165      1.909     7.03     16.87136     20.40919     47.50578        11     1.295     1.070 -32.82   0
        28    574.6838    944.8527 300.0511133 +22.8291742     1514.576     72.37642      1.918     5.09      4.11466     20.40919     96.77654        26     1.359     1.307  55.63   0
        29    467.0000    942.1280 300.0184711 +22.7961082     524.1988     72.21048      1.419     4.66     4.191291     20.40919     56.23171         7     1.062     0.580 -89.30   3
        30    469.3027    940.8723 300.0195963 +22.7964384     734.8503     72.46844      1.712     4.61      4.19917     20.40919     68.47601        11     1.096     0.785  78.43   2
        31    399.0240    939.3420 299.9982203 +22.7749258     6535.943     72.33958      1.914     4.23     4.035651     20.40919     484.4153        44     1.485     1.425  30.05   0
        32    431.7479    926.3200 300.0126384 +22.7810033     510.6169     72.33958      1.923     6.82     4.088842     20.40919     46.21617        10     1.301     1.003 -55.03   0
        33    185.6879    998.0754 299.9127651 +22.7277746     2921.243     72.46844      5.320    21.35     79.54981     20.40919     71.97004       104     3.969     3.188  -4.58   3
        34    369.3627    998.2894 299.9698219 +22.7829360     537.6712     72.32115      1.947     4.44      3.90481     20.40919     50.63155         7     1.152     0.642 -76.38   0
        35    945.5038    918.3704 300.1753035 +22.9326900     2214.167     72.28428      2.076     5.02     4.370291     20.40919     106.9765        36     1.543     1.460   6.14   0
        36    595.7809    915.6878 300.0671668 +22.8271296     406.0587     72.28428      1.716     5.49     4.247409     20.40919     29.47155         7     1.308     0.650 -44.13   0
        37      2.1061    986.5571 299.8594595 +22.6693820     1359.314     60.56546     16.192    24.84    -22.84296     20.40919     52.19208        98     7.980     2.146 -81.95  27
        38    734.0317    906.9576 300.1130781 +22.8660577     756.6578     72.37642      1.950     6.74     4.308629     20.40919      52.4157        15     1.296     0.984   3.29   0
        39    237.8249    904.4719 299.9594112 +22.7165795     658.1776     72.37642      2.651     3.36     8.116979     20.40919     35.10642         5     1.231     0.266  55.01   0
        40    123.5998    901.1393 299.9249827 +22.6813581     1208.939     72.28428      9.132     9.20     12.97641     20.40919     38.51632        12     2.387     0.989 -55.96   1
        41    768.9604    901.3079 300.1258014 +22.8749019     1268.579     72.33958      2.075     5.27     4.349525     20.40919     77.61301        22     1.303     1.201  10.74   0
        42    546.3659    902.4086 300.0560948 +22.8085067     393.3612     72.33958      1.925     4.97     4.261862     20.40919     33.02001         6     1.484     0.470  -5.82   0
        43     90.3223    918.5544 299.9089790 +22.6763660     4635.419     72.32115     18.665    46.08     9.707974     20.40919     95.21938       821    10.344     6.816 -45.42   3
        44    131.8408    898.1868 299.9285040 +22.6829842     917.4086       72.358      3.662     3.56     13.66018     20.40919     45.76555         5     0.871     0.419  17.75   3
        45    791.2255    894.9819 300.1347984 +22.8797568     11429.88       72.358      1.925     4.45     4.370768     20.40919     685.6971        52     1.486     1.483 -48.33   0
        46      4.7220   1017.5974 299.8501778 +22.6790612     3407.973      70.9066     10.674    43.04    -32.33958     20.40919     66.30614       392     9.553     5.382 -37.62  27
        47    223.3721    892.2304 299.9588963 +22.7087341     1017.311     72.33958      4.893     5.04     8.079148     20.40919      40.7918         5     1.099     0.655 -17.56   2
        48    561.2792    991.8300 300.0316620 +22.8386339     2382.502     72.33958      2.097     5.20     3.978265     20.40919      133.294        32     1.474     1.390 -79.75   0
        49    837.2009    895.6406 300.1489176 +22.8937201     385.6753       72.358      1.579     5.29     4.399716     20.40919      49.5024        10     1.256     0.907  40.47   0
        50    102.8567    886.3942 299.9233288 +22.6709078     1225.664     72.30272      6.224     6.03      7.95773     20.40919     64.38128        19     1.521     1.218 -24.75   0
        51    496.9570    882.6688 300.0471280 +22.7880311      452.701     72.30272      1.734     5.25     4.328211     20.40919     34.42018         9     1.185     0.657  42.43   0
        52    799.7791    877.2283 300.1432365 +22.8772224     1395.067     72.33958      1.855     4.44     4.405832     20.40919      87.3143        26     1.401     1.217  19.65   0
        53    647.8557    987.2457 300.0601188 +22.8632729     9296.601     72.37642      2.131     4.88     3.248816     20.40919     513.2182        45     1.604     1.378  38.05   3
        54    190.4426    986.2521 299.9180883 +22.7258119      795.383       72.358      3.577     6.54     68.78046     20.40919     41.75614         8     1.603     0.749  -2.41   3
        55    982.8890    876.5438 300.2005652 +22.9318743     379.1511     72.37642      1.556     6.14     4.550875     20.40919     33.36565        11     1.532     0.692  41.12   0
        56    651.6602    873.5171 300.0982829 +22.8317746     434.1313     72.45005      1.766     6.25     4.261504     20.40919     40.65682        10     1.262     0.870   0.03   0
        57    837.6884    870.8664 300.1571237 +22.8867526      857.086     72.45005      2.037     4.51     4.426196     20.40919     56.57026        15     1.104     1.062  -9.43   0
        58    885.9800    861.8676 300.1751077 +22.8986343     522.2089     72.30272      1.693     5.90     4.510562     20.40919     44.26147        13     1.240     0.941 -15.08   0
        59    737.6823    860.8177 300.1292155 +22.8539061     605.2632     72.30272      1.690     4.67     4.437737     20.40919     61.44259        14     1.223     0.981  25.39   0
        60    749.2304    858.0056 300.1337289 +22.8565587     628.3973     72.33958      1.769     6.02     4.447857     20.40919     56.75652        13     1.412     0.822 -26.25   0
        61    450.2168    856.9822 300.0409275 +22.7666489     4233.982     72.32115      1.762     3.73     4.404742     20.40919     384.4659        37     1.356     1.306  50.14   0
        62    653.2917    984.8809 300.0625814 +22.8642238     9553.384     72.46844      2.064     5.31     3.274749     20.40919     510.3198        55     1.639     1.531  -3.10   3
        63    175.8365    842.2463 299.9603630 +22.6801429     821.2797     72.37642      2.299     7.30      6.59393     20.40919     59.77555        16     1.496     1.022  50.65   0
        64    152.5335    839.6172 299.9539732 +22.6723992     1571.123     72.32115      1.968     4.44     6.712534     20.40919     135.0373        29     1.425     1.354   3.27   0
        65   1023.2733    829.1276 300.2285793 +22.9303468     1074.597     58.57403      1.420     4.12     4.625661     20.40919     134.6241        15     1.329     0.702 -83.51  24
        66    683.1562    829.4034 300.1224348 +22.8285499     417.9117       72.358      2.093     5.49     4.404529     20.40919     37.30366         5     1.297     0.656 -25.68   2
        67    978.6152    827.6175 300.2151359 +22.9165406     2026.488     72.32115      1.813     4.74     4.635727     20.40919     149.6221        29     1.335     1.300  35.48   0
        68     28.4271    828.9901 299.9188576 +22.6321210     387.6961     72.33958      1.601     4.17     4.715654     20.40919     38.42027         6     1.019     0.486 -84.10   0
        69    761.7571    821.3831 300.1495367 +22.8497969     753.3253       72.358      1.864     4.05     4.573441     20.40919     58.43348        13     1.097     0.859 -11.69   0
        70    185.6238    821.4648 299.9701595 +22.6771192     497.6447     72.32115      1.792     5.42     5.459072     20.40919     45.05674         9     1.200     0.691 -58.55   0
        71    630.2314    815.1685 300.1105725 +22.8086047     4775.458     72.37642      1.684     3.58     4.413224     20.40919     409.1497        37     1.336     1.278  38.41   0
        72    120.5945    815.6699 299.9518276 +22.6559521     384.9821     72.30272      1.724     4.71     5.145191     20.40919      37.1047         8     1.019     0.617  71.42   0
        73    432.5586    812.1475 300.0500028 +22.7484913     630.0505     72.33958      1.550     4.73     4.538327     20.40919     63.60777        15     1.063     1.019  36.84   0
        74    180.5403    808.9183 299.9726562 +22.6719966      1234.54     72.43165      1.759     4.05      5.02256     20.40919     114.6312        23     1.335     1.265  76.21   0
        75    650.8655    807.6698 300.1194376 +22.8126352      749.241     72.37642      1.686     4.62     4.430898     20.40919     55.75048        14     1.217     0.823 -50.33   0
        76    200.2481    805.8214 299.9797900 +22.6770192     443.5634       72.358      1.734     4.88     4.791246     20.40919     43.27988         7     1.172     0.576  56.51   0
        77   1022.7554    795.2591 300.2394254 +22.9204614     927.8174     61.35263      1.796     4.93     4.614016     20.40919     69.11507        20     1.374     1.021 -88.31  24
        78    806.3060    795.0402 300.1719850 +22.8555777     4218.804       72.358      1.728     3.81     4.710836     20.40919     308.8199        35     1.392     1.239  49.56   0
        79    214.9782    789.0515 299.9898194 +22.6766272     408.5421     72.33958      1.458     5.20     4.604692     20.40919     48.39397        10     1.024     0.746 -26.35   0
        80    523.5767    787.4297 300.0863698 +22.7686801     559.9568     72.33958      1.647     4.60     4.524301     20.40919     57.22562        13     1.106     0.877 -23.15   0
        81    169.7344    785.3884 299.9769425 +22.6620078     1089.197     72.30272      1.702     4.22     4.672094     20.40919      94.8735        16     1.299     0.821 -25.47   0
        82    584.8464    781.2943 300.1074437 +22.7852809     541.7324       72.358      1.490     4.66     4.500919     20.40919     60.75293        11     1.125     0.821 -54.72   0
        83    319.3105    777.4232 300.0260472 +22.7045767     53983.28     72.26584      1.744     3.52     4.748077     20.40919     5210.866        92     1.490     1.445  25.88   0
        84    577.2043    776.5347 300.1066102 +22.7816246      1688.17       72.358      1.707     3.74     4.507842     20.40919     142.9739        25     1.266     1.170 -12.74   0
        85    990.2206    775.8324 300.2355867 +22.9051387     820.6591     72.33958      1.784     5.44     4.636321     20.40919     53.75142        20     1.334     1.151 -36.37   0
        86    247.6325    775.4938 300.0043791 +22.6825309     510.7353     72.28428      1.688     4.88     4.589448     20.40919     50.44122        11     1.105     0.870  28.90   0
        87    606.2092    772.5022 300.1169545 +22.7891586     866.2869     72.24739      1.532     3.79     4.533647     20.40919      95.4175        17     1.172     0.942 -20.41   0
        88      5.7197    772.0116 299.9303170 +22.6089740     736.8227     72.32115      1.769     6.29     4.593896     20.40919     59.23505        14     1.280     0.959 -44.17  16
        89    617.1384    770.8510 300.1208953 +22.7919595      584.075     72.39484      1.475     4.34     4.541538     20.40919     56.67787        10     0.930     0.741  78.05   0
        90    937.1214    769.2347 300.2211651 +22.8873438      200.654     72.28428      1.316     4.63     4.718296     20.40919     32.59112         6     1.183     0.515  44.18   0
        91    722.3284    767.2342 300.1548448 +22.8224368     402.4326     72.33958      1.435     4.01     4.608059     20.40919     43.67707        10     1.142     0.727  24.00   0
        92    760.0944    757.7141 300.1697087 +22.8310163     657.8545      72.5236      1.470     3.39     4.665767     20.40919     91.67978        16     1.109     0.954  17.55   0
        93    369.0737    754.6862 300.0489173 +22.7129724     31536.55     72.46844      1.652     3.35     4.931671     20.40919     3425.386        71     1.409     1.376  27.22   0
        94    383.2849    755.3292 300.0531305 +22.7174171     2074.912     72.45005      1.740     3.24     4.848972     20.40919     186.3598        25     1.239     1.155 -13.17   0
        95    257.7429    754.0665 300.0144852 +22.6794162     310.5262     72.37642      1.623     3.90     4.608247     20.40919     33.05778         5     0.857     0.508 -30.98   0
        96    892.2727    750.9218 300.2131270 +22.8686531     2778.352     72.45005      1.695     3.87     4.765008     20.40919     213.0647        29     1.268     1.224  87.56   0
        97    380.4497    749.1896 300.0542430 +22.7148055     716.0344       72.358      1.691     3.00     4.888981     20.40919     71.33814        13     0.985     0.891  -9.42   0
        98    251.5978    746.4607 300.0150450 +22.6753918     947.4727     72.32115      1.853     4.22     4.604454     20.40919     78.02544        18     1.191     1.128 -59.80   0
        99    650.0399    746.8271 300.1389507 +22.7949205     927.0043     72.39484      1.580     3.43     4.616644     20.40919     91.58181        14     1.030     0.965 -24.06   0
       100    486.4133    746.6682 300.0880434 +22.7458432     517.3016       72.358      1.898     4.69     4.740326     20.40919     42.96141         7     0.865     0.721 -77.55   0
       101    497.2246    741.5380 300.0930760 +22.7476110      911.158     72.33958      1.689     3.59     4.719232     20.40919     97.36363        15     1.032     1.007  34.53   0
       102     56.9447    742.1930 299.9559199 +22.6157911     588.2252     72.33958      1.807     3.41     4.535536     20.40919     66.00011         8     1.015     0.624 -42.50   0
       103    898.6309    738.9674 300.2189941 +22.8671231     571.5587       72.358      1.722     6.28     4.783218     20.40919     62.04142        11     1.434     0.773 -33.76   0
       104    645.0646    739.5177 300.1397755 +22.7913313     294.7861     72.45005      2.258     4.16      4.63855     20.40919     34.28922         5     1.494     0.331 -28.14   1
       105    399.0785    737.9942 300.0636772 +22.7171772     339.3934     72.26584      1.353     4.84     4.800318     20.40919     35.20167         9     0.820     0.808 -50.19   0
       106    443.4889    736.0808 300.0781209 +22.7299396     463.9959     72.46844      1.836     5.36     4.729837     20.40919     36.80811         8     1.190     0.682 -84.30   0
       107     84.5828    735.7860 299.9665899 +22.6222439     664.0092     72.30272      2.323     6.29     4.580837     20.40919     57.80751        11     1.243     1.112 -30.99   0
       108    652.0432    735.3264 300.1433113 +22.7922186     337.8986     72.32115      1.521     4.35     4.656986     20.40919     42.19813         7     0.782     0.687  15.18   0
       109    249.5694    730.9695 300.0194467 +22.6703397     620.6386     72.32115      1.647     3.58     4.637673     20.40919     74.52758         9     1.136     0.601 -37.74   0
       110    572.3276    721.3921 300.1230071 +22.7643340     487.7076     72.32115      1.511     4.00     4.696745     20.40919     52.50753         7     0.978     0.572 -21.16   0
       111    541.9307    719.6829 300.1140962 +22.7547350     648.2178     72.45005      1.487     3.72     4.680659     20.40919     65.48712        14     1.080     0.891 -21.70   0
       112    451.3766    718.4919 300.0862900 +22.7272557     391.0043     72.26584      1.429     5.31     4.846906     20.40919     38.39937         9     1.194     0.666  26.95   0
       113    958.6971    716.1956 300.2451288 +22.8785660       4553.3     72.24739      1.777     3.84     4.788276     20.40919     323.5063        34     1.344     1.298  48.24   0
       114    564.1583    717.0049 300.1218881 +22.7606267     1302.061       72.358      1.449     3.30     4.711277     20.40919     127.6809        19     1.050     1.022 -43.22   0
       115    484.0132    716.4500 300.0971131 +22.7364508     285.4457     72.39484      1.414     4.03     4.880488     20.40919     49.68345         6     1.081     0.429  14.71   0
       116    645.6943    712.2604 300.1488268 +22.7836938     406.3608     72.43165      1.597     4.29     4.765294     20.40919     38.54097         7     0.948     0.553 -30.41   0
       117    947.2164    707.6566 300.2443213 +22.8726753     1651.445     72.30272      1.670     3.78     4.830621     20.40919     138.6101        24     1.243     1.168   3.40   0
       118    309.7945    701.0588 300.0478953 +22.6798145     848.4626     72.30272      1.548     4.49     4.995718     20.40919     90.00848        18     1.239     1.063  60.91   0
       119    176.0280    701.5971 300.0061200 +22.6398627     245.9899     72.28428      1.208     4.19     4.762546     20.40919     34.23029         5     1.101     0.455  61.19   0
       120    773.3360    698.7986 300.1929768 +22.8180622     2512.113     72.33958      1.677     3.33     4.817518     20.40919     239.1105        28     1.330     1.130  -2.58   0
       121    978.2272    697.6779 300.2572375 +22.8790922     1614.237     72.33958      1.722     4.31     4.824484     20.40919     111.3326        24     1.347     1.143   5.40   0
       122    855.5060    684.4014 300.2232719 +22.8385341     682.0015     72.24739      1.755     5.45     4.818135     20.40919     44.11987        11     0.991     0.845 -14.55   0
       123    158.7293    684.5387 300.0062826 +22.6297825     560.3016     72.37642      1.814     6.02     4.867787     20.40919     59.69553        12     1.431     0.971  47.94   0
       124    891.9287    675.7293 300.2374474 +22.8469486     149213.3     72.41325      1.646     3.50     4.858251     20.40919     12026.68       160     1.522     1.500  78.36   0
       125    654.4598    679.4257 300.1622234 +22.7768914     367.4431     72.33958      1.539     4.62     4.907011     20.40919     49.37313         7     0.887     0.703  25.99   0
       126    744.4037    675.8603 300.1914096 +22.8028086     904.6678     72.32115      1.617     4.15     4.887918     20.40919      85.1609        14     1.062     0.974  57.46   0
       127    924.6317    668.7377 300.2499185 +22.8547311     453.8716       72.358      1.612     5.06     4.920408     20.40919     46.00609         8     1.073     0.675  25.35   0
       128    578.1929    664.5851 300.1432861 +22.7497821     1646.555     72.24739      1.418     2.74     4.999993     20.40919     194.5696        22     1.122     1.039 -28.76   0
       129    759.3807    661.7796 300.2006512 +22.8032498     9541.883     72.33958      1.565     3.22     4.911966     20.40919     957.7807        48     1.332     1.261  14.34   0
       130    260.8018    656.7108 300.0470596 +22.6524027     4949.235     72.24739      1.644     3.42     5.010036     20.40919     526.7358        36     1.310     1.225  -0.91   0
       131    342.9137    654.9633 300.0731702 +22.6765150     1113.281     72.32115      1.509     3.40     5.146075     20.40919     132.0934        19     1.188     0.969  33.96   0
       132    218.6921    652.6742 300.0352747 +22.6386202     366.5885     72.48683      1.490     4.36     4.883667     20.40919     44.36174        10     1.061     0.730 -36.27   0
       133    551.2127    650.4980 300.1394586 +22.7376542      735.553     72.22894      1.518     3.37      5.00762     20.40919     94.43689        14     1.131     0.857 -30.63   0
       134    542.9075    642.5992 300.1394375 +22.7328980     3245.125     72.21048      1.498     2.91     5.020782     20.40919     353.5419        26     1.135     1.074  32.15   0
       135    533.1776    636.3959 300.1384221 +22.7282018     1337.879     72.30272      1.313     2.68     5.044722     20.40919     156.0775        14     0.956     0.833 -19.12   0
       136    926.4565    634.4439 300.2616259 +22.8454233      379.239     72.33958      1.520     3.96     4.964422     20.40919     39.02881         5     0.993     0.453  13.33   0
       137    196.7002    632.2731 300.0350613 +22.6261739     499.6448     72.48683      1.647     4.38     4.951972     20.40919     69.21972        14     1.077     1.032  66.73   0
       138    210.6130    630.9093 300.0398302 +22.6299536     657.3983     72.28428      1.625     3.53      4.92697     20.40919     93.01335        14     1.145     1.018 -58.76   0
       139    980.0933    627.8410 300.2805030 +22.8595817     467.7314       72.358      1.613     5.21     4.947279     20.40919     49.88982         8     1.181     0.729  33.57   0
       140    236.5750    627.4561 300.0490249 +22.6367459     716.7869     72.33958      1.848     4.34     4.945129     20.40919     63.37474         9     1.111     0.761 -42.14   0
       141    557.0737    626.8920 300.1489498 +22.7326323     444.4717     72.48683      1.332     2.71     5.055698     20.40919     54.17785         8     0.790     0.664  34.53   0
       142    457.7637    626.0071 300.1183162 +22.7026233     1808.212     72.33958      1.485     3.10     5.112515     20.40919     222.2298        21     1.094     1.062  67.35   0
       143     32.6580    622.5688 299.9872243 +22.5742019     759.0251       72.358      2.074     5.04     5.051846     20.40919      61.1778        14     1.465     1.053 -40.95   0
       144    111.7969    620.7538 300.0124072 +22.5974129     19810.91     72.32115      1.737     3.77     5.066107     20.40919     1997.016        63     1.490     1.404  34.60   0
       145    542.8056    621.1427 300.1463735 +22.7267069     1088.151     72.30272      1.537     3.74     5.065097     20.40919     119.6747        18     1.286     0.933  56.23   0
       146    578.7588    620.4335 300.1578007 +22.7372742     319.2076     72.39484      1.182     3.53     5.074643     20.40919     36.28268         5     0.779     0.462 -16.51   0
       147    913.9553    617.3943 300.2632634 +22.8367815     251.0866     72.33958      1.437     3.93     4.976372     20.40919     26.23658         5     0.906     0.489  -0.48   0
       148    960.8809    607.7399 300.2810367 +22.8480540     1104.705     72.39484      1.620     3.78      4.97247     20.40919     102.8676        19     1.171     1.077  21.06   0
       149     57.9221    605.0006 300.0007786 +22.5767393     1690.455     72.22894      2.181     5.33     5.015854     20.40919     101.9142        30     1.652     1.234 -87.74   0
       150    827.7204    606.1030 300.2400372 +22.8077195     390.8911     72.46844      1.635     4.45     4.964212     20.40919     47.11832         7     1.040     0.542   2.02   0
       151    124.3453    605.4764 300.0212679 +22.5967929     355.5151     72.37642      1.591     4.89     5.073882     20.40919     38.66982         8     0.924     0.733 -85.09   0
       152    506.0509    601.9279 300.1411679 +22.7101784     508.5491     72.33958      1.736     3.51     5.108446     20.40919     63.81888         7     0.927     0.792  73.00   0
       153    901.0861    600.4213 300.2647610 +22.8280516      1028.96     72.26584      2.398     7.83     4.999247     20.40919     88.08642        18     1.680     1.022  28.60   2
       154    299.1321    601.0327 300.0770619 +22.6479152     284.6982     72.33958      1.545     2.30     5.102742     20.40919     54.87881         7     0.804     0.642 -30.34   0
       155    463.0541    594.2506 300.1302745 +22.6950918     724.7964     72.37642      1.385     3.52     5.134411     20.40919     80.02034        13     1.036     0.872  35.40   0
       156    611.1316    592.8101 300.1768537 +22.7390390     509.2607     72.33958      1.399     2.97     5.227764     20.40919     61.54456        11     0.893     0.819 -45.49   0
       157    658.2499    591.5455 300.1919433 +22.7527886     378.9391     72.37642      1.629     4.15      5.16728     20.40919     51.39886         9     1.216     0.491   4.23   0
       158    628.7003    591.1146 300.1828771 +22.7438144     631.6405     72.50522      1.582     2.40     5.216832     20.40919     75.68532         9     0.862     0.650  18.48   0
       159    507.0581    589.9682 300.1453647 +22.7070462     907.5956       72.358      1.483     3.28     5.134469     20.40919     89.44525        12     0.945     0.833  21.22   0
       160    693.7732    589.0186 300.2038325 +22.7627017     162.6896       72.358      1.410     4.66     5.116636     20.40919     27.17082         5     0.953     0.647 -58.56   0
       161    941.0103    585.7988 300.2819623 +22.8358004     3370.591     72.15508      1.610     3.17     4.998501     20.40919     305.0253        32     1.269     1.197 -37.89   0
       162    198.4251    587.2518 300.0502154 +22.6137736      4467.26       72.358      0.727     0.90     4.996417     20.40919     1927.265         7     0.523     0.452  -3.49   0
       163    472.5906    585.4847 300.1360894 +22.6954324     1801.392     72.28428      1.509     2.78     5.147586     20.40919     234.8902        20     1.095     1.070 -13.35   0
       164    838.0624    583.3857 300.2506382 +22.8042887     258.4358     72.30272      1.515     3.90     5.023002     20.40919     33.44763         5     0.905     0.483  -4.70   0
       165    822.9168    581.9780 300.2463729 +22.7993497     270.6303     72.30272      1.300     2.87     5.002178     20.40919     35.18407         5     0.622     0.595  -3.25   0
       166     34.5753    578.8870 300.0020018 +22.5622481     5076.575     72.28428      1.806     4.02     4.991991     20.40919     473.7242        38     1.417     1.340  39.14   0
       167    501.7096    576.3643 300.1481162 +22.7015378     338.2198     72.32115      1.308     4.25     5.165199     20.40919     42.93887         7     0.851     0.700 -55.64   0
       168    980.3116    576.1067 300.2973704 +22.8447780     308.9642     72.50522      1.207     4.34     4.951809     20.40919     43.08009         6     0.979     0.548  23.67   0
       169    336.0695    572.1550 300.0979287 +22.6506975     9279.191     72.30272      1.467     2.98     5.033259     20.40919     966.4344        41     1.291     1.172  51.04   0
       170    458.5511    569.2798 300.1369798 +22.6865735     9019.236       72.358      1.425     2.74     5.170856     20.40919     1079.516        37     1.184     1.130  82.50   0
       171    704.9688    566.1390 300.2147497 +22.7594823     248.1979     72.37642      1.171     3.02     5.173069     20.40919     38.61808         6     0.888     0.460  32.58   0
       172    870.0178    563.5197 300.2670530 +22.8081467     1993.493     72.33958      1.571     2.89     5.131252     20.40919     197.9026        25     1.305     1.090  37.40   0
       173    954.9037    560.8622 300.2943929 +22.8327918     12674.04     72.43165      1.585     3.24     4.988431     20.40919     1127.555        53     1.351     1.329 -68.38   0
       174    519.1097    558.8945 300.1592055 +22.7017342     11622.38      72.5236      1.429     2.89     5.201661     20.40919     1320.052        42     1.218     1.150  64.57   0
       175    688.5512    555.1758 300.2131928 +22.7514165     460.9836     72.33958      1.232     2.41     5.256762     20.40919     65.77384        10     0.882     0.686  -3.74   0
       176    246.5938    554.2931 300.0758941 +22.6187545     1434.032     72.22894      1.696     2.98     4.958963     20.40919     150.6186        18     1.132     0.983  84.09   0
       177    404.4984    553.4155 300.1253056 +22.6658235     352.6508     72.24739      1.267     2.86     5.115959     20.40919     62.79467         7     0.929     0.499 -87.25   0
       178    493.5045    552.0633 300.1534507 +22.6921021     346.9025     72.43165      1.253     2.58     5.217329     20.40919     57.90269         8     0.818     0.659  38.06   0
       179    793.6274    547.3873 300.2484716 +22.7806417     704.2511     72.33958      1.292     2.79     4.997572     20.40919     89.63332        11     0.908     0.741  -1.00   0
       180    450.8300    546.9763 300.1418168 +22.6778566      4444.45     72.33958      1.428     3.02      5.19202     20.40919     521.4395        31     1.179     1.129  86.49   0
       181    429.0152    545.4574 300.1355195 +22.6708846     1286.062     72.32115      1.439     3.08     5.166327     20.40919     163.5768        20     1.147     1.024 -87.14   0
       182    870.7243    542.5313 300.2740872 +22.8023266     1704.519     72.41325      1.741     3.64     5.191895     20.40919     161.7107        24     1.318     1.147 -36.24   0
       183    567.4503    534.6478 300.1821304 +22.7092514     207317.5     72.37642      1.429     2.54     5.421645     20.40919     28177.07       190     1.467     1.386  -9.19   0
       184    970.5942    541.6147 300.3055368 +22.8319554     206.0145     72.22894      1.398     4.20     4.950725     20.40919     28.86093         5     1.034     0.487  86.00   0
       185    390.8364    540.6911 300.1251843 +22.6580770     259.4148     72.32115      1.398     5.35     5.070377     20.40919     57.23548         9     1.051     0.800   1.88   0
       186    751.0226    539.6620 300.2376985 +22.7656660     839.5482     72.32115      1.422     3.25     5.097508     20.40919     113.6031        17     1.144     0.970  28.85   0
       187    253.4926    534.4871 300.0844688 +22.6151381     3606.199     72.50522      1.555     2.92     4.950531     20.40919     429.6051        31     1.218     1.173 -68.53   0
       188    819.7387    535.9881 300.2603128 +22.7851835     336.8408     72.30272      1.623     3.88     5.038526     20.40919     29.13262         5     0.843     0.512 -39.87   0
       189    183.3619    544.7443 300.0593309 +22.5970610     797.7733     72.33958      1.605     2.98      5.04567     20.40919     102.5783        13     0.988     0.900  19.17   0
       190    819.7516    530.8890 300.2619721 +22.7837221     540.5684     72.32115      1.479     3.25     5.031602     20.40919     60.89586         8     0.865     0.745 -85.58   0
       191    599.1454    521.1774 300.1963749 +22.7148755     247.1494       72.358      1.170     2.72     5.618707     20.40919     41.30652         6     0.731     0.559  58.65   0
       192    458.0539    514.8551 300.1544919 +22.6707978     2687.297     72.37642      1.452     2.75     5.205764     20.40919     325.7679        24     1.111     1.021 -82.99   2
       193    301.9533    517.3249 300.1051131 +22.6247354     427.1333     72.33958      1.382     5.05     4.936275     20.40919     54.15049         9     1.115     0.920  66.55   0
       194    775.2996    504.2572 300.2567583 +22.7627616     392.7972     72.43165      1.192     1.82     4.998213     20.40919     57.39239         5     0.677     0.428   9.84   0
       195    854.9167    501.1802 300.2825804 +22.7857109     1668.647     72.28428      1.449     3.39      5.02827     20.40919     162.8329        22     1.124     1.085  57.57   0
       196    726.2440    498.8678 300.2432171 +22.7465263     2562.834     72.32115      1.410     2.70     5.081464     20.40919     301.6207        22     1.096     0.956  54.44   0
       197     85.6110    499.2358 300.0437147 +22.5547000     258.6405     72.33958      1.432     5.13     5.020775     20.40919     29.99203         5     1.045     0.711 -12.82   0
       198    970.5481    496.5289 300.3201575 +22.8189812     527.4548     72.33958      1.605     3.53     4.771375     20.40919     59.47813        11     0.958     0.856 -59.04   3
       199    969.3900    492.1145 300.3212290 +22.8173656     852.5575     72.28428      1.678     4.50     4.752083     20.40919      64.4071        15     1.211     0.938 -42.26   2
       200    631.2381    495.4227 300.2147315 +22.7170886      417.355       72.358      1.451     5.28     5.567281     20.40919     48.00696         9     0.946     0.833  26.75   0
       201    935.8627    495.3738 300.3097116 +22.8082692     277.7306     72.33958      1.324     4.61      4.77757     20.40919     37.84728         6     0.981     0.615  34.99   0
       202    513.6128    494.6043 300.1783621 +22.6816254     789.7694     72.19202      1.608     3.11     5.419564     20.40919     97.58919        12     0.993     0.849 -86.97   0
       203    983.6824    492.9189 300.3254272 +22.8218739     1300.197     72.48683      1.555     3.77     4.750923     20.40919      115.406        18     1.167     0.990  29.15   0
       204    855.4044    491.3899 300.2859101 +22.7830431      2233.13     72.17355      1.661     3.75     4.993812     20.40919     220.4565        23     1.360     1.032  81.92   0
       205    608.6758    489.6388 300.2095800 +22.7086706     526.1856     72.30272      1.201     2.62     5.688223     20.40919     73.78818        10     0.815     0.805   1.33   0
       206    394.2761    489.5466 300.1428547 +22.6444239     254.5629     72.37642      1.121     3.52     5.076353     20.40919     44.25144         5     0.824     0.434 -20.34   0
       207    893.5930    486.4122 300.2994354 +22.7930426     4356.024     72.22894      1.553     2.77     4.867624     20.40919     523.0779        34     1.245     1.197 -76.08   0
       208    447.3680    488.2680 300.1597945 +22.6599622     306.6329     72.33958      1.241     3.43     5.196453     20.40919     45.53758         5     0.773     0.440  71.83   0
       209    553.9891    482.1784 300.1949681 +22.6901499     316.2753     72.32115      1.302     2.82     5.690628     20.40919     55.99868         8     0.799     0.743  14.97   0
       210    985.3113    477.1436 300.3310555 +22.8178260     692.1074     72.37642      1.467     3.21     4.708466     20.40919     79.15006        15     1.040     0.940 -16.78   0
       211    125.5789    476.5123 300.0635117 +22.5601608     996.3828     72.26584      1.727     2.97      5.00191     20.40919     110.0435        18     1.067     1.047  17.81   0
       212    786.2475    470.3108 300.2711887 +22.7562841     365.6286     72.30272      1.536     3.72     4.967294     20.40919     39.64862         5     0.923     0.430  46.20   0
       213    981.9276    465.6736 300.3337222 +22.8135159     479.8435     72.39484      1.709     6.29     4.712038     20.40919     38.71463        10     1.290     0.861 -55.34   0
       214    118.1552    466.4039 300.0644842 +22.5550349     437.4855       72.358      1.427     3.50       4.9901     20.40919     52.52611         7     0.916     0.662  -6.18   0
       215    725.7737    461.2546 300.2552775 +22.7355779     441.7241       72.358      1.216     2.40     5.028413     20.40919     80.09364         7     0.843     0.548 -52.43   0
       216    335.1480    459.3369 300.1342591 +22.6180352     247.3481     72.39484      1.242     2.20     4.923864     20.40919     43.90905         5     0.727     0.424  20.64   0
       217    614.6370    458.7968 300.2214461 +22.7015959     196.8225     72.37642      1.105     3.46     5.584015     20.40919     42.82763         5     0.926     0.393  -6.05   0
       218    666.9179    456.8338 300.2383712 +22.7166864     786.5315     72.30272      1.382     2.64     5.301509     20.40919     120.3364        12     0.902     0.857 -76.76   0
       219    646.0093    455.1511 300.2324027 +22.7099425       235.87       72.358      1.286     3.83     5.405889     20.40919     30.68882         5     0.823     0.512 -56.65   0
       220    981.7729    449.7951 300.3388269 +22.8089044     628.7217     72.30272      1.451     3.39     4.716766     20.40919     68.33094         8     0.941     0.578  -5.22   0
       221    727.7374    449.1013 300.2598334 +22.7326736      799.138     72.43165      1.359     2.76     5.010744     20.40919      88.0862        15     0.995     0.884  12.57   0
       222    884.9999    445.5180 300.3100267 +22.7787160     906.7335     72.21048      1.424     3.43     4.864732     20.40919     99.53561        18     1.170     0.994  46.60   0
       223    869.3478    441.7736 300.3063604 +22.7729553     616.3845       72.358      1.278     2.63     4.895092     20.40919     91.87101        11     0.935     0.736  17.06   0
       224    850.5074    441.5726 300.3005502 +22.7672589      334.307     72.28428      1.230     3.72     4.916436     20.40919     37.61787         6     0.966     0.411 -18.33   0
       225    613.3954    439.6136 300.2272841 +22.6957131     3245.406     72.21048      1.350     2.45     5.525186     20.40919     452.9348        24     1.072     1.003  86.54   0
       226    973.6609    438.8344 300.3398527 +22.8033258     435.3736       72.358      1.396     4.22     4.729043     20.40919     57.36999        10     1.289     0.742  19.41   0
       227    618.8732    427.4932 300.2329233 +22.6938712     267.3979     72.46844      1.326     3.68     5.447382     20.40919     41.77975         5     0.870     0.537  48.03   0
       228    385.0750    427.1776 300.1602296 +22.6237590     353.8794     72.33958      1.427     4.11     5.071747     20.40919     42.04472         6     1.185     0.406 -34.22   0
       229    453.2083    426.3871 300.1816926 +22.6439410     301.9194     72.22894      1.448     4.35      5.21679     20.40919      41.6164         6     0.759     0.710 -66.44   0
       230   1023.7426    418.7910 300.3619838 +22.8125466     526.8387     55.80039      1.121     2.76     4.655975     20.40919     125.4725         9     1.209     0.429  85.84  24
       231    896.9049    418.8051 300.3224077 +22.7745996     480.1161     72.24739      1.259     2.45     4.842332     20.40919     81.68898         8     0.883     0.593  54.32   0
       232    983.3305    417.6725 300.3497363 +22.8001344     1019.675     72.41325      1.619     3.51      4.72453     20.40919     106.9299        15     1.102     0.915  27.37   0
       233    633.6462    415.3087 300.2414789 +22.6947937     339.6248     72.32115      1.361     3.45     5.336138     20.40919     41.06591         5     0.765     0.450 -74.93   0
       234    724.2267    413.6779 300.2702333 +22.7214431      1075.05     72.33958      1.244     2.83     4.998416     20.40919     164.9886        14     0.928     0.900  -3.65   0
       235    519.9589    414.2264 300.2064204 +22.6604400     332.9514     72.39484      1.150     2.25     5.363131     20.40919     67.18347         8     0.777     0.638  42.44   0
       236    228.1206    411.6680 300.1164333 +22.5722814     676.9297     72.45005      1.489     3.51     4.870049     20.40919     78.44518        11     0.980     0.816  89.76   0
       237    290.4399    407.3784 300.1372083 +22.5897226      3676.13     72.37642      1.449     2.65       4.9597     20.40919     438.6812        27     1.145     1.089  46.86   0
       238     68.2152    409.3220 300.0674826 +22.5236853     210.4951       72.358      1.051     3.81     4.948296     20.40919     42.55744         5     0.903     0.462  47.35   0
       239   1023.0957    406.1538 300.3658822 +22.8087191     3297.983     59.49971      1.298     3.04     4.680898     20.40919     453.7426        21     1.206     0.836  79.43  24
       240    237.6325    402.0494 300.1225119 +22.5723704     7751.651     72.37642      1.510     2.83     4.890117     20.40919      930.264        42     1.303     1.189  51.94   0
       241   1003.6390    397.2628 300.3626952 +22.8003416     1909.575     72.33958      1.543     2.97     4.722953     20.40919     188.3761        23     1.135     1.088  77.70   0
       242    378.4513    396.2621 300.1681982 +22.6128971     4957.137     72.39484      1.394     2.58     5.081367     20.40919     602.6924        31     1.180     1.071  58.71   0
       243    622.7105    393.1533 300.2452600 +22.6851538     18797.74     72.32115      1.355     2.49      5.36263     20.40919     2319.143        49     1.217     1.122  69.42   0
       244   1021.9394    393.9892 300.3694681 +22.8048750      138.706       65.105      1.185     3.75     4.709085     20.40919     26.64705         5     1.016     0.398  30.37  16
       245    640.2452    393.4361 300.2506310 +22.6904849     712.8593     72.37642      1.718     5.81     5.309867     20.40919     77.37897        13     1.392     0.682 -41.78   0
       246    470.1627    394.6684 300.1972612 +22.6399090     382.0204     72.32115      1.228     2.66     5.167865     20.40919     45.15826         5     0.727     0.444 -15.76   0
       247    615.9192    401.5738 300.2404125 +22.6855398     220.7804     72.32115      1.138     4.16     5.400054     20.40919      40.3345         5     0.886     0.558  40.68   0
       248    866.6252    389.5062 300.3224700 +22.7571155     156.3824     72.26584      1.149     4.04     4.805747     20.40919     41.84225         5     0.954     0.488  -7.58   0
       249    819.8141    383.8090 300.3097212 +22.7414690    -188.5912     72.24739     -7.284     3.69     4.859872     20.40919      44.5323         7     0.873     0.580 -27.75   0
       250    242.7559    380.1484 300.1312099 +22.5676181     380.5825     72.37642      1.758     4.13     4.926964     20.40919     41.75496         6     1.093     0.446 -24.86   0
       251    956.3724    375.8660 300.3548891 +22.7800478     717.3876     72.32115      1.502     3.85     4.784694     20.40919     85.19142        13     1.093     0.842 -35.25   0
       252    493.2235    375.4365 300.2106797 +22.6412910     370.8915       72.358      1.357     3.50     5.157645     20.40919     37.44598         5     0.812     0.436  20.14   0
       253    177.3763    373.1172 300.1131595 +22.5460094     2135.071     72.30272      1.603     2.81     4.910603     20.40919     253.9093        25     1.245     1.096  68.24   0
       254    665.8199    374.0365 300.2648927 +22.6925669     198.9676       72.358      1.369     4.66     5.269742     20.40919      35.0815         6     1.082     0.640  26.89   0
       255    977.0500    363.2088 300.3654465 +22.7825943     1167.302     72.33958      1.418     3.03     4.785566     20.40919     136.3748        15     0.999     0.955  20.36   0
       256    563.3563    362.5010 300.2367152 +22.6585757     6718.146     72.33958      1.352     2.47     5.313467     20.40919     928.9391        36     1.206     1.062  76.75   0
       257    278.1101    361.7710 300.1481674 +22.5729339     726.0338     72.32115      1.460     2.62     5.111138     20.40919     89.75386        11     0.938     0.732 -82.73   0
       258    822.9827    354.6562 300.3201662 +22.7340368     411.7282     72.30272      1.592     3.29     4.788985     20.40919     41.71116         7     0.828     0.612 -22.87   0
       259    135.6588    354.9045 300.1060970 +22.5282804     615.7754     72.41325      1.713     3.24     4.934229     20.40919     84.92753         8     0.931     0.764  20.25   0
       260    767.4592    351.6492 300.3038313 +22.7165559     1198.054     72.39484      1.582     2.77     4.844193     20.40919     143.4102        18     1.218     0.845  64.16   0
       261    676.9263    352.8008 300.2752418 +22.6897890     561.7271     72.22894      1.466     2.48     5.286648     20.40919     80.68772         9     0.806     0.717  74.94   0
       262    469.9865    348.7483 300.2121019 +22.6266660     6282.191     72.37642      1.382     2.62     5.068416     20.40919     852.9427        31     1.168     1.052  75.67   0
       263    861.9478    343.4790 300.3359422 +22.7424833      1470.99     72.33958      1.540     3.12      4.73561     20.40919      160.875        23     1.268     1.053  68.44   0
       264    959.4326    344.0049 300.3661792 +22.7718014      605.205     72.32115      1.302     2.57     4.793238     20.40919     86.80457        10     0.980     0.601  23.13   0
       265    454.7293    337.6196 300.2109616 +22.6189002     471.8375       72.358      1.344     2.67      5.10565     20.40919     59.04369         8     0.854     0.612  -1.45   0
       266    536.9246    335.4408 300.2372606 +22.6428870     454.1219     72.32115      1.145     2.48     5.300994     20.40919      68.1893         7     0.792     0.587  30.03   0
       267    517.7161    333.4701 300.2319182 +22.6365694     269.7912     72.46844      1.131     3.34     5.244725     20.40919     44.99241         5     0.726     0.473 -16.83   0
       268    834.6777    331.0411 300.3314726 +22.7307474     617.2353     72.32115      1.520     4.48     4.778677     20.40919     68.73175         9     1.096     0.724  56.01   0
       269    357.3805    327.9180 300.1838095 +22.5869583      2575.22     72.32115      1.438     2.83     5.251682     20.40919     351.9348        28     1.233     1.072  56.23   0
       270     76.0345    325.4109 300.0971293 +22.5019468     1082.351     72.32115      1.514     3.87     5.200224     20.40919     115.0955        19     1.261     1.005 -55.02   0
       271    326.8580    317.3626 300.1777355 +22.5747846     29964.36     72.33958      1.466     2.78     5.311898     20.40919     3573.783        65     1.327     1.215  67.01   0
       272    304.3080    321.3188 300.1694368 +22.5691661    -188.0697     72.48683      1.126     4.00     5.321434     20.40919     29.20539         6     0.899     0.510 -42.08   0
       273    861.5322    315.2562 300.3449664 +22.7342444     1349.305       72.358      1.297     2.55     4.763911     20.40919      159.112        17     1.002     0.901 -65.83   0
       274     23.1172    305.0133 300.0872995 +22.4802335     4915.552     72.32115      1.712     3.29     5.415814     20.40919     510.5071        38     1.467     1.242  50.69   0
       275    820.1942    305.0030 300.3354013 +22.7189275     59.84582     72.15508      0.861     2.50     4.804051     20.40919     39.61678         5     0.773     0.479 -33.30   0
       276    776.7955    304.3227 300.3220915 +22.7057454     539.8643     72.24739      1.411     2.78     4.836383     20.40919     63.94556         7     0.812     0.595  29.34   0
       277    201.2809    303.9254 300.1430328 +22.5333077     496.2316     72.45005      1.459     3.67     5.337276     20.40919      55.9588         8     0.951     0.638 -17.93   0
       278    425.7737    302.7531 300.2132557 +22.6002133     510.2696     72.37642      1.389     4.04      5.22183     20.40919     67.61147        10     1.069     0.779  36.40   0
       279    737.4135    297.1909 300.3121283 +22.6919097      1903.14     72.24739      1.436     2.84     4.867626     20.40919      211.397        20     1.065     1.014  36.59   0
       280    952.5220    290.0152 300.3815336 +22.7542075     593.9854       72.358      1.560     4.17     4.796853     20.40919      72.6247        17     1.312     0.969  69.54   0
       281    545.8248    291.5489 300.2542666 +22.6329404     424.8526       72.358      1.623     3.43     5.452292     20.40919     45.42605         5     0.810     0.661  36.55   0
       282    399.1381    281.8492 300.2117439 +22.5862321     2202.778     72.39484      1.580     3.14     5.290192     20.40919     233.9847        28     1.467     0.965  60.56   0
       283    611.5387    280.7809 300.2782266 +22.6495182     373.9881     72.30272      1.126     2.22      5.45324     20.40919     51.07041         5     0.685     0.467  69.61   0
       284    838.3505    274.9964 300.3507934 +22.7157325     530.6208     72.33958      1.243     2.86     4.839572     20.40919     90.03891        11     0.894     0.860 -61.00   0
       285    720.5264    272.5119 300.3148677 +22.6797617     379.1159     72.48683      1.184     3.32     5.062342     20.40919     52.73222         6     0.889     0.437  71.75   0
       286    737.8821    272.6401 300.3202356 +22.6849924     306.6519     72.30272      1.339     3.54     4.959063     20.40919     42.38158         5     0.795     0.455  13.65   0
       287    688.5711    271.9872 300.3050791 +22.6700474     329.3296     72.33958      1.412     2.47     5.269167     20.40919     44.90414         5     0.738     0.547   1.71   0
       288    798.8862    265.3055 300.3416308 +22.7011382     263.0056      72.5236      1.403     4.10     4.975393     20.40919     45.20565         6     1.264     0.606  72.38   0
       289    474.9991    261.1443 300.2420715 +22.6029994     1128.446     72.26584      1.289     2.70     5.274325     20.40919     141.4172        19     1.096     0.941  29.48   0
       290     48.4771    261.7141 300.1092189 +22.4754053     296.5323     72.45005      1.268     3.08     5.780689     20.40919     41.09499         5     0.733     0.440  66.26   0
       291    857.8646    254.7048 300.3634583 +22.7157360     352.9951     72.45005      1.318     4.13     4.816284     20.40919      46.2959         6     1.095     0.444  -5.88   0
       292    719.7943    253.2533 300.3208840 +22.6740063     2239.745     72.30272      1.380     2.46     5.153234     20.40919     273.7009        22     1.060     1.016  18.73   0
       293    981.2149    247.6144 300.4042348 +22.7505946      3287.27     72.28428      1.598     2.99     4.796932     20.40919     372.6733        30     1.290     1.122 -71.97   0
       294    352.6283    238.6820 300.2112658 +22.5599040      230.407       72.358      1.113     3.80     5.348002     20.40919     42.36705         5     0.997     0.416  13.37   0
       295    428.1689    236.9684 300.2353312 +22.5820318     631.0566     72.33958      1.336     2.55     5.268852     20.40919     80.62172         9     0.812     0.710 -87.61   0
       296    102.9219    230.9748 300.1361053 +22.4828943     1468.579     72.33958      1.727     4.41     5.807752     20.40919     123.8115        23     1.370     1.170 -52.65   0
       297    133.6765    231.1819 300.1455983 +22.4921678     676.6984     72.33958      1.427     3.41     5.746611     20.40919     73.00057        10     0.960     0.712  -4.62   0
       298    996.9048    228.2867 300.4153970 +22.7497273     603.2715      72.5236      1.483     3.26     4.796932     20.40919     69.32175        10     1.048     0.618  39.62   0
       299    840.6697    225.3063 300.3676277 +22.7021378     305.0756     72.46844      1.194     3.54      4.95642     20.40919     45.00688         5     0.934     0.423 -12.68   0
       300    186.8683    223.2521 300.1647068 +22.5058256     339.9468     72.33958      1.380     3.20     5.656752     20.40919      49.6294         8     0.895     0.616   4.34   0
       301    851.1220    228.8062 300.3697525 +22.7062712     242.3134     72.26584      1.543     4.96     4.880879     20.40919     32.28286         6     1.135     0.613  13.79   0
       302     42.9623    220.8335 300.1207578 +22.4620176     308.7661     72.37642      1.437     4.00     6.155865     20.40919     34.69279         6     0.948     0.483 -32.91   0
       303    863.5650    217.3105 300.3773598 +22.7066876     290.8925     72.32115      1.023     1.98     4.872501     20.40919     67.27036         5     0.695     0.458  -7.36   1
       304    791.4188    214.7321 300.3556994 +22.6843625     661.8331     72.33958      1.417     2.61     5.242877     20.40919     93.89011        11     0.953     0.771 -57.42   0
       305    381.8117    214.2016 300.2282834 +22.5616104     419.2037     72.15508      1.509     2.37      5.32471     20.40919     52.55976         6     0.758     0.509 -44.40   0
       306    882.2659    207.9897 300.3862138 +22.7096010     297.2148     72.30272      1.125     2.50     4.959939     20.40919     46.92329         5     0.773     0.464 -23.78   0
       307    889.7090    203.6838 300.3899311 +22.7105890     2054.955     72.48683      1.494     2.51     5.002806     20.40919      276.213        20     1.070     1.036  45.29   0
       308    308.1394    200.7326 300.2097253 +22.5356799     2231.121     72.37642      1.497     2.80     5.508425     20.40919     265.7841        22     1.145     1.043  71.60   0
       309    787.9647    195.6876 300.3607962 +22.6778528      457.234     72.32115      1.255     2.87     5.256481     20.40919     68.99763         9     0.790     0.777  42.38   0
       310    385.8850    196.0790 300.2354255 +22.5576235     985.2205     72.48683      1.391     3.08     5.343874     20.40919     120.5614        14     1.161     0.803 -10.60   0
       311    433.0031    192.8378 300.2511416 +22.5707996     353.0868     72.37642      1.728     3.99     5.330803     20.40919     28.78909         5     0.858     0.531  56.12   0
       312    895.1259    192.2544 300.3953256 +22.7089219     506.4333       72.358      1.396     3.57     5.125962     20.40919     46.83717         8     0.829     0.662 -35.39   0
       313    321.4837    187.4960 300.2181674 +22.5358737     353.0461     72.52361      1.636     3.67      5.49468     20.40919     32.38298         6     0.929     0.418  70.70   0
       314    202.8949    188.0170 300.1811115 +22.5005075      831.561     72.26584      1.644     4.23     5.728809     20.40919     73.25433        12     1.110     0.849 -71.75   0
       315    740.7563    185.0200 300.3495377 +22.6606612     1784.733     72.37642      1.402     2.47     5.264357     20.40919     236.3334        21     1.125     0.916  72.96   0
       316    806.0471    184.7156 300.3699903 +22.6801073     632.3226     72.32115      1.603     3.50     5.257599     20.40919     77.67445         7     1.141     0.467 -31.92   0
       317    224.4451    181.4488 300.1899421 +22.5050757     480.2673     72.37642      1.230     2.88     5.668358     20.40919     64.95065        10     0.964     0.688 -34.94   0
       318   1012.0717    177.7318 300.4365185 +22.7397189     855.7621     72.37642      1.487     2.48     4.996271     20.40919     109.8363        12     0.934     0.756  48.61   0
       319    744.6048    176.3922 300.3535339 +22.6593319     915.6624     72.19202      1.668     3.04     5.270801     20.40919     91.05933        15     1.054     0.903  79.21   0
       320    514.4837    177.4733 300.2814895 +22.5907764     310.9304     72.45005      1.150     3.72     5.394587     20.40919     48.31637         6     0.916     0.453 -15.29   0
       321    665.4296    175.7535 300.3290659 +22.6354579     1170.028       72.358      1.384     2.64     5.447453     20.40919     161.5079        17     1.038     0.936  31.05   0
       322    860.7175    167.2471 300.3927000 +22.6914373     1476.998       72.358      1.412     2.81     5.348186     20.40919     187.4692        22     1.175     1.017  75.96   0
       323    591.5865    167.4761 300.3087431 +22.6109802     827.6589       72.358      1.212     2.62     5.452732     20.40919     117.5432        14     0.932     0.868  54.45   0
       324    872.8293    166.3582 300.3967653 +22.6948044     928.7444       72.358      1.632     3.39      5.36956     20.40919     94.38875        17     1.181     0.977  65.25   0
       325    431.8302    163.5660 300.2602639 +22.5620374     187.8991       72.358      1.051     3.56      5.38662     20.40919     32.88705         5     0.862     0.541 -50.75   0
       326    989.5307    156.8146 300.4362644 +22.7269605     1103.188       72.358      1.558     3.05     5.193726     20.40919     122.1253        16     1.016     0.972  30.79   0
       327     12.8267    153.5340 300.1332057 +22.4336678     278.9824     72.32115      1.215     4.16     6.886336     20.40919     39.10807         7     1.024     0.483  -7.84   0
       328    892.2263    149.4353 300.4083000 +22.6957382     292.4261     72.33958      1.583     5.28     5.459186     20.40919     27.97254         5     1.072     0.736  74.76   0
       329    223.5811    149.4557 300.2000419 +22.4956278     721.3798     72.32115      1.531     3.70     5.784018     20.40919     105.1942        14     1.139     0.911  42.69   0
       330     85.4455    144.2328 300.1587871 +22.4527529     2295.457     72.39484      1.667     3.20     6.330788     20.40919     240.7916        29     1.369     1.118  46.86   0
       331    908.5538    141.5393 300.4159518 +22.6983500      730.935       72.358      1.420     4.13     5.483617     20.40919     91.02516        16     1.232     0.968 -88.03   0
       332     35.4745    141.5779 300.1441175 +22.4370204      474.229     72.33958      1.576     3.67     6.714169     20.40919     58.17837         9     1.098     0.618  10.31   0
       333    242.7860    137.5774 300.2098641 +22.4979673     5608.608     72.32115      1.566     2.95     5.828475     20.40919     682.3035        39     1.361     1.169  71.12   0
       334    224.7061    138.3361 300.2039952 +22.4927708     396.8021     72.45005      1.555     3.55     5.839225     20.40919     48.16867         7     0.961     0.769 -21.14   0
       335     26.8273    131.7868 300.1446031 +22.4316186     1320.748     72.33958      1.832     4.20     6.774137     20.40919     145.1257        24     1.551     1.182  48.74   0
       336    226.4391    128.4859 300.2077260 +22.4904604     606.6533     72.32115      1.346     3.62     5.892385     20.40919     87.33365        10     1.091     0.740 -61.92   0
       337    887.0084    119.3459 300.4164237 +22.6855222      3498.56     72.33958      1.492     2.84      5.51479     20.40919     473.7009        31     1.287     1.106  83.80   0
       338    990.7466    118.2738 300.4491342 +22.7162351     2720.446       72.358      1.554     2.78     5.373867     20.40919     306.1205        27     1.240     1.122  85.46   0
       339    436.6050    114.4417 300.2776695 +22.5493499     689.6392       72.358      1.488     3.17     5.370239     20.40919     86.21159        10     0.940     0.824 -63.69   0
       340    189.4159    115.5680 300.2003983 +22.4756623     286.7108     72.32115      1.103     3.92     6.070068     20.40919     40.32124         6     0.894     0.492  -4.39   0
       341    551.1813    112.4119 300.3140026 +22.5830595     332.1229     72.30272      1.315     3.43      5.44773     20.40919     35.48946         5     0.741     0.458  18.03   0
       342    362.3247    105.5653 300.2574265 +22.5245628     943.6992     72.32115      2.526     8.51     5.391456     20.40919     75.94468        21     2.281     0.888 -18.32   0
       343    126.7317    103.4577 300.1848327 +22.4534102     646.8423       72.358      1.571     3.67     6.245435     20.40919     72.49117         9     0.989     0.648 -28.27   0
       344    487.7811    101.8734 300.2976743 +22.5610556     1761.204     72.33958      1.380     2.27     5.334794     20.40919     255.0699        20     1.032     0.987  84.80   0
       345    415.9673    102.3517 300.2751628 +22.5396977     421.0192     72.37642      1.348     3.68     5.383084     20.40919     50.83032         7     0.723     0.691 -10.20   0
       346    549.7349    101.2144 300.3171804 +22.5794077      427.357     72.32115      1.606     4.59     5.444431     20.40919      47.7194         8     0.879     0.716   9.53   0
       347    231.8097     97.2164 300.2195281 +22.4830863     410.5318     72.26584      1.564     3.09     6.049059     20.40919      47.4038         6     0.884     0.451 -34.31   0
       348    776.1609     91.4095 300.3909110 +22.6443328     343.5385     72.33958      1.362     2.99       5.5975     20.40919     49.88075         6     0.695     0.665 -37.24   0
       349    133.4411     87.7548 300.1920060 +22.4509097     340.9521     72.41325      1.640     4.77     6.239126     20.40919     30.50468         6     1.051     0.614 -34.34   0
       350    922.2675     86.0461 300.4382121 +22.6864863     294.4138     72.32115      1.396     4.51     5.625881     20.40919     33.62071         6     1.014     0.633  40.24   0
       351    672.7599     83.1342 300.3613642 +22.6110208     284.2243     72.30272      1.303     4.76     6.078355     20.40919     31.24488         7     0.955     0.672 -80.75   0
       352    261.8055     81.4004 300.2339820 +22.4875244     6073.722     72.15508      1.573     3.01     6.009134     20.40919     759.9161        42     1.415     1.206  87.32   0
       353    112.9321     80.9843 300.1878238 +22.4428227     589.5977     72.32115      1.453     3.21     6.246772     20.40919     76.50164        12     0.980     0.929  54.21   0
       354    233.8020     75.6248 300.2271429 +22.4774801     365.0706     72.28428      1.506     3.69     6.048905     20.40919     41.76266         7     0.824     0.699 -72.61   0
       355    768.8588     82.2621 300.3915985 +22.6395177     363.6831     72.39484      1.465     3.33     5.659876     20.40919     40.94742         6     0.749     0.564 -39.48   0
       356    737.8088     73.1903 300.3848587 +22.6276207     265.1569     72.22894      1.533     3.58     5.737089     20.40919     42.29324         5     0.904     0.412 -44.98   0
       357     24.0435     71.6902 300.1632087 +22.4135288     445.3384     72.33958      1.406     5.27     6.503263     20.40919     48.72662         8     1.203     0.653 -32.44   0
       358    507.9770     66.9060 300.3152919 +22.5570487     6192.821     72.24739      1.443     2.92      5.44085     20.40919     788.4175        33     1.266     1.116  83.39   0
       359    393.3210     66.8136 300.2796280 +22.5227057     573.8049     72.33958      1.358     3.06     5.329326     20.40919     85.89892        12     0.955     0.865  41.74   0
       360    565.0468     61.5756 300.3347918 +22.5725942      293.589       72.358      1.041     2.28     5.755326     20.40919     50.81604         6     0.745     0.492   4.55   0
       361    760.4202     57.0943 300.3971217 +22.6297548     794.0609     72.26584      1.493     2.34     5.838285     20.40919      109.796        10     0.824     0.773  49.04   0
       362    701.5228     58.1210 300.3784313 +22.6124324     309.3909     72.45005      1.487     2.59     5.990933     20.40919     41.90255         5     0.734     0.464 -70.98   0
       363    852.8094     55.7369 300.4263678 +22.6569958     509.8648     72.30272      1.459     3.49     5.810051     20.40919     58.98442         9     0.849     0.768  65.19   0
       364    161.4053     52.7471 300.2120409 +22.4492291      142.862     72.32115      1.284     3.49      6.18134     20.40919     34.09894         5     0.738     0.477 -77.91   0
       365    201.0181     50.7713 300.2249985 +22.4605235     545.3727     72.32115      1.531     3.45     6.105288     20.40919     59.79084         9     1.037     0.692 -27.06   0
       366    559.0803     49.6696 300.3367905 +22.5673858      500.627     72.45005      1.285     2.91     5.796348     20.40919     59.75222         7     0.760     0.619  -0.27   0
       367    636.2916     46.9714 300.3617167 +22.5897116     6364.393     72.30272      1.458     2.82     6.091781     20.40919     671.2779        37     1.287     1.117 -87.54   0
       368    411.1137     45.8629 300.2919528 +22.5220101     1549.697     72.45005      1.539     3.21     5.271131     20.40919     170.3868        23     1.203     1.053  80.84   0
       369    677.4040     44.4666 300.3753385 +22.6012905     900.2863     72.32115      1.359     3.16     6.113326     20.40919     119.2122        15     1.154     0.874  48.24   0
       370    746.9744     42.0721 300.3977969 +22.6214122     480.9737       72.358      1.518     3.60     5.958731     20.40919      39.8977         7     0.883     0.531  46.71   0
       371    693.4770     40.5222 300.3816250 +22.6049643     686.4157     72.45005      1.723     3.95     6.080641     20.40919     73.34734        13     1.204     0.798 -53.97   0
       372    963.3469     38.5368 300.4664198 +22.6850986     587.5154     72.39484      1.573     3.42     5.937609     20.40919     59.56358         9     0.871     0.752 -30.71   0
       373    160.0594     38.5361 300.2162257 +22.4447439     609.3831     72.37642      1.352     3.23     6.169368     20.40919     72.94119        13     1.049     0.861   1.91   0
       374    732.1064     36.3978 300.3950006 +22.6153330     383.7866     72.24739      1.105     2.25     6.024607     20.40919     70.16705         6     0.711     0.582 -59.47   0
       375    680.4965     31.9291 300.3803635 +22.5986100     2715.928     72.45005      1.452     2.65      6.12775     20.40919     317.1725        25     1.162     1.026  80.32   0
       376    321.3215     32.6205 300.2682991 +22.4913267     481.8929     72.33958      1.286     2.64      5.66798     20.40919       56.894         7     0.844     0.550 -52.05   0
       377    695.2208     30.6967 300.3853513 +22.6026601     785.3679     72.24739      2.026     5.01     6.109436     20.40919      80.4465        11     1.407     0.657  49.78   0
       378    766.9222     23.5717 300.4100080 +22.6220570     1409.073     72.33958      1.432     2.83     6.059219     20.40919     198.2322        19     1.082     1.036  72.26   0
       379    845.0950     18.6691 300.4359698 +22.6440246     303.0215     72.46844      2.053     3.77     6.037399     20.40919     46.56248         5     0.891     0.457   8.41   0
       380    169.4415   1020.1287 299.9005421 +22.7292211      568.451     71.37501      2.908     6.27     99.58095     20.40919     35.13506         9     1.319     0.838 -88.70  16
       381    705.2660     16.9217 300.3929438 +22.6017030     823.1891     72.45005      1.342     2.84     6.156712     20.40919      108.061        12     0.949     0.790 -35.72   0
       382      2.8725   1004.2571 299.8539417 +22.6746837     2553.153     64.32232      5.042    18.12    -29.13289     20.40919     63.21877        87     4.268     2.137  87.19  27
       383    748.3444   1014.9272 300.0824273 +22.9013367     459.4998     72.33958      2.325     3.66     3.227184     20.40919     45.39895         5     0.951     0.582 -13.14   0
       384    309.5913   1012.7716 299.9465167 +22.7691599      1813.38     72.33958      6.557     6.36     6.012105     20.40919     102.3861        39     1.823     1.682 -75.84  16
       385    144.9222   1008.1753 299.8968078 +22.7184375      1805.28     72.33958      3.208    15.61     88.95837     20.40919     57.30836        55     3.317     2.042 -14.94  18
       386    162.2911   1009.0276 299.9019297 +22.7238937     777.5206     72.32115      2.666     7.45     91.27831     20.40919     39.71308        13     1.608     0.968  27.99   2
       387    160.6255   1005.3228 299.9026168 +22.7223319      243.585       72.358      1.675     4.07     88.16634     20.40919     29.45745         5     0.958     0.494  35.42   3
       388    302.6817   1005.3288 299.9467881 +22.7649533     700.4949     72.46844      3.548     4.21     6.244549     20.40919     30.61456         5     1.558     0.325  58.88   3
