#   1 NUMBER                 Running object number                                     
#   2 X_IMAGE                Object position along x                                    [pixel]
#   3 Y_IMAGE                Object position along y                                    [pixel]
#   4 ALPHA_J2000            Right ascension of barycenter (J2000)                      [deg]
#   5 DELTA_J2000            Declination of barycenter (J2000)                          [deg]
#   6 FLUX_APER              Flux vector within fixed circular aperture(s)              [count]
#   7 FLUXERR_APER           RMS error vector for aperture flux(es)                     [count]
#   8 FLUX_RADIUS            Fraction-of-light radii                                    [pixel]
#   9 FWHM_IMAGE             FWHM assuming a gaussian core                              [pixel]
#  10 BACKGROUND             Background at centroid position                            [count]
#  11 THRESHOLD              Detection threshold above background                       [count]
#  12 FLUX_MAX               Peak flux above background                                 [count]
#  13 ISOAREA_IMAGE          Isophotal area above Analysis threshold                    [pixel**2]
#  14 A_IMAGE                Profile RMS along major axis                               [pixel]
#  15 B_IMAGE                Profile RMS along minor axis                               [pixel]
#  16 THETA_IMAGE            Position angle (CCW/x)                                     [deg]
#  17 FLAGS                  Extraction flags                                          
         1    221.0229     17.4842 300.2354789 +22.4424400     3795.687     72.27039      1.518     2.78     4.478821     20.40007     444.8855        33     1.329     1.118  66.04   0
         2    782.2907     10.1025 300.4125929 +22.6083675     849.3725     72.49117      1.300     2.98     4.262393     20.40007     114.3448        11     0.929     0.732  63.20   0
         3    337.0523      9.6382 300.2741065 +22.4749412      1199.26     72.32565      1.394     2.25     4.488866     20.40007     205.0788        17     1.149     0.939  40.59   0
         4    820.2220      5.1755 300.4260130 +22.6183001     779.8008      71.9009      1.585     4.36     4.299668     20.40007     68.48808        15     1.325     0.799  65.78  16
         5    743.6879      4.8172 300.4022753 +22.5952952     608.8117     71.15618      1.444     2.48     4.223322     20.40007     71.12907         8     0.906     0.562 -72.38  16
         6    840.2421      1.8000 300.4333481 +22.6233191     1630.019     58.91065      1.135     2.22     4.322444     20.40007     289.1108        12     0.931     0.679  -6.06  24
         7      5.9059   1007.6739 299.8470782 +22.6620294     1090.877     72.45442      4.768     4.70     -11.9753     20.40007     34.79202         5     1.380     0.455 -60.60  25
         8    249.5349   1017.6810 299.9195238 +22.7380499     2776.298     72.41766      5.727    23.23     73.36172     20.40007     60.28592       151     4.505     3.326  26.31  19
         9    249.5306   1000.4251 299.9251379 +22.7331015     4314.447     72.30724      8.348    21.41     60.84951     20.40007     85.65295       273     5.369     4.123 -58.17  19
        10    287.6008    987.7473 299.9411002 +22.7408941     7414.933     72.27039      8.093    32.54     44.06551     20.40007     158.4569       709    10.493     4.883  63.36  18
        11    222.9691   1012.8755 299.9128290 +22.7286972     3214.612     72.30723      6.650    24.78     76.54629     20.40007     68.84251       190     5.096     3.582  46.37  19
        12    221.5206   1005.8521 299.9146643 +22.7262490     2276.335     72.30724      7.261    17.37     71.37078     20.40007     60.26372        68     4.379     1.916 -48.07  19
        13    180.9074   1022.0422 299.8967719 +22.7186971     1646.109     64.66531      3.618    13.42     83.20052     20.40007     65.56861        53     3.577     1.401   1.73  26
        14    180.9570   1018.3416 299.8979916 +22.7176513     242.5436     72.28881      2.434     3.59     80.24308     20.40007     45.42535         5     1.085     0.342 -19.59  19
        15    132.3714   1012.6052 299.8847596 +22.7014195     5028.839     72.28881     13.504    61.97     61.95057     20.40007     110.2089      1177    13.712     7.772  34.90  27
        16    126.5839    965.7203 299.8982169 +22.6862433     5019.064     72.32565     23.748    85.68     31.27757     20.40007      117.983      3536    20.075    15.838 -17.51  19
        17    701.4753    967.6290 300.0764579 +22.8592938     6795.161     72.32565      1.847     4.01      3.20879     20.40007     401.1611        47     1.471     1.416  58.78   0
        18    547.7167    989.6052 300.0214246 +22.8194810     444.3711     72.23353      1.902     6.34     2.649743     20.40007     36.06219        11     1.335     1.074  39.52   0
        19    581.3892    961.7865 300.0409600 +22.8216006     497.4794     72.21509      1.999     6.95     2.865225     20.40007     35.15686        10     1.316     1.028 -50.77   0
        20    211.0951   1012.4128 299.9092885 +22.7249999     999.7781     72.23353      2.626    11.61     75.80693     20.40007     47.58218        27     2.133     1.760 -56.34  19
        21      4.5529   1018.5012 299.8431347 +22.6647255     1419.256     70.59248      6.398     9.90    -14.78094     20.40007     38.89289        19     1.949     1.403 -74.71  27
        22    610.0043    958.3461 300.0509894 +22.8291964     1424.743     72.28881      1.839     4.38     2.915188     20.40007     107.1573        23     1.289     1.183  40.85   0
        23    503.7578    954.7397 300.0190862 +22.7962910     1175.175     72.28881      1.823     4.57     2.819309     20.40007     77.20547        21     1.277     1.131  -1.48   0
        24    434.3890    952.7998 299.9981298 +22.7749223     6609.424     72.12282      1.808     3.91     3.025167     20.40007     486.1405        45     1.465     1.363 -45.30   0
        25    125.8578    930.9229 299.9093119 +22.6760506     4062.401     72.34406     18.309    50.63       10.145     20.40007     87.20331       829    10.992     6.472 -36.99   3
        26    596.6461   1005.3529 300.0315334 +22.8386771     2452.123     72.32565      1.862     4.24     2.817327     20.40007     175.6783        32     1.371     1.330 -53.44   0
        27    683.1971   1000.5826 300.0600405 +22.8632692     8662.281     72.21509      1.957     4.35     3.271297     20.40007     494.1344        46     1.584     1.420  28.06   3
        28    467.0873    939.2350 300.0127180 +22.7808416     414.5152     72.28881      1.857     4.91     2.924556     20.40007     34.16934         7     1.110     0.671  34.68   0
        29    976.5407    984.3833 300.1567450 +22.9465708     723.5545     72.27039      2.035     7.25     3.001718     20.40007        43.97        14     1.374     1.071   4.61   0
        30    980.7729    931.7260 300.1751997 +22.9327173     2125.499     72.30724      2.035     4.81     2.879086     20.40007     119.4939        36     1.575     1.390 -32.00   0
        31    688.7875    998.2880 300.0625287 +22.8642874     9285.733     72.25196      1.953     4.53     3.263653     20.40007     549.1525        47     1.528     1.421  -6.16   3
        32    631.1880    929.0098 300.0671310 +22.8271315     317.2963     72.19664      1.359     4.82     2.985389     20.40007     41.63415         8     0.849     0.775  76.88   0
        33    479.0382    927.5893 300.0202260 +22.7810860     318.5669     72.30724      1.492     3.72     2.932385     20.40007     36.63888         6     0.947     0.735 -62.53   0
        34    662.3327    926.6532 300.0775976 +22.8357954     241.0212     72.32565      1.328     3.87      3.06309     20.40007     41.75448         5     0.919     0.466 -45.21   0
        35      3.6774    973.1282 299.8576265 +22.6514612     1018.803     67.74297      6.046     8.96    -5.862054     20.40007      38.1026        17     1.790     1.251 -85.74  24
        36    769.5273    920.6434 300.1129481 +22.8662129     681.2415     72.28881      1.964     5.80     3.183059     20.40007     49.40755        18     1.321     1.066  54.98   0
        37    804.3654    914.8035 300.1257049 +22.8749810     1086.409     72.30724      1.810     4.18     3.131916     20.40007     81.85283        21     1.277     1.116 -29.30   0
        38     21.4473   1004.4838 299.8529430 +22.6657828     729.7985     72.30724      5.115     6.07    -2.750974     20.40007     33.31741         9     1.239     0.835 -31.87   2
        39    826.6567    908.4346 300.1347246 +22.8798350     11304.49     72.32565      1.796     4.02     2.965123     20.40007     697.5443        53     1.454     1.406 -16.24   0
        40    266.3835    909.5971 299.9599284 +22.7121169     592.6025     72.21509      5.318     5.00     8.161391     20.40007     24.25422         5     1.348     0.524  45.66   0
        41     14.8353    911.9425 299.8809963 +22.6372771     478.0823     72.30724      1.457     3.78     3.494113     20.40007     60.06474        10     0.987     0.911   9.00   0
        42   1016.4759    908.4912 300.1938959 +22.9367432     554.6992     72.45442      2.228     4.40      2.97347     20.40007     41.73682         7     0.966     0.680  83.85   2
        43    872.3970    908.4912 300.1489645 +22.8935624      423.939     72.21509      1.594     6.10     2.729041     20.40007     45.97748        12     1.093     0.958 -24.10   0
        44    783.3572   1001.0622 300.0910902 +22.8934438     580.9218     72.30724      1.862     7.23      3.25935     20.40007     45.66809        15     1.310     1.117  31.00   0
        45    939.3612    997.0331 300.1410332 +22.9390587     231.7863     72.34406      1.678     4.53     2.572024     20.40007     42.46124         5     1.266     0.460  54.19   0
        46    216.3036    990.7715 299.9179498 +22.7203596     1990.727     72.25196      5.233    17.18      60.2804     20.40007      52.9205        70     3.693     2.221  67.93   3
        47    138.1189    900.1140 299.9231436 +22.6708992     1227.239     72.45442      5.020     4.74     7.797976     20.40007     73.91146        21     1.387     1.272   0.32   0
        48     10.4970   1009.4634 299.8479217 +22.6639210      856.787     72.39926      7.057     6.32    -9.768991     20.40007     35.63419         9     1.554     0.722  83.87   1
        49    531.7050    896.6953 300.0466687 +22.7880208     369.0208      72.4728      1.686     5.42     3.041007     20.40007      36.5633         7     1.276     0.649   5.86   0
        50      2.8680    996.4274 299.8497943 +22.6578945     937.8375     64.25211      3.116     4.44    -11.16272     20.40007     38.98604         5     1.553     0.361 -12.95  25
        51    128.1721    891.4796 299.9228612 +22.6654379     689.6831     72.32565      4.966     5.52     6.146664     20.40007      53.9062        13     1.445     0.990 -54.48   0
        52    835.2916    890.5446 300.1432359 +22.8772868      1487.13     72.36246      1.790     3.92     2.899049     20.40007     131.3487        21     1.273     1.065  14.24   0
        53   1018.4163    889.5518 300.2006626 +22.9318845     574.0673     72.34406      2.030     5.94     2.969181     20.40007     35.79917        10     1.092     0.910  40.37  16
        54    686.2028    887.7582 300.0976857 +22.8317895     518.0696     72.32565      2.066     7.70     3.101869     20.40007     38.85392        11     1.772     0.936   3.43   0
        55    550.8566    887.6623 300.0555689 +22.7911731     306.1849     72.36246      1.287     3.48     3.053251     20.40007     30.24661         5     0.804     0.435  15.87   0
        56    873.4498    884.2520 300.1571779 +22.8869177     830.6168     72.34406      1.760     5.11      2.76286     20.40007     64.84134        14     1.163     0.968 -68.46   2
        57    922.0618    875.3287 300.1752373 +22.8989247     596.8965     72.34406      1.731     6.71     2.775542     20.40007     46.21026        17     1.383     1.183  53.36   0
        58    772.9487    873.8987 300.1292206 +22.8538188     775.5985     72.39926      2.003     7.09     3.057979     20.40007     52.96178        14     1.346     1.084 -82.37   0
        59    485.5913    870.6296 300.0407938 +22.7667097     4301.591     72.28881      1.659     3.46     3.073324     20.40007     393.3313        39     1.434     1.227 -27.61   0
        60     32.6668    872.4384 299.8993832 +22.6313080     464.2165     72.28881      1.697     5.63     3.637406     20.40007     41.67107        10     1.308     0.994  20.13   0
        61    784.5128    871.2532 300.1336848 +22.8565260     627.0972     72.34406      1.702     5.10     3.024976     20.40007     50.95339        17     1.145     1.118   8.68   0
        62    263.6005    859.4070 299.9753876 +22.6968881     468.6007     72.12283      2.194     6.23     4.664296     20.40007     32.14845        10     1.266     0.862  66.62   0
        63    147.3873    858.7931 299.9394630 +22.6618342      455.979     72.19664      1.741     5.42     4.177621     20.40007     49.57043         9     1.429     0.707   2.93   0
        64    530.2578    858.5743 300.0586175 +22.7766478     288.4439     72.30724      1.559     3.51     3.139454     20.40007     37.23756         5     1.055     0.337  21.23   0
        65    211.0497    856.3281 299.9600515 +22.6802347     871.2137     72.30724      1.762     4.63      5.31696     20.40007     70.57498        20     1.248     1.161 -41.52   0
        66    268.6972    999.4735 299.9314066 +22.7385821     5257.576     72.43604      9.665    30.22     55.56332     20.40007     116.9379       489     7.638     5.189 -52.95  19
        67    188.0071    853.0155 299.9539663 +22.6723692     1547.468     72.23352      1.726     3.88     4.772564     20.40007     157.2172        24     1.372     1.183  70.93   0
        68   1014.0946    840.8036 300.2151710 +22.9165860     2208.758     72.21509      1.962     5.41     3.454612     20.40007      141.713        30     1.450     1.364 -87.21   0
        69     63.7828    843.4912 299.9184625 +22.6323513     376.0004     72.23353      1.574     2.92     3.635195     20.40007     43.52356         5     0.737     0.453  21.41   0
        70    719.2643    841.0391 300.1231809 +22.8282906     561.3368     72.28881      2.068     5.98     3.080127     20.40007     36.93213         8     1.184     0.850 -71.11   0
        71    490.8591    840.2249 300.0523218 +22.7595654      101.529     72.30724      1.214     4.37     3.294246     20.40007     31.16477         5     0.776     0.701  46.70   0
        72    220.1260    835.0176 299.9698031 +22.6768472     495.8252     72.30723      1.760     5.55     4.742427     20.40007     40.32335         9     1.167     0.744  84.85   0
        73    797.8802    834.7927 300.1497094 +22.8500640     600.1324     72.23353      1.680     4.77     2.974825     20.40007     68.88713        13     1.380     0.748  15.88   0
        74    665.6761    828.7115 300.1104966 +22.8086852     4874.018     72.43604      1.578     3.34     3.081187     20.40007     449.7229        37     1.302     1.185  34.23   0
        75    155.3946    829.0735 299.9516160 +22.6557159      501.802     72.25196      1.782     6.43     3.898171     20.40007     38.05588        12     1.298     0.894 -89.30   0
        76    467.9351    825.6196 300.0499370 +22.7484986     583.2694     72.28881      1.578     4.06     3.409064     20.40007     61.68818        12     1.094     0.859 -50.81   0
        77    215.8137    822.2666 299.9726089 +22.6718962     1344.927     72.27039      1.634     3.49     4.242321     20.40007     124.4767        22     1.247     1.104 -63.34   0
        78    686.0989    821.2692 300.1192784 +22.8126718     749.0208     72.41766      1.567     4.03     3.041665     20.40007     64.85208        12     1.064     0.849 -34.59   0
        79    484.4481    820.3534 300.0567886 +22.7519403     226.4703     72.32565      1.336     4.12      3.45661     20.40007      36.9269         5     0.979     0.495 -46.21   0
        80    235.3171    819.6956 299.9795080 +22.6770115      339.543     72.49117      1.328     3.36     4.139822     20.40007     46.65705         8     0.868     0.669  89.97   0
        81    602.5682    812.3329 300.0961688 +22.7850615     366.9924     72.30724      1.653     5.08     3.537351     20.40007     36.45314         7     1.105     0.661  -4.74   0
        82    841.7329    808.4169 300.1719553 +22.8556335     4339.264     72.28881      1.686     3.47     2.957021     20.40007     326.4494        34     1.338     1.192  51.92   0
        83    573.4196    805.6388 300.0892695 +22.7743996     292.2076     72.34406      1.656     4.20     3.598845     20.40007     29.68736         5     1.050     0.478  -2.64   0
        84    249.8040    802.6069 299.9895684 +22.6764572     519.8499     72.14128      1.681     5.45     3.544549     20.40007     50.77999         8     1.042     0.804  20.80   0
        85    558.6472    800.9266 300.0862025 +22.7686173     577.6646     72.30724      1.463     3.29     3.644967     20.40007      67.9817        13     1.016     0.847  10.80   0
        86    205.0070    798.7683 299.9768900 +22.6619141     942.3127     72.30724      1.566     3.97     3.519951     20.40007     117.3359        21     1.288     1.138  81.44   0
        87    354.7213    790.9047 300.0260007 +22.7045779     53538.74     72.41766      1.583     3.27     3.405841     20.40007     5431.626        93     1.432     1.368  38.25   0
        88    620.3878    794.2657 300.1075928 +22.7852183     550.7066     72.25196      1.824     3.11      3.54128     20.40007     57.27174         8     1.108     0.561  15.19   0
        89    612.7339    790.0229 300.1065889 +22.7817055     1586.155     72.28881      1.518     3.11     3.608335     20.40007      171.109        23     1.189     1.063 -86.54   0
        90    282.9895    789.1473 300.0042631 +22.6825536     491.6088     72.30724      1.389     4.93     3.465599     20.40007      48.9617        11     1.240     0.660 -49.76   0
        91    641.5524    786.0003 300.1168716 +22.7891911      848.015     72.30724      1.438     3.00     3.351596     20.40007     114.3789        16     1.145     0.886 -14.94   0
        92     41.3706    785.6096 299.9303202 +22.6090293     769.9139     72.30724      1.747     3.12     3.577874     20.40007     84.45767        10     1.076     0.674  45.27   2
        93      7.7472    785.5118 299.9199085 +22.5989082     901.8676     72.32565      2.229     5.26     3.561432     20.40007     70.34038        16     1.485     1.194  10.74  16
        94    652.6277    784.3435 300.1208598 +22.7920360     489.2148     72.30724      1.211     2.96     3.259701     20.40007     64.62366        10     0.957     0.714  53.60   0
        95    972.7867    781.8143 300.2214694 +22.8872629     358.4081     72.23353      1.474     4.93     3.628174     20.40007      34.1439         7     0.926     0.744 -45.13   0
        96    758.0269    780.4506 300.1549610 +22.8225138     528.0492     72.32565      1.722     4.88     3.077989     20.40007     44.33941        13     1.191     0.982 -69.32   0
        97    795.5231    771.0035 300.1697176 +22.8310393     744.0188     72.21509      1.511     4.04     3.013909     20.40007     69.02406        17     1.243     0.913  61.69   0
        98    404.4385    768.1579 300.0488626 +22.7129648     31417.74     72.39926      1.539     2.87     3.558684     20.40007     3603.899        70     1.327     1.312  16.89   0
        99    418.7935    768.6677 300.0531632 +22.7174167     2095.695     72.27039      1.585     3.17     3.582706     20.40007     215.4727        25     1.157     1.132  -6.62   0
       100    927.7230    764.2357 300.2131311 +22.8687112     2834.638     72.27039      1.646     3.40     3.144033     20.40007     247.0276        27     1.247     1.167  15.67   0
       101    415.6842    762.9879 300.0540423 +22.7148543     540.9451     72.25196      1.458     3.44      3.58766     20.40007     66.98859         9     0.980     0.697  10.17   0
       102    685.5618    760.1445 300.1389861 +22.7949614     1033.352     72.30724      1.484     3.10     3.189466     20.40007     101.2025        14     0.992     0.890   9.15   0
       103    287.3039    759.9704 300.0150903 +22.6754781     602.9399     72.25196      1.396     3.06     3.462501     20.40007     97.64776        13     1.038     0.833  85.49   0
       104     92.0218    755.5119 299.9558400 +22.6156020      387.357     72.23353      1.636     5.49     3.539461     20.40007     45.63749        10     1.241     0.922 -52.50   0
       105    532.7031    755.0158 300.0930526 +22.7476599     842.6041     72.21509      1.499     3.37     3.640247     20.40007     112.2112        12     1.038     0.865  10.76   0
       106    933.8975    752.2907 300.2189402 +22.8671296     539.0141     72.49117      1.677     4.47       3.3137     20.40007     46.23185         7     0.984     0.579  50.87   0
       107    435.0173    751.3377 300.0638452 +22.7173096     396.5977     72.28881      1.346     3.37     3.609411     20.40007     49.36283         7     0.733     0.675   0.35   0
       108    479.0004    749.8820 300.0780059 +22.7300824      422.664     72.17819      1.351     2.08     3.620335     20.40007     74.77987         7     0.824     0.480 -53.29   0
       109    120.3973    748.7740 299.9668469 +22.6221856     620.3846     72.25196      1.888     6.42     3.516701     20.40007     44.57355        15     1.340     1.092 -77.91   0
       110    521.9516    760.1517 300.0880360 +22.7459101     334.4661     72.34406      1.265     4.31     3.635562     20.40007     45.29665         8     0.975     0.808  75.08   0
       111    912.0623    746.5124 300.2140098 +22.8589274     381.8895     72.39926      1.451     4.20     3.235043     20.40007      38.2448         8     0.841     0.682  83.95   0
       112    284.4396    744.4249 300.0192531 +22.6701591     429.1044     72.34406      1.566     4.49     3.462373     20.40007     53.99332        11     1.146     0.822   0.21   0
       113    607.9617    734.6884 300.1230927 +22.7643893     405.5876     72.28881      1.414     4.57     3.646276     20.40007     48.65854         9     0.965     0.760  40.32   0
       114    577.4520    733.0247 300.1141333 +22.7547646     620.0382     72.32565      1.392     3.49     3.647584     20.40007     68.37541        14     1.038     0.917 -29.66   0
       115    994.0698    729.4794 300.2451233 +22.8786023     4618.144     72.41766      1.659     3.37     3.923589     20.40007     356.6752        37     1.336     1.289  89.40   0
       116    486.8693    732.0961 300.0862367 +22.7273373     306.2717     72.43604      1.317     4.54     3.625704     20.40007     29.22985         8     0.861     0.679  43.11   0
       117    599.4607    730.4305 300.1218296 +22.7606183     1276.971     72.34406      1.371     2.70     3.649547     20.40007     146.8236        18     1.082     0.930  62.30   0
       118    681.1803    725.5844 300.1488563 +22.7837245     343.8433     72.28881      1.510     3.43     3.323898     20.40007     55.42146         5     0.733     0.484  -9.52   0
       119    982.6458    720.8976 300.2443496 +22.8727143     1680.469     72.34406      1.678     3.84     3.838723     20.40007     119.2136        24     1.261     1.098 -34.13   0
       120    345.4778    714.5038 300.0479620 +22.6798841     874.8741     72.43604      1.410     2.95     3.540619     20.40007     129.5415        16     1.065     0.914  52.57   0
       121    808.9862    712.2291 300.1930209 +22.8181933     2483.469     72.32565      1.547     3.19     3.141186     20.40007     238.9152        29     1.442     1.055   3.10   0
       122   1013.6504    710.9348 300.2572598 +22.8791388     1530.297     72.34406      1.608     3.58     4.017428     20.40007     143.6738        21     1.211     1.100   0.11   0
       123     31.7426    702.4422 299.9543630 +22.5822928     931.1633     72.27039      1.759     3.69     3.659036     20.40007     92.54563        17     1.307     0.869 -74.31   0
       124    194.0753    698.4180 300.0061124 +22.6298505     636.2309     72.30724      1.573     4.43     3.493083     20.40007     60.57505        13     1.257     0.964 -63.35   0
       125    891.3115    698.2625 300.2232245 +22.8388486     560.5876     72.38087      1.523     4.10     3.388403     20.40007     53.43254        12     1.084     0.819  15.87   0
       126    927.2729    689.0687 300.2374262 +22.8469808     149301.9     72.38087      1.573     3.11     3.601115     20.40007     12341.12       159     1.483     1.458  82.27   0
       127    689.5295    693.0925 300.1620185 +22.7768967      356.851     72.43604      1.155     2.33     3.419386     20.40007     62.54609         8     0.828     0.608  38.09   0
       128    779.5873    689.3917 300.1912815 +22.8028238     735.4035     72.19664      1.395     2.71     3.258933     20.40007     91.75952        13     0.920     0.869 -55.42   0
       129    959.9831    681.7194 300.2500160 +22.8546679     342.4478     72.32565      1.401     5.00     3.745494     20.40007     38.99185         9     1.062     0.667 -52.67   0
       130    613.5862    677.8164 300.1433296 +22.7497466     1631.431     72.25196      1.379     2.63     3.670005     20.40007     215.0017        19     1.037     0.969  11.07   0
       131    794.7151    675.2166 300.2006032 +22.8032853     9414.418     72.27039      1.459     2.76     3.284423     20.40007     952.7301        44     1.248     1.187  57.28   0
       132    295.9082    670.1104 300.0469729 +22.6522774     6130.617      72.4728      1.416     2.56     3.561543     20.40007     1022.733        35     1.265     1.082  19.88   0
       133      9.9699    668.6564 299.9585796 +22.5660700     1599.345     72.32565      1.659     3.38     3.895224     20.40007     178.4636        23     1.256     1.100  52.87   0
       134    378.4913    668.1906 300.0732833 +22.6764950     1238.028     72.23353      1.532     3.74     3.582553     20.40007     129.7174        20     1.209     0.975 -42.47   0
       135    253.8188    665.8414 300.0352723 +22.6384274     511.7037     72.32565      1.496     3.12     3.531872     20.40007     59.47372         9     0.875     0.709  -0.09   0
       136    586.5530    663.7449 300.1394846 +22.7376026       808.86     72.34406      1.391     2.54     3.784152     20.40007     114.5953        15     0.970     0.884 -58.41   0
       137    578.1644    655.9385 300.1394095 +22.7328465     3173.051     72.32565      1.346     2.45     3.870375     20.40007     411.1005        25     1.091     1.005  68.87   0
       138    568.4976    649.6970 300.1384278 +22.7281566     1434.823     72.49117      1.343     2.40     3.934736     20.40007     204.7816        19     1.072     0.946  46.90   0
       139    962.1859    647.6171 300.2617862 +22.8455280     370.2259     72.25196      1.253     3.11     3.796854     20.40007     56.98112        10     0.915     0.731  86.95   0
       140    231.7185    645.8866 300.0348854 +22.6260726     872.2867     72.43604      1.801     3.45     3.530921     20.40007     88.32175        13     1.092     0.855 -77.08   0
       141    246.3534    644.4843 300.0398911 +22.6300602     588.6297     72.28881      1.440     3.37     3.589728     20.40007     62.70118        12     1.161     0.717 -35.13   0
       142   1015.4433    641.4756 300.2803945 +22.8597141     427.1671     72.28881      1.514     4.26     3.875365     20.40007     50.74279         8     1.151     0.493  -4.44   0
       143    302.8163    641.4570 300.0584321 +22.6461272     390.9339     72.28881      1.427     1.93     3.742245     20.40007     49.60728         5     0.663     0.472 -20.05   0
       144    271.9985    640.9218 300.0490225 +22.6367303     509.5403     72.21509      1.328     3.18     3.709573     20.40007     70.81385        10     0.960     0.714  63.29   0
       145    592.4045    640.2288 300.1489484 +22.7326043     488.8211     72.27039      1.251     3.34     4.043955     20.40007     58.36425        10     1.027     0.698  -1.75   0
       146    493.2464    639.4582 300.1183289 +22.7026573     1751.405     72.36246      1.351     2.52     3.703717     20.40007     198.2477        20     1.094     0.964  19.55   0
       147    526.9603    638.9393 300.1289918 +22.7126158     240.0254     72.30723      1.247     2.34     3.931359     20.40007     40.69669         5     0.615     0.576 -87.03   0
       148    147.1309    634.3165 300.0123516 +22.5973777     19731.17     72.41766      1.615     3.15     3.608204     20.40007     2115.286        62     1.409     1.344  54.70   0
       149    578.0541    634.8212 300.1462372 +22.7267499      1000.28     72.30724      1.411     2.83     4.097097     20.40007      125.776        15     1.012     0.896  85.98   0
       150    613.4337    634.0094 300.1575179 +22.7371216     345.1581     72.30724      1.198     3.05      4.08259     20.40007     53.42286         8     0.874     0.633  29.12   0
       151    996.1924    621.1681 300.2809882 +22.8481119     934.0764     72.30724      1.472     4.55      3.84795     20.40007      93.6367        16     1.194     1.010  45.45   0
       152    661.4064    622.3654 300.1762426 +22.7481559     167.5096     72.30724      1.034     3.45     3.812319     20.40007     40.65345         5     0.749     0.459  72.89   0
       153     93.2394    618.5760 300.0007191 +22.5766936     1558.534     72.34406      2.014     4.72     3.629518     20.40007     129.2133        26     1.614     1.072 -86.01   0
       154    862.9037    619.2042 300.2400605 +22.8076234     466.3246     72.21509      1.325     3.35     3.729682     20.40007     53.57368         8     0.826     0.657  33.11   0
       155     68.3098    636.4063 299.9871807 +22.5743280     687.9843     72.21509      1.613     3.91     3.648227     20.40007     87.52262        11     1.214     0.814 -25.34   0
       156    541.5494    615.5049 300.1411480 +22.7102608     299.3711     72.38087      1.148     3.15     4.267151     20.40007     60.61554         7     0.843     0.639 -21.30   0
       157    936.6097    613.9411 300.2647527 +22.8281895     876.6274     72.27039      2.614     3.22     3.834981     20.40007     70.84435        12     1.061     0.729 -32.25   0
       158    334.3055    614.4449 300.0770023 +22.6478190     318.9155     72.32565      1.458     3.32     3.747748     20.40007     42.81253         5     0.740     0.433  23.99   0
       159    681.2150    612.4454 300.1856361 +22.7512431     337.1062     72.32565      1.169     2.70     3.721066     20.40007     48.62313         5     0.707     0.474  16.51   0
       160    498.2354    607.6562 300.1302147 +22.6950227     753.3889     72.32565      1.322     2.93     3.831412     20.40007     96.27283        12     0.974     0.785  15.73   0
       161    646.0391    606.1432 300.1767269 +22.7388912     404.3816     72.30724      1.222     3.15     4.039601     20.40007     64.77097         9     0.895     0.696  64.90   0
       162    693.6341    604.6310 300.1920438 +22.7527203     537.1891     72.32565      1.598     3.60     3.715614     20.40007     60.96242        10     1.019     0.735 -52.35   0
       163    663.8991    604.3877 300.1828602 +22.7437395     616.6264     72.21509      1.335     2.26      3.88935     20.40007     79.81332         9     0.775     0.723 -71.79   0
       164    542.4970    603.4517 300.1453590 +22.7070839     908.0172     72.38087      1.392     2.71     4.342753     20.40007     111.2497        16     1.046     0.887  40.14   0
       165    976.2842    599.1257 300.2819404 +22.8358143     3305.845     72.39926      1.498     3.00     3.846473     20.40007     308.8029        30     1.197     1.151 -70.72   0
       166    508.1216    598.9607 300.1361170 +22.6954898     1555.559     72.28881      1.270     2.27     4.008471     20.40007     257.9011        18     0.979     0.888  -3.13   0
       167    872.9005    596.6266 300.2505129 +22.8041306      326.824     72.25196      1.493     3.29     3.800441     20.40007     30.70402         5     0.865     0.484   0.34   0
       168     69.9679    592.4735 300.0019686 +22.5622239     5161.967     72.30724      1.667     3.27     3.639745     20.40007     551.3316        41     1.381     1.304 -74.48   0
       169   1015.4473    589.0838 300.2974196 +22.8446563      372.534     72.30724      1.401     4.10     3.846473     20.40007     34.71055         7     1.217     0.395  74.79   0
       170    537.4750    589.4575 300.1483420 +22.7015602     265.7493     72.36246      1.151     3.58      4.31156     20.40007     39.75615         7     0.844     0.681  73.02   0
       171    327.9169    590.2392 300.0828791 +22.6389559     254.3254     72.27039      1.842     4.63     3.805817     20.40007     30.78249         5     1.266     0.481  27.94   0
       172    371.4392    585.7271 300.0978830 +22.6507115     9005.227     72.28881      1.390     2.42     3.662911     20.40007     1278.707        42     1.237     1.106  60.32   0
       173    493.8564    582.7375 300.1369472 +22.6865554     8966.222     72.36246      1.375     2.52     4.019971     20.40007     1254.891        38     1.175     1.095  60.59   0
       174    259.3369    580.2411 300.0647997 +22.6155196     223.6597     72.28881      1.139     4.43     3.851272     20.40007     36.69117         6     0.886     0.734 -64.96   0
       175    905.6525    576.7936 300.2671683 +22.8082416     1951.267     72.27039      1.488     2.91     3.827567     20.40007     220.3692        21     1.136     0.986  43.47   0
       176    138.3773    578.6398 300.0277189 +22.5787786     189.4007     72.34406      1.312     4.05     3.773557     20.40007     33.13053         5     0.981     0.478  -3.16   0
       177    990.2261    574.2050 300.2943858 +22.8328267     12531.21     72.27039      1.519     2.97     3.846473     20.40007     1261.051        46     1.280     1.240  87.88   0
       178    554.4633    572.3382 300.1591924 +22.7017363     11598.24     72.34406      1.348     2.39     4.380657     20.40007     1425.885        41     1.192     1.086  66.77   0
       179    281.9244    567.8605 300.0758450 +22.6187405      1215.93     72.36246      1.379     2.79     3.987941     20.40007     163.2369        18     1.060     0.959   2.89   0
       180    723.9659    568.1785 300.2133363 +22.7513378     602.5001     72.32565      1.390     2.31     3.786923     20.40007      76.5827         9     0.754     0.725 -58.48   0
       181    439.8281    567.1831 300.1251853 +22.6658926     328.2507     72.30724      1.367     5.11     3.829546     20.40007     42.42397         8     1.178     0.627 -41.20   0
       182    528.8087    564.8498 300.1536381 +22.6918963     398.6197     72.30724      1.277     3.89     4.319442     20.40007     46.91125         9     0.932     0.679 -67.72   0
       183    486.1046    560.4842 300.1417633 +22.6778420     4490.675     72.49117      1.361     2.51     4.213391     20.40007     504.7345        29     1.168     1.016  60.18   0
       184    829.0228    560.6290 300.2485290 +22.7806429     773.0675     72.30724      1.351     2.84     3.763593     20.40007     101.8648        14     0.994     0.863 -46.90   0
       185    464.4675    558.8839 300.1355490 +22.6708964     1280.088     72.41766      1.358     2.48     4.069151     20.40007     171.3656        16     0.986     0.871  83.99   0
       186    218.6225    558.3241 300.0592604 +22.5970191     652.9408     72.28881      1.383     3.42     3.752571     20.40007     75.87336        11     0.981     0.831  32.27   0
       187    905.9789    556.0596 300.2740058 +22.8023805     1663.672     72.25196      1.492     2.99     3.827567     20.40007     177.6334        22     1.185     1.000 -44.79   0
       188    602.7498    548.0799 300.1821075 +22.7092414     200764.2     72.30724      1.346     2.42     4.402091     20.40007     28012.84       198     1.422     1.401   1.50   0
       189    152.8143    555.4261 300.0397459 +22.5764489     236.1698     72.32565      1.189     3.34       3.9019     20.40007     45.31414         5     0.945     0.378  83.91   0
       190    786.4268    553.1433 300.2376842 +22.7657316     868.0556     72.30724      1.392     2.95      3.75111     20.40007     103.4729        13     0.998     0.829  49.77   0
       191    426.6354    554.3508 300.1252483 +22.6582533     436.1108     72.32565      1.262     3.10     3.773996     20.40007     62.28138         8     0.910     0.638  -3.47   0
       192    879.7435    551.4763 300.2673144 +22.7932055     200.0345     72.34406      1.217     5.12     3.806195     20.40007     39.84572         6     0.926     0.801  72.58   0
       193    855.7000    549.1913 300.2605606 +22.7853472     398.3796     72.17819      1.453     3.43     3.788465     20.40007     40.89686         5     0.963     0.353  43.60   0
       194    563.6661    548.8733 300.1696799 +22.6977559     255.0257     72.34406      1.086     2.82     4.387752     20.40007     41.46139         5     0.766     0.410  68.89   0
       195    288.8347    547.9830 300.0844504 +22.6151078     3391.622     72.30724      1.428     2.83     4.023133     20.40007     422.2798        26     1.166     1.020  53.89   0
       196    854.7422    544.5461 300.2617710 +22.7837253     643.9039     72.36246      1.416     3.33     3.788668     20.40007     65.07285         7     0.919     0.467 -12.59   0
       197    493.4168    528.2729 300.1545018 +22.6707845     2830.593     72.30724      1.362     2.40     4.339595     20.40007     325.2837        24     1.078     1.036 -44.84   2
       198    337.5812    531.1786 300.1050692 +22.6249012     482.6439     72.30724      1.446     3.10     3.759744     20.40007     66.61914         8     0.861     0.775 -87.86   0
       199    905.1056    525.0767 300.2837975 +22.7932142     502.9163     72.43604      1.473     2.14      3.81647     20.40007     69.90179         6     0.731     0.631  78.08   0
       200    724.1954    524.2453 300.2276784 +22.7387849     336.3781     72.30724      1.516     3.90     4.044237     20.40007     41.58213         6     0.908     0.480  33.53   0
       201    810.7684    517.0239 300.2570029 +22.7626445     434.7679     72.28881      1.352     2.96     3.775092     20.40007     64.30663         9     0.910     0.753  61.58   0
       202    890.2987    514.6993 300.2825511 +22.7857970     1816.164     72.54626      1.386     2.51     3.804782     20.40007     227.8082        21     1.168     0.980 -83.69   0
       203     20.7108    513.1970 300.0124153 +22.5247043     897.8765     72.21509      1.793     2.75     3.909711     20.40007     107.1486        13     0.979     0.868 -22.06   0
       204    761.5801    512.1729 300.2432484 +22.7465160     2628.557     72.30724      1.359     2.55     3.935899     20.40007       322.19        22     1.052     0.984  53.05   0
       205    121.5436    512.7775 300.0438788 +22.5548318     316.3393     72.32565      1.509     2.51     3.962873     20.40007     49.30285         5     0.760     0.669  27.15   0
       206    971.0300    508.8145 300.3096389 +22.8082815     317.3327     72.30724      1.467     4.99     3.830373     20.40007     29.61325         7     1.062     0.664  63.89   0
       207    666.6584    508.8913 300.2147403 +22.7171351     426.0287     72.38087      1.313     2.50     4.460454     20.40007     73.19699         9     0.922     0.601  55.35   0
       208   1018.9171    506.4732 300.3253374 +22.8219468     1273.107     72.43604      1.457     2.95     3.845737     20.40007     129.0603        19     1.140     1.002  52.37  16
       209    548.8530    508.1010 300.1783103 +22.6816066      682.922     72.39926      1.240     2.19     4.384952     20.40007     110.5789        10     0.816     0.711  -5.83   0
       210   1004.7050    505.4743 300.3212281 +22.8174044     1079.671     72.45442      2.535     3.60     3.840721     20.40007     82.31037        16     1.155     0.942 -72.47   0
       211    890.6910    504.7122 300.2859171 +22.7830440     2401.044      72.4728      1.703     3.53     3.801879     20.40007     252.5686        31     1.582     1.027  76.84   0
       212    644.1615    502.8711 300.2096880 +22.7086649     496.7221     72.27039      1.259     2.37     4.478259     20.40007     82.59691         9     0.845     0.667 -67.02   0
       213    928.9031    499.8242 300.2994201 +22.7930824     4259.633     72.21509      1.388     2.49     3.809483     20.40007      579.494        29     1.156     1.072  80.12   0
       214    482.6752    501.6632 300.1598004 +22.6599235     433.8422     72.36246      1.159     3.04     4.264453     20.40007     59.03002         9     0.917     0.706 -48.43   0
       215    429.6548    502.5777 300.1430029 +22.6442934     341.9604     72.32565      1.271     3.14     3.807914     20.40007     56.46995         6     0.943     0.387  20.92   0
       216    569.4200    499.3530 300.1875549 +22.6852577     264.9397     72.36246      1.100     3.33     4.420857     20.40007      50.1959         5     0.754     0.427  66.52   0
       217    590.0948    495.6417 300.1951978 +22.6903873     399.9551     72.32565      1.555     4.17     4.461931     20.40007      59.3197         7     1.123     0.478  -2.24   0
       218   1020.7261    490.3999 300.3311219 +22.8178672     870.2592     69.62373      1.687     2.95     3.846417     20.40007     77.65986        13     1.036     0.787 -70.57  16
       219    160.6662    489.9364 300.0634546 +22.5600116     973.3589     72.36246      1.553     3.60     3.982951     20.40007     117.4881        18     1.164     1.081 -19.33   0
       220    821.9489    483.6742 300.2713187 +22.7564093     357.8618     72.32565      1.300     4.89     3.787634     20.40007     41.96057         8     1.099     0.617 -23.13   0
       221    153.6712    480.1799 300.0644485 +22.5551138     337.3179     72.34406      1.329     2.31     3.984004     20.40007      63.0913         7     0.735     0.603 -69.66   0
       222   1017.2967    479.3270 300.3336480 +22.8136568      246.553     72.43604      1.236     3.56     3.843695     20.40007      46.6245         5     0.903     0.404  45.50   0
       223    760.9858    474.0598 300.2554406 +22.7353862     509.0451     72.27039      1.333     4.66     4.066983     20.40007     60.33178        10     1.259     0.717  67.75   0
       224    649.9189    472.1716 300.2214507 +22.7015705     321.0428     72.32565      1.095     2.54     4.517858     20.40007     49.03299         6     0.719     0.565 -38.22   0
       225    369.6705    472.5597 300.1340873 +22.6176929     301.4759     72.27039      1.240     3.51     3.705103     20.40007     45.25697         7     0.945     0.481  -8.71   0
       226    702.2759    470.3003 300.2383681 +22.7167187     852.0062     72.43604      1.281     2.62     4.381194     20.40007     103.9146        12     0.919     0.772  50.80   0
       227    490.8146    468.2882 300.1731716 +22.6527782     159.6456     72.25196      0.979     3.71     4.258521     20.40007     38.68484         5     0.896     0.440 -47.55   0
       228   1017.0847    462.7694 300.3389587 +22.8088326     489.8703     72.32565      1.361     2.88     3.840268     20.40007     82.10821        11     0.889     0.823  -7.67   0
       229    763.1302    462.4394 300.2598822 +22.7326892     854.8879     72.27039      1.274     2.51      4.00972     20.40007     107.3321        12     0.835     0.818  56.94   0
       230    920.1985    458.5518 300.3101086 +22.7786116     1082.927     72.28881      1.426     3.05     3.806154     20.40007     148.6206        16     1.211     0.866  61.44   0
       231    904.5462    455.0254 300.3063727 +22.7729109     673.6107     72.32565      1.296     2.66     3.807844     20.40007     91.13293        12     0.970     0.752   0.44   0
       232    885.2135    455.3469 300.3002402 +22.7672142     378.9555     72.34406      1.350     2.10     3.807119     20.40007     48.94759         5     0.724     0.419  22.46   0
       233    648.8569    452.9685 300.2273552 +22.6957353      3185.24     72.32565      1.308     2.35     4.500849     20.40007     478.6951        24     1.106     0.925  66.33   0
       234   1009.1384    451.7994 300.3400419 +22.8032994     489.8556     72.27039      1.465     4.33     3.835414     20.40007     57.81272         9     1.051     0.731  48.50   0
       235    124.7582    444.4858 300.0670518 +22.5361990     439.6003     72.27039      1.611     5.49      3.96459     20.40007      42.4199        10     1.153     0.742 -46.93   0
       236    488.7259    440.0161 300.1817010 +22.6440323     341.4779     72.30724      1.222     3.11     4.314199     20.40007     50.89246         6     0.891     0.477   0.44   0
       237    932.1655    431.8840 300.3224994 +22.7745281     539.2057     72.27039      1.344     3.52     3.822251     20.40007     60.12192         9     0.894     0.811  31.87   0
       238   1018.7484    430.6169 300.3499177 +22.8000854     989.9384     72.30724      1.536     3.52     3.833665     20.40007     105.6986        17     1.153     0.969 -65.32  16
       239    759.4053    427.1192 300.2701895 +22.7214231     1023.898     72.23353      1.320     2.46     3.889881     20.40007     143.6809        15     1.004     0.936 -15.94   0
       240    555.2509    427.5353 300.2064626 +22.6603825     349.0701     72.36246      1.038     2.54     4.379858     20.40007     68.21799         6     0.689     0.628 -30.23   0
       241    263.6221    424.9910 300.1165477 +22.5722430     603.7041     72.30724      1.336     2.93     3.879185     20.40007     92.85347        12     0.978     0.839  66.06   0
       242    325.7654    420.8758 300.1372099 +22.5896916     3671.139     72.28881      1.361     2.51      3.77035     20.40007     528.1122        29     1.170     0.993  59.50   0
       243    272.9720    415.5483 300.1225205 +22.5723353     7692.204     72.32565      1.435     2.67     3.887428     20.40007     979.2375        39     1.259     1.116  66.67   0
       244    651.6599    415.1985 300.2404910 +22.6857229     325.2725     72.27039      1.300     4.10     4.475681     20.40007     42.89899         7     0.999     0.530  64.64   0
       245    413.7617    409.8154 300.1681760 +22.6128918     4805.564     72.32565      1.336     2.45     4.334069     20.40007     692.8693        29     1.143     0.998  59.65   0
       246    657.9329    406.5530 300.2452515 +22.6851179     18640.82     72.28881      1.317     2.28     4.489668     20.40007     2932.148        60     1.269     1.160  34.73   0
       247    675.4316    406.5022 300.2507189 +22.6903452     704.8757     72.28881      1.730     6.86     4.513025     20.40007      57.7634        16     1.410     0.937 -39.55   0
       248    505.1759    407.9497 300.1972316 +22.6397515     298.8968     72.32565      1.178     4.12      4.35576     20.40007     43.27525         6     1.092     0.445  62.65   0
       249    901.4862    402.9795 300.3223164 +22.7570324     284.8683     72.23353      1.359     3.93     3.858501     20.40007     37.94805         5     1.056     0.419 -26.90   0
       250    855.1301    397.3112 300.3097032 +22.7415226     304.4986      72.4728      1.186     2.23     3.881587     20.40007     61.53238         5     0.711     0.439  15.36   0
       251    278.0665    393.5287 300.1312524 +22.5675406     391.8377     72.34406      1.462     3.80     4.068754     20.40007     45.46301         6     0.831     0.627  28.64   0
       252    212.6047    386.8037 300.1130812 +22.5459844     2064.276     72.12282      1.509     2.77     4.095447     20.40007     258.1261        30     1.422     1.159 -72.89   0
       253    991.5802    389.3258 300.3548475 +22.7800790      704.896     72.30724      1.386     3.16     3.831292     20.40007      86.0153        13     1.064     0.792 -85.83   0
       254    528.7167    388.7818 300.2107820 +22.6412992     395.9462     72.25196      1.429     3.78     4.334975     20.40007     44.88231         5     0.867     0.473  43.24   0
       255    701.3589    387.8727 300.2648436 +22.6927580     302.2455     72.28881      1.136     3.38     4.381472     20.40007     43.51204         6     0.830     0.596 -54.16   0
       256    868.7369    379.0140 300.3198849 +22.7403368      329.424     72.27039      1.625     3.77     3.916005     20.40007     31.39853         5     0.817     0.501 -32.86   0
       257    598.6516    375.9699 300.2367158 +22.6585713     6720.391     72.32565      1.300     2.26     4.299744     20.40007     967.8166        36     1.155     1.065  88.35   0
       258   1012.3842    376.4034 300.3655323 +22.7825903     1276.531     72.19664      1.551     3.11      3.80605     20.40007     151.4455        18     1.102     0.972  70.63   0
       259    313.4120    375.4721 300.1481057 +22.5729515     717.6572     72.32565      1.463     3.06     4.201198     20.40007     85.39728        11     0.969     0.784  83.53   0
       260    171.0975    368.5190 300.1061128 +22.5282906     430.9379     72.43604      1.375     3.59      4.01098     20.40007      63.5242        10     0.968     0.780 -69.61   0
       261    858.6508    367.9268 300.3203392 +22.7341293     354.9617     72.32565      1.272     2.17     3.955738     20.40007     63.17297         5     0.721     0.421  67.53   0
       262     18.4439    366.1754 300.0594398 +22.4818410     1291.523     72.34406      1.615     3.34     4.500378     20.40007     135.4868        19     1.159     1.017  62.69   0
       263    802.7015    364.9699 300.3038581 +22.7165262     974.2771     72.25196      1.331     2.94     4.087435     20.40007     128.1641        15     1.085     0.827  71.69   0
       264    712.4951    366.1207 300.2753737 +22.6898421     506.5968     72.41766      1.299     3.06     4.469258     20.40007     60.52052        10     0.988     0.635 -29.42   0
       265    505.2707    362.2617 300.2120911 +22.6266555      6179.22     72.34406      1.282     2.29     4.298394     20.40007     762.6938        34     1.163     1.040  73.58   0
       266    994.8003    356.5053 300.3665056 +22.7716045     666.0267     72.17819      1.491     3.53     3.826663     20.40007     89.60654        15     1.176     0.913  83.69   0
       267    897.2893    356.6481 300.3360472 +22.7424551       1412.1     72.28881      1.412     2.88     3.960197     20.40007     186.0018        17     1.033     0.957  58.19   0
       268    489.7503    350.9741 300.2109234 +22.6187625     410.2242     72.32565      1.144     2.28     4.286059     20.40007     69.90668         7     0.707     0.654  66.39   0
       269    572.4751    349.1468 300.2372705 +22.6430224     514.8263     72.32565      1.310     2.82     4.270895     20.40007     64.49673         9     0.855     0.717 -75.34   0
       270     16.8892    347.5867 300.0649893 +22.4760402     1107.074     72.25196      1.700     3.08     4.622649     20.40007     136.6013        22     1.220     1.128  -5.04   0
       271    869.9755    344.4975 300.3314744 +22.7307840     537.3215     72.21509      1.180     2.55     4.035051     20.40007     97.13095        10     0.945     0.625  57.11   0
       272    392.8490    341.4800 300.1838489 +22.5869982     2499.916     72.32565      1.305     2.37     4.384945     20.40007     368.1211        22     1.121     0.904  53.16   0
       273    151.8363    343.1497 300.1083593 +22.5152329     296.6992     72.32565      1.457     3.58     4.047016     20.40007     35.15089         6     0.905     0.603  65.98   0
       274    111.3471    338.9466 300.0971400 +22.5018863      919.433     72.34406      1.454     2.88     4.072295     20.40007     143.3166        15     1.000     0.945  32.24   0
       275    340.1790    335.0083 300.1695636 +22.5693545     225.3278     72.27039      1.317     4.25      4.43901     20.40007     30.43111         7     0.856     0.677  33.14   0
       276    362.1544    330.8670 300.1777435 +22.5747512     29795.06     72.30724      1.373     2.47     4.426878     20.40007     3937.445        60     1.293     1.130  66.14   0
       277    896.9658    328.4317 300.3451040 +22.7342450     1509.681     72.32565      1.373     2.42     4.058519     20.40007     203.2376        17     1.065     0.871 -63.70   0
       278     58.4526    318.6778 300.0872818 +22.4802077     4901.732     72.34406      1.581     2.85     4.390189     20.40007     625.4238        36     1.364     1.160  49.73   0
       279    236.3877    317.0602 300.1431093 +22.5330905     418.1468     72.27039      1.440     4.80     4.537521     20.40007     56.13478        11     1.152     0.825 -53.62   0
       280    812.0091    317.3222 300.3222232 +22.7056154     468.5104     72.27039      1.298     2.63      4.30642     20.40007      80.2987        10     0.995     0.607  22.22   0
       281    460.8473    316.2722 300.2131889 +22.6001333     514.7283     72.28881      1.145     2.62     4.296371     20.40007     89.52213         9     0.950     0.621  71.50   0
       282    772.6118    310.7408 300.3120797 +22.6919268     1795.305     72.28881      1.260     1.99     4.415487     20.40007     294.7961        18     0.983     0.858  86.70   0
       283    580.9762    305.5464 300.2540667 +22.6330407     444.9611     72.32565      1.530     2.62     4.255764     20.40007      44.2939         6     0.757     0.497   3.59   0
       284    987.9694    303.7250 300.3815041 +22.7543803     612.4172     72.30724      1.424     3.52     3.869084     20.40007     74.96857         9     1.056     0.672 -27.98   0
       285    434.3527    295.1800 300.2117876 +22.5861355     2256.654     72.34406      1.550     3.08      4.33343     20.40007     296.7985        28     1.519     0.982  57.18   0
       286    646.9119    294.1536 300.2782982 +22.6495159     256.5722     72.28881      1.245     2.05     4.383587     20.40007      58.0468         5     0.722     0.481  57.38   0
       287    873.6406    288.0372 300.3509395 +22.7156469     486.1973     72.38087      1.304     3.32     4.350498     20.40007     78.88474        11     1.092     0.790 -76.25   0
       288      6.3147    286.4369 300.0815460 +22.4553194     906.3254     72.28881      2.228     6.76     4.517938     20.40007     66.77252        17     1.934     0.828 -40.97  16
       289    772.7138    285.8380 300.3201921 +22.6847982     208.3546     72.28881      1.232     4.94     4.460026     20.40007     40.62921         6     1.101     0.627  67.57   0
       290    755.5414    286.0069 300.3147857 +22.6797049     452.7259     72.28881      1.307     1.99     4.463198     20.40007     59.43862         6     0.733     0.496  84.63   0
       291    723.7670    284.8369 300.3052642 +22.6698541     254.6696     72.34406      1.100     3.33     4.465817     20.40007     50.30943         6     0.782     0.520  51.31   0
       292    510.2002    274.7115 300.2420358 +22.6029788     1204.894     72.21509      1.260     2.19     4.255886     20.40007     178.3765        16     1.036     0.841  60.60   0
       293    595.2778    271.9761 300.2694127 +22.6276772     330.5979     72.30724      1.470     4.03     4.251635     20.40007     41.81603         6     1.067     0.434  59.67   0
       294    893.2944    267.5020 300.3637305 +22.7156249     310.0017     72.49117      1.195     4.26     4.138032     20.40007     49.09828         7     1.018     0.606  21.86   0
       295    755.1440    266.5203 300.3209844 +22.6739838     2007.196     72.34406      1.283     2.31     4.463384     20.40007     326.9005        18     0.999     0.927  89.47   0
       296   1016.4315    260.9156 300.4042738 +22.7505846     3266.156     72.30724      1.509     2.71     3.902488     20.40007      371.001        35     1.271     1.215  48.54  16
       297    463.5394    250.3382 300.2354192 +22.5819971     645.3078     72.34406      1.157     2.32      4.31847     20.40007     101.0968        12     0.913     0.757  32.05   0
       298    168.7542    244.4447 300.1456424 +22.4919663     704.5371     72.34406      1.576     4.13     4.539164     20.40007     74.03212        12     1.214     0.735  58.71   0
       299    138.2502    244.4966 300.1361444 +22.4828372     1355.885     72.38087      1.590     3.57     4.516092     20.40007     125.2933        21     1.314     0.959 -22.90   0
       300    876.3329    238.7846 300.3677586 +22.7022891     260.6344     72.30724      1.349     3.18     4.042623     20.40007     36.20606         6     0.710     0.650  22.00   0
       301    222.3628    236.4615 300.1648974 +22.5057423      666.373     72.32565      1.454     2.76     4.560671     20.40007     70.54339         9     0.819     0.756  26.04   0
       302   1017.1990    234.1578 300.4131943 +22.7431168     268.9568     72.30724      1.232     2.53     3.971929     20.40007     43.08389         6     0.727     0.555  51.40   0
       303    826.7562    227.9761 300.3558089 +22.6843407      729.847     72.34406      1.429     3.04     4.261959     20.40007     92.69154        12     0.984     0.845  45.11   0
       304    417.4384    227.5380 300.2284685 +22.5616349     333.1815     72.30724      1.135     3.00     4.489394     20.40007     54.13358         6     0.873     0.446 -17.27   0
       305    917.2717    221.1671 300.3862394 +22.7094755     369.2297     72.30724      1.262     3.09     3.959773     20.40007     54.54229         8     0.867     0.660 -88.85   0
       306    924.8972    217.1012 300.3899364 +22.7105882     2101.428     72.49117      1.401     2.54     3.961591     20.40007     248.8089        24     1.204     0.989  49.99   0
       307    343.4948    214.2461 300.2097743 +22.5356617     2236.487     72.32565      1.371     2.35     4.493737     20.40007     261.2301        21     1.046     0.986  72.94   0
       308    421.2088    209.2855 300.2355622 +22.5575202     1056.115     72.25196      1.489     2.93     4.485895     20.40007     125.7914        18     1.115     0.917  73.34   0
       309    173.0066    209.9420 300.1581555 +22.4833334     343.0548     72.27039      1.388     3.25     4.544855     20.40007     48.56015         8     0.847     0.724  21.86   0
       310    823.4403    208.7308 300.3610180 +22.6778137     508.5779     72.28881      1.181     2.18     4.243703     20.40007     102.6812         9     0.882     0.608 -53.87   0
       311    468.3375    206.9709 300.2509799 +22.5709734     284.0679     72.32565      1.374     4.65      4.37625     20.40007     32.32989         6     1.267     0.484  35.75   0
       312    237.8481    201.6395 300.1810066 +22.5003826     774.9542     72.34406      1.537     4.35     4.540599     20.40007     80.14676        12     1.150     0.824 -31.09   0
       313    356.3822    201.2227 300.2180074 +22.5357817     222.0741     72.28881      1.150     4.15     4.489885     20.40007     34.67185         6     0.748     0.657 -36.78   0
       314    840.9543    198.1919 300.3698962 +22.6800254      539.034     72.32565      1.269     2.58     4.103683     20.40007      78.7533        10     0.857     0.719  77.78   0
       315    776.0320    198.4357 300.3495805 +22.6606615     1812.998     72.34406      1.320     2.42     4.369881     20.40007     264.6867        21     1.056     0.981  27.14   0
       316    259.5042    195.1663 300.1898399 +22.5050131     490.7223     72.30724      1.417     3.36     4.535894     20.40007     75.64292         9     0.910     0.794  59.62   0
       317    549.4570    190.9554 300.2814269 +22.5906681      274.445     72.32565      1.275     3.07     4.377899     20.40007     43.90336         6     0.770     0.497  86.59   0
       318    780.1162    189.7701 300.3536641 +22.6593923     837.0551     72.32565      1.417     3.08     4.340047     20.40007     123.6487        13     1.039     0.796 -73.17   0
       319    700.4241    189.1776 300.3290231 +22.6353639     1236.859     72.27039      1.314     2.30     4.375304     20.40007     167.0366        18     1.064     0.984 -18.69   0
       320    521.8546    185.7982 300.2745058 +22.5809189     355.5622     72.23353      1.203     2.09     4.405331     20.40007     55.67215         6     0.716     0.535  39.72   0
       321    895.9175    180.7293 300.3926968 +22.6914533     1372.747     72.43604      1.381     2.26     3.963738     20.40007     220.1766        19     1.083     0.900  80.81   0
       322    626.7596    180.8541 300.3087755 +22.6109142     1052.459     72.27039      1.336     2.44     4.356184     20.40007     142.8992        14     1.041     0.767  79.34   0
       323    908.2456    179.6479 300.3968918 +22.6948318      936.278     72.34406      1.550     4.02     3.968764     20.40007      133.009        20     1.215     1.096  44.77   0
       324   1023.7931    169.8207 300.4361204 +22.7265799     451.3114     55.53616      1.066     3.02     4.803731     20.40007     104.7124         7     0.966     0.404 -88.04  24
       325     48.7479    166.9037 300.1334982 +22.4337286     453.7422     72.38087      1.262     2.22     4.278515     20.40007     62.83235         7     0.770     0.619  24.14   0
       326    258.7249    163.1399 300.1999837 +22.4955804     706.5757     72.36246      1.352     3.17     4.547239     20.40007     84.37629        13     1.019     0.852   0.50   0
       327    120.7003    157.7536 300.1588228 +22.4526690     2129.673     72.32565      1.544     2.99      4.48657     20.40007     252.0885        23     1.221     1.012  48.03   0
       328    943.8342    155.1739 300.4159279 +22.6984413     717.0629     72.32565      1.236     2.42     4.135334     20.40007     103.2837        10     0.860     0.691   6.63   0
       329     70.4584    154.4078 300.1442955 +22.4366487      493.791     72.28881      1.661     3.78     4.345294     20.40007     59.38366        10     1.077     0.803  46.70   0
       330    278.1007    151.1590 300.2098942 +22.4979446     5637.105     72.28881      1.413     2.75     4.546496     20.40007     591.3666        35     1.297     1.083  85.98   0
       331     62.2450    145.4199 300.1446578 +22.4316060      1447.84     72.36246      1.688     2.99     4.319071     20.40007      171.491        25     1.262     1.205  78.25   0
       332    261.4855    142.0724 300.2076736 +22.4903558     611.8511     72.41766      1.218     2.64      4.54404     20.40007     96.43832        11     0.946     0.797  27.92   0
       333    922.2642    132.7849 300.4164611 +22.6855459     3529.641     72.28881      1.439     2.78     3.981225     20.40007     479.6708        30     1.183     1.119  61.24   0
       334   1024.0000    130.9116 300.4488030 +22.7154462     312.7622     54.22582      1.143     3.95     4.935536     20.40007     68.28614         6     1.548     0.289  90.00  24
       335    471.4367    127.9823 300.2775601 +22.5492020     553.0247     72.30724      1.354     3.08     4.495668     20.40007     77.51325        11     1.053     0.720  81.30   0
       336    224.3682    128.9363 300.2003915 +22.4754606     262.7461     72.30724      1.276     3.01     4.544855     20.40007     48.82159         5     0.801     0.479 -36.03   0
       337    395.8105    119.8548 300.2566603 +22.5242146     732.7872     72.30724      1.703     2.91     4.494171     20.40007     81.94917        11     0.939     0.831  84.78   2
       338    161.6388    116.7947 300.1848270 +22.4531754     758.7028     72.32565      1.626     2.59     4.544855     20.40007      118.218        12     1.012     0.757  30.33   0
       339    523.0643    115.1549 300.2977902 +22.5609767     1713.243     72.32565      1.345     2.55     4.495668     20.40007     209.6039        20     1.117     0.904  86.95   0
       340    450.9447    115.4669 300.2752401 +22.5394677     392.7107     72.36246      1.288     3.27     4.495668     20.40007     56.47179         9     0.935     0.627  64.26   0
       341    584.6083    114.5265 300.3171565 +22.5792250     364.4436     72.28881      1.264     2.71     4.335165     20.40007     53.27751         6     0.867     0.441 -73.76   0
       342     59.6673    115.4563 300.1535718 +22.4222294     230.7816     72.36246      1.292     3.43     4.331255     20.40007      41.0771         5     0.998     0.341  22.79   0
       343    266.6526    110.8102 300.2194165 +22.4829232     405.2705     72.30724      1.466     1.73      4.53615     20.40007     58.33024         5     0.666     0.448  70.80   0
       344    811.6813    105.0645 300.3909711 +22.6444792      434.628     72.41766      1.541     3.09      4.16778     20.40007     57.21583         8     0.924     0.881 -70.74   0
       345    168.2598    100.5006 300.1921676 +22.4504795     261.1905     72.39926      1.619     5.72     4.544855     20.40007     31.45126         7     1.176     0.784 -34.60   0
       346    297.1015     94.9775 300.2340189 +22.4874968     5960.535     72.23352      1.420     2.79     4.521028     20.40007     682.8091        36     1.273     1.094  71.97   0
       347    803.5535     95.4614 300.3915511 +22.6392845     283.1282     72.32565      1.196     2.78     4.202842     20.40007     53.69766         7     0.931     0.490  83.97   0
       348    148.1383     94.3312 300.1879132 +22.4426777     736.7664     72.34406      1.532     3.49      4.53244     20.40007     77.42413        16     1.134     0.929 -58.67   0
       349    926.5732     92.5851 300.4308393 +22.6752698     437.1683     72.32565      1.465     3.79     4.001529     20.40007     52.44635         9     0.990     0.726  62.99   0
       350    268.7611     89.0908 300.2271134 +22.4773151     345.0338     72.30724      1.146     3.83     4.527052     20.40007     49.38838         6     0.784     0.536 -48.85   0
       351    312.7787     86.3498 300.2416919 +22.4897144     322.7308     72.30724      1.323     2.07     4.509705     20.40007     47.48363         5     0.670     0.466 -12.11   0
       352     58.8756     85.1119 300.1631629 +22.4132784     315.0298     72.43604      1.358     3.86     4.339365     20.40007     35.68627         6     0.756     0.567 -58.36   0
       353    543.1669     80.3998 300.3153166 +22.5570055     6209.944     72.27039      1.374     2.45     4.411339     20.40007      851.916        33     1.224     1.029  67.96   0
       354    428.4036     80.0584 300.2797044 +22.5225400     599.8798     72.27039      1.297     2.57     4.480585     20.40007     94.23104        12     0.945     0.786  32.45   0
       355    599.9841     75.2990 300.3346624 +22.5725506     249.6763     72.21509      1.357     3.94     4.172236     20.40007     45.61059         6     1.055     0.422  29.76   0
       356    737.1158     71.8522 300.3784992 +22.6126097     302.1262     72.34406      1.322     3.08     4.213984     20.40007     49.17833         5     1.057     0.314   9.44   0
       357    888.3377     69.1149 300.4265248 +22.6570768     541.4224     72.43604      1.498     3.84     4.080063     20.40007     54.00992         9     1.043     0.619 -76.87   0
       358    795.7360     70.0605 300.3973492 +22.6296386     902.7453     72.34406      1.464     2.78     4.233119     20.40007     103.9071        12     0.933     0.818  31.18   0
       359    107.6801     66.8105 300.1842603 +22.4226489     168.0353     72.28881      1.450     3.68     4.497941     20.40007     29.30484         5     1.005     0.386  -4.05   0
       360    235.8682     64.4054 300.2248871 +22.4603683     547.3235     72.27039      1.592     4.34     4.516026     20.40007     52.49472        10     0.926     0.800   0.98   0
       361    594.4930     63.0578 300.3369205 +22.5673871     377.8353     72.36246      1.103     2.36     4.164531     20.40007     62.40863         6     0.746     0.498 -85.08   0
       362    671.5139     60.4650 300.3617510 +22.5896987      6241.01     72.39926      1.402     2.40     4.059639     20.40007     858.3021        40     1.315     1.096  81.10   0
       363    446.4408     59.4774 300.2919893 +22.5220265     1385.733     72.28881      1.308     2.35     4.409383     20.40007     186.9203        19     1.118     0.909  39.30   0
       364    782.6162     56.0113 300.3978142 +22.6216711     504.6646     72.25196      2.177     5.88     4.236969     20.40007     33.00508         9     1.526     0.637  68.84   0
       365    712.7540     58.0831 300.3753716 +22.6013579     940.3194     72.28881      1.321     3.67     4.156022     20.40007     117.7974        13     1.210     0.758  -5.26   0
       366    728.6312     54.1821 300.3815833 +22.6049881     656.4863     72.28881      1.516     2.84     4.194974     20.40007     79.97732        12     0.952     0.831 -21.87   0
       367    195.3349     52.0498 300.2162898 +22.4446745     616.9131     72.34406      1.316     3.21     4.508077     20.40007     73.36992        13     1.060     0.785  46.58   0
       368    998.2822     51.4331 300.4665474 +22.6848813     460.7753     72.27039      1.497     4.01      5.22233     20.40007     74.95789         9     1.222     0.618  70.32   0
       369    767.1036     49.5025 300.3950893 +22.6151564      517.559     72.49117      1.512     3.06     4.231411     20.40007     68.93361         7     0.825     0.608 -29.73   0
       370    730.7830     44.3325 300.3854465 +22.6027992     897.2527     72.30724      1.674     4.72     4.200055     20.40007     99.18179        14     1.394     0.692  50.40   0
       371    715.6619     45.3455 300.3804065 +22.5985648     2654.102     72.36246      1.315     2.55     4.163521     20.40007     384.6786        23     1.196     0.941  61.16   0
       372    356.4213     46.1968 300.2682834 +22.4912490     373.8694     72.25196      1.254     2.85     4.492023     20.40007     51.09281         6     0.706     0.634  -9.08   0
       373      9.5761     39.7452 300.1625519 +22.3854745     907.5462     72.32565      1.583     2.79     4.140964     20.40007     110.7398        14     1.035     0.843 -19.46   0
       374    802.3514     36.9917 300.4101306 +22.6221058     1544.438     72.32565      1.432     2.48     4.259862     20.40007     201.7987        21     1.161     0.975 -73.49   0
       375    962.7808     35.6178 300.4605995 +22.6697101      192.518     72.30724      1.260     2.41     4.817466     20.40007     41.05842         5     0.723     0.435  22.09   0
       376    740.2630     30.3373 300.3929369 +22.6016110     767.7274     72.34406      1.407     2.68     4.217409     20.40007     84.70159        12     0.872     0.838  62.63   0
       377    545.8585     29.4720 300.3326626 +22.5431698     1062.305     72.34406      1.331     2.44     4.156679     20.40007     144.8808        14     1.030     0.766  76.76   0
       378    118.9490     29.3740 300.1998960 +22.4152729     511.8587     72.32565      1.493     4.16     4.492118     20.40007     56.10876         9     1.068     0.653 -60.89   0
       379    449.6495     27.6250 300.3033120 +22.5138316     652.2219     72.32565      1.293     2.73     4.317781     20.40007      96.4082        13     0.992     0.792  66.73   0
       380    831.9511     26.6463 300.4227107 +22.6279868     387.3201     72.32565      1.242     2.14     4.254798     20.40007      70.2128         6     0.745     0.589  36.74   0
       381    351.2371     18.3111 300.2757085 +22.4816822     227.3821     72.28881      1.146     3.48     4.491697     20.40007     31.56914         5     1.228     0.284 -55.00   0
       382    198.7353   1021.6081 299.9024543 +22.7239252      880.866       66.533      2.536     6.18     83.20052     20.40007     47.45216        12     1.693     0.935 -24.46  18
       383    788.8989     18.3444 300.4119814 +22.6127159     505.5285     72.39926      1.175     3.47     4.264512     20.40007     68.11288         7     0.844     0.597  27.44   0
       384     13.2501     18.0964 300.1707092 +22.3803586     553.0228     72.38087      1.885     2.92     4.153111     20.40007     50.39024         7     0.953     0.563  -1.86   0
       385    643.3376     14.4659 300.3678833 +22.5680362     351.7902     72.34406      1.574     3.29     4.042245     20.40007     45.40572         5     0.724     0.451  22.14   0
       386    279.9856   1014.9022 299.9298957 +22.7463940     1769.587     72.19664      3.301     9.06     63.17797     20.40007      67.7735        37     2.087     1.640  34.38  18
       387    405.2728   1011.7335 299.9698940 +22.7830884      711.057     72.34406      2.346     5.32     3.401551     20.40007     43.73452        11     1.256     0.834  54.60   0
       388    196.0400    970.5441 299.9182327 +22.7084778     1819.573     72.28881      5.189    14.03     45.49323     20.40007     50.26504        46     2.377     2.305 -51.28   2
       389      1.4633   1014.5709 299.8434542 +22.6626714     742.8675     57.02686      5.879     6.02    -16.55283     20.40007     37.99535        10     1.556     0.655 -89.44  27
