#   1 NUMBER                 Running object number                                     
#   2 X_IMAGE                Object position along x                                    [pixel]
#   3 Y_IMAGE                Object position along y                                    [pixel]
#   4 ALPHA_J2000            Right ascension of barycenter (J2000)                      [deg]
#   5 DELTA_J2000            Declination of barycenter (J2000)                          [deg]
#   6 FLUX_APER              Flux vector within fixed circular aperture(s)              [count]
#   7 FLUXERR_APER           RMS error vector for aperture flux(es)                     [count]
#   8 FLUX_RADIUS            Fraction-of-light radii                                    [pixel]
#   9 FWHM_IMAGE             FWHM assuming a gaussian core                              [pixel]
#  10 BACKGROUND             Background at centroid position                            [count]
#  11 THRESHOLD              Detection threshold above background                       [count]
#  12 FLUX_MAX               Peak flux above background                                 [count]
#  13 ISOAREA_IMAGE          Isophotal area above Analysis threshold                    [pixel**2]
#  14 A_IMAGE                Profile RMS along major axis                               [pixel]
#  15 B_IMAGE                Profile RMS along minor axis                               [pixel]
#  16 THETA_IMAGE            Position angle (CCW/x)                                     [deg]
#  17 FLAGS                  Extraction flags                                          
         1    774.1324     11.0894 300.4120302 +22.6127337     670.2865      72.6694      1.330     3.05     5.771607     20.46059      92.9874        12     0.925     0.876  70.45   0
         2    206.1292     10.2184 300.2354686 +22.4424544     3922.032      72.5587      1.523     2.82     6.257034     20.46059     425.8569        38     1.472     1.118  38.70   0
         3    532.1701      7.6909 300.3377448 +22.5393497     329.0737     72.48481      1.545     3.04     5.365734     20.46059     60.49891         6     0.890     0.597 -82.10   0
         4    628.7119      7.6010 300.3678433 +22.5682178     315.7886     72.42934      1.036     2.19     5.907071     20.46059     55.60122         5     0.688     0.453  20.98   0
         5    767.4661      2.9199 300.4125992 +22.6083885     1011.621     64.77451      1.372     2.89      5.78934     20.46059     119.1418        16     1.078     0.893  70.00  24
         6    322.1117      2.5439 300.2740300 +22.4749826     1171.818     62.92822      1.325     2.55      5.79809     20.46059     165.4073        17     1.031     0.882 -18.18  24
         7    733.2584      2.2016 300.4021696 +22.5979475     316.0287     61.17957      1.216     3.02     5.798506     20.46059     50.22568         5     0.710     0.686 -11.61  24
         8    211.8013   1007.3502 299.9134917 +22.7304057     1508.838      72.5033      3.958     8.51     81.90933     20.46059     55.93583        27     2.099     1.096  88.35   3
         9    234.4914   1010.7615 299.9194366 +22.7381939     2898.609     72.52177      4.720    25.21     75.63094     20.46059     66.38061       168     5.164     3.417  39.03  19
        10    234.6188    992.9774 299.9252621 +22.7331323     4449.192     72.52177      7.875    22.70     61.51765     20.46059     87.52592       301     5.479     4.623  75.13  19
        11    254.8440    992.6121 299.9316700 +22.7390973     6126.941     72.52177     12.289    43.14     46.81957     20.46059     127.6344       785     9.350     7.360  78.75  19
        12    273.0149    980.6713 299.9412053 +22.7411257     9069.574     72.52177     12.160    55.19     29.05019     20.46059     185.2555      1104    16.274     5.326  71.68  19
        13    114.0096    953.4213 299.9006377 +22.6855903     5188.726      72.5033     21.724    87.43     34.18898     20.46059     232.2903      2381    17.145    12.372  23.42  19
        14    960.2060    977.4849 300.1562750 +22.9462832     508.5841     72.44784      1.657     5.52       3.4641     20.46059     51.45478        10     1.243     0.692 -79.79   2
        15    962.6998    976.6530 300.1573236 +22.9467916     365.3383     72.61407      0.975     3.74      3.49936     20.46059     36.29325         5     1.251     0.322 -68.04   3
        16    668.2678    993.4251 300.0600826 +22.8633491     8771.358      72.5033      1.956     4.67      3.87731     20.46059     490.6039        48     1.530     1.433   0.56   3
        17      5.5268    981.6249 299.8577583 +22.6611089      1799.66      72.5587     13.884    17.72    -17.12781     20.46059     44.04971        65     3.729     2.340  61.75  27
        18    673.5976    991.1564 300.0624811 +22.8642960     9596.901     72.52177      1.895     4.33     3.877796     20.46059     557.0711        45     1.440     1.433  -7.12   3
        19    176.1733    961.0133 299.9174897 +22.7064254     1154.542     72.52177      5.965     9.01     47.42481     20.46059     49.96168        13     1.905     1.190 -38.80   3
        20    180.9463    963.8869 299.9180387 +22.7086819     1334.659      72.5587      4.416    10.37     49.42028     20.46059     62.20491        18     1.783     1.681 -14.20   2
        21    686.5612    960.4424 300.0765123 +22.8593661      6891.86     72.61407      1.864     4.08     3.942259     20.46059     422.4634        50     1.553     1.404   4.89   0
        22    768.4689    994.1538 300.0910681 +22.8936009     780.3484      72.5033      2.155     7.49     3.296055     20.46059     43.24013        16     1.443     1.087 -89.52   0
        23    201.6088    982.1096 299.9185344 +22.7201088     1650.379     72.44784      4.772    16.87     62.22771     20.46059      60.3316        57     4.049     1.953  71.56   3
        24     15.7149    980.3772 299.8613289 +22.6638101     1665.919     72.46633     11.795    13.56    -8.310366     20.46059     76.72435        43     2.701     1.893  86.02  19
        25    277.4613    954.5333 299.9510908 +22.7349632     538.6727      72.5587      1.762     7.38     17.69337     20.46059     44.85289        15     1.393     1.096  15.23   0
        26    124.7681   1013.6378 299.8843924 +22.7060841     2496.791     72.54024      9.378   111.01     90.75141     20.46059     140.4071      1353    25.698    13.306  54.03  27
        27    521.1980   1007.4391 300.0097210 +22.8232642     481.4094     72.54024      2.095     5.02     2.737513     20.46059     36.56878         7     1.273     0.560 -65.41   0
        28    199.5154    953.0517 299.9273358 +22.7111477      610.712     72.52177      2.841     4.77     38.29779     20.46059     37.78162         7     1.501     0.430 -26.28   0
        29    594.9824    951.1497 300.0510089 +22.8292390     1599.921     72.52177      1.883     4.01     3.795987     20.46059     116.6493        23     1.241     1.189  -0.98   0
        30    566.6943    954.8168 300.0410066 +22.8218084     592.3523     72.44784      1.957     5.64     3.599609     20.46059     44.78884         9     1.009     0.887 -16.44   0
        31    772.7522    947.3798 300.1076203 +22.8814552     334.9819      72.5587      1.956     5.22      3.86422     20.46059     27.77789         5     1.436     0.537  39.75   0
        32    488.7397    947.6154 300.0190787 +22.7963621     1066.749     72.48481      1.725     4.37     3.516576     20.46059     82.36027        19     1.274     1.018 -11.86   0
        33    419.4626    945.6495 299.9981564 +22.7750180     6611.409     72.57716      1.816     4.00     4.195757     20.46059     450.9795        43     1.409     1.378 -46.75   0
        34    503.7727    940.4821 300.0260788 +22.7988239     252.5202     72.52177      1.774     4.29     3.635234     20.46059      30.5752         5     1.144     0.458 -58.71   0
        35    111.4218    924.4300 299.9092628 +22.6765008     4363.445     72.52177     21.645    65.79     11.26113     20.46059     1241.118      1076    14.357     8.365  -8.58   3
        36    451.8120    932.8806 300.0123774 +22.7810577     479.1126      72.5033      1.798     6.03     4.107526     20.46059     45.97161        11     1.296     0.866  38.06   0
        37      7.4396   1008.9740 299.8494554 +22.6695222     3119.772      72.5587     13.635    52.03    -26.66789     20.46059     68.27874       692    13.129     5.721  85.37  27
        38    965.7794    924.5175 300.1752449 +22.9327382      2251.48     72.48481      2.033     5.08     3.945338     20.46059     117.0621        34     1.539     1.347  22.76   0
        39    616.3341    921.7784 300.0672126 +22.8272107     343.4837      72.5033      1.672     5.24     3.912941     20.46059     30.54143         5     1.369     0.566  52.35   0
        40    532.9855    982.3961 300.0215387 +22.8196136     439.5734     72.37384      1.762     5.38     3.090739     20.46059     33.97695         9     0.984     0.831  59.20   0
        41    754.8840    913.5211 300.1130649 +22.8663767     715.0539     72.65096      2.175     6.35     4.201747     20.46059     46.77705        14     1.501     1.150  67.07   0
        42    390.6082   1004.3214 299.9700908 +22.7831940     504.7971     72.46633      1.703     3.89     3.606085     20.46059     49.22925         8     0.953     0.647  70.43   2
        43    789.4697    907.5764 300.1257780 +22.8750363      942.792     72.54024      1.716     4.50     4.122992     20.46059     78.02094        17     1.138     1.025  -7.03   0
        44    567.2917    908.6089 300.0562226 +22.8087250     284.6031     72.44784      1.505     4.88      3.90732     20.46059     34.31643         7     1.391     0.485   2.36   0
        45    581.7746    998.1116 300.0316176 +22.8387564     2345.164     72.46633      1.893     4.18     3.465677     20.46059     183.2736        32     1.446     1.325  -7.20   0
        46    811.6536    901.1630 300.1347790 +22.8798434      11484.1     72.54024      1.811     4.06       4.1394     20.46059     655.3779        49     1.469     1.392 -44.99   0
        47    241.3623    903.0205 299.9566191 +22.7093560     647.3658     72.54024      3.938     3.86     10.89246     20.46059     28.17112         5     0.889     0.480 -88.23   0
        48    857.0385    901.0185 300.1489754 +22.8934035     475.5588     72.54024      1.862     6.61     4.203558     20.46059     34.97834        10     1.280     0.959  65.52   0
        49   1002.5496    900.9172 300.1943924 +22.9369747     426.0141     72.54024      1.585     4.96     4.061044     20.46059     36.63913         7     1.285     0.615 -35.41   0
        50    122.6719    892.6417 299.9230968 +22.6707619     1071.979      72.5033      5.337     5.85     10.26075     20.46059     69.77133        21     1.490     1.107  39.16   0
        51    516.8017    889.3771 300.0467565 +22.7880644     537.3438     72.46633      1.747     4.97     4.139452     20.46059     51.81301        11     1.129     1.045  37.77   0
        52    863.6164    888.8854 300.1549725 +22.8918898     564.6864     72.48481      1.893     5.16      4.23903     20.46059     31.36708         8     1.403     0.536  24.51   0
        53    206.6977   1005.0999 299.9126372 +22.7282286     2577.458     72.72468      5.461    18.75     80.80808     20.46059     63.93259        87     3.610     2.705   8.74  19
        54    819.9230    883.1084 300.1432289 +22.8771364     1411.282      72.6694      1.829     4.47     4.220409     20.46059      111.335        25     1.352     1.250   6.25   0
        55   1002.9551    882.1801 300.2006130 +22.9317126     423.0713     72.57716      1.705     6.47     4.208597     20.46059     42.71751         8     1.228     0.955  25.45   0
        56    672.3591    880.0482 300.0982366 +22.8320273     474.5344     72.57716      1.705     5.33     4.075482     20.46059     37.79079         9     1.322     0.608  52.54   0
        57    858.0427    876.2487 300.1573444 +22.8865898     1133.206     72.54024      2.454     7.32     4.264032     20.46059     71.53854        25     1.798     1.200  69.93   0
        58    198.1657    876.4845 299.9518174 +22.6887831     581.5797     72.48481      2.928     3.56     9.671762     20.46059     38.97829         5     1.015     0.361  84.53   0
        59    907.6659    868.5097 300.1753352 +22.8992362     696.8835     72.65096      2.149     5.84     4.306737     20.46059     42.53856        10     1.063     0.911 -60.06   2
        60    757.8726    867.0457 300.1291113 +22.8539264     894.8988     72.52177      1.898     5.49     4.286043     20.46059     59.71464        16     1.360     1.042  22.30   0
        61    769.4619    864.0206 300.1337070 +22.8565311     563.0001     72.48481      1.592     4.92     4.292673     20.46059     58.77187        11     0.961     0.902  10.51   0
        62    470.7408    863.2839 300.0409029 +22.7667623      4247.27     72.63251      1.672     3.40     4.698551     20.46059     346.5722        36     1.282     1.269  79.47   0
        63    196.2238    849.2383 299.9600728 +22.6803853     605.6313     72.54024      1.423     5.11     7.214737     20.46059     60.06917         9     1.159     0.638 -25.09   0
        64    173.0408    845.8991 299.9539514 +22.6724713     1569.788     72.50329      1.659     3.68     7.478329     20.46059     179.2642        23     1.257     1.168   6.90   0
        65    999.1135    833.6874 300.2151840 +22.9166279     2181.994     72.65096      1.903     4.56     4.331374     20.46059     125.6263        31     1.414     1.326  16.61   0
        66    704.6916    833.8215 300.1233421 +22.8284454     397.8477     72.44784      1.778     5.17     4.355206     20.46059     33.89378         7     1.016     0.743 -24.63   0
        67    475.3414    833.4416 300.0520382 +22.7595767     226.7251     72.52177      1.448     4.49     4.759959     20.46059     32.07622         5     1.026     0.559 -41.83   0
        68    782.2549    827.6200 300.1495306 +22.8499106     650.1761      72.5033      1.691     4.60     4.388438     20.46059     50.21245        15     1.224     0.927  -6.26   0
        69    205.1554    827.4404 299.9699365 +22.6768123     330.3354     72.59562      1.717     4.91     6.202909     20.46059      47.6122         7     1.081     0.632 -62.56   0
        70    650.6906    821.4814 300.1105301 +22.8087153     4866.044     72.63251      1.600     3.26     4.436909     20.46059      414.802        35     1.288     1.190 -18.53   0
        71    141.4634    822.3574 299.9517894 +22.6562437     481.4285     72.52177      1.299     3.40     6.111465     20.46059     51.53732         6     0.911     0.422 -70.75   0
        72    453.0350    818.4493 300.0499693 +22.7485844     487.8156      72.5587      1.418     3.80     4.834692     20.46059     59.30436         8     0.834     0.718 -50.13   0
        73    200.9721    814.9457 299.9726978 +22.6719729     1313.414     72.52177      1.667     4.08     5.761735     20.46059     130.6497        20     1.267     1.105  30.06   0
        74    671.3227    813.9151 300.1194176 +22.8127270     706.0873     72.63251      1.576     3.74     4.490202     20.46059     75.14895        14     1.036     0.999 -89.16   0
        75    469.5327    813.2224 300.0568037 +22.7520312     269.1289     72.52177      1.432     4.22     4.815916     20.46059      39.9085         7     1.077     0.471  42.54   0
        76    219.9098    812.1393 299.9794982 +22.6768494     416.2475     72.61407      1.865     6.08     5.556807     20.46059       51.184         9     1.070     0.971  28.09   0
        77    588.0683    804.4430 300.0965641 +22.7850507     381.4065      72.5033      2.123     5.98     4.438685     20.46059     30.21175         9     1.147     0.878 -55.56   0
        78    826.7065    801.3016 300.1719442 +22.8556710     4061.445     72.70625      1.613     3.31     4.460262     20.46059     331.6777        31     1.243     1.194   0.58   0
        79    557.9519    798.0258 300.0892717 +22.7741795     348.8521     72.54024      1.425     3.44     4.291109     20.46059     33.43713         5     0.644     0.587   1.02   0
        80    235.1217    794.7462 299.9898822 +22.6764230     509.3649      72.5587      1.694     4.65     5.185932     20.46059     51.58322         9     1.025     0.794  86.81   0
        81    543.7269    793.6721 300.0862576 +22.7686649     609.3236     72.57716      1.614     3.94     4.256896     20.46059     54.23054        13     1.099     0.843   9.17   0
        82    190.2089    791.6195 299.9769342 +22.6620520     1042.118     72.48481      1.662     3.79      5.20236     20.46059     120.5232        19     1.313     0.998 -28.06   0
        83    605.2847    787.0444 300.1075821 +22.7852160     492.5448     72.48481      1.521     2.73     4.666887     20.46059     66.70766         7     0.778     0.689  28.01   0
        84    339.7147    783.6671 300.0260143 +22.7046173     53856.88     72.61407      1.621     3.36     5.016971     20.46059     5186.567        91     1.421     1.381  16.24   0
        85    597.5683    782.7958 300.1065599 +22.7816830     1690.921      72.5033      1.583     3.39     4.656266     20.46059     172.2073        20     1.203     0.967 -14.87   0
        86   1010.6059    781.9734 300.2355832 +22.9052089     899.0845      72.5033      1.947     5.53     4.513101     20.46059     59.27254        16     1.107     1.058  44.11   0
        87    268.3881    782.1257 300.0043295 +22.6827811     508.5557     72.54024      1.588     4.40      5.14231     20.46059     57.36242         7     0.829     0.666 -75.16   0
        88    626.6104    778.8266 300.1168959 +22.7892488     953.5859     72.52177      1.591     3.04     4.728073     20.46059     108.3562        17     1.070     1.005  14.66   0
        89     25.7928    778.3440 299.9301525 +22.6089096      767.459      72.5033      1.749     5.15     5.139834     20.46059     68.27623        18     1.417     0.976  -3.53   0
        90    637.5101    776.9556 300.1208992 +22.7919786     658.6505     72.52177      1.472     4.22     4.727272     20.46059     71.22418        12     1.166     0.842 -24.30   0
        91    743.1411    773.6082 300.1548993 +22.8226753     475.0133     72.48481      1.521     3.77      4.61466     20.46059     57.08876         9     0.953     0.720 -49.99   0
        92    538.1697    771.0360 300.0918854 +22.7605000     262.4612     72.54024      1.438     4.01     4.510063     20.46059     32.58616         5     0.875     0.525  34.29   0
        93    780.4544    763.8044 300.1697157 +22.8310403     805.3791      72.5033      1.596     3.72     4.610368     20.46059     77.51191        15     1.074     0.977  57.73   0
        94    389.4591    760.8771 300.0488989 +22.7129949     31523.54     72.57716      1.576     3.12     4.941628     20.46059     3498.668        73     1.365     1.330 -16.37   0
        95    403.8365    761.4142 300.0531982 +22.7174604     2071.823     72.52177      1.556     3.12     4.932667     20.46059     216.9488        23     1.145     1.092  64.58   0
        96    912.5598    756.9874 300.2131204 +22.8686604     2824.618     72.52177      1.638     3.44     4.862739     20.46059     223.1702        31     1.314     1.187  21.18   0
        97    400.6484    755.5165 300.0541230 +22.7148116     614.4868      72.5033      1.471     3.32      4.93305     20.46059     72.57103        12     1.027     0.848  58.38   0
        98    670.4354    752.9053 300.1389738 +22.7949400     992.6082     72.52177      1.497     3.12     4.787234     20.46059     116.1408        17     1.059     1.008  -9.82   0
        99    506.7992    753.0232 300.0879731 +22.7459235     471.0216     72.44784      1.560     4.78     4.783196     20.46059      46.4916         9     0.966     0.670  19.44   0
       100    517.8340    747.8368 300.0930943 +22.7477427      944.928     72.57716      1.588     3.69     4.771293     20.46059     97.34239        18     1.219     1.013  24.29   0
       101     77.3225    748.3709 299.9559042 +22.6157761     496.9867     72.52177      1.516     4.04     5.154979     20.46059     56.93654        11     1.019     0.850 -89.88   0
       102    918.7527    744.6705 300.2190555 +22.8669761     651.7172      72.5033      1.639     4.60     4.969492     20.46059     62.45693        16     1.210     0.991  -9.67   0
       103    463.5966    742.8304 300.0778371 +22.7300446     356.0999     72.48481      1.232     3.64     4.902068     20.46059     62.18226        12     1.117     0.751  52.57   0
       104    419.9748    743.6533 300.0639930 +22.7172015     320.1046     72.54024      1.386     4.51     4.923389     20.46059     35.16647         7     0.877     0.741  82.19   0
       105    376.1502    743.4020 300.0504374 +22.7039881      333.108      72.5033      1.354     2.69     4.936397     20.46059     34.54177         5     0.722     0.450  20.18   0
       106    104.8354    742.3295 299.9664174 +22.6222982      514.657     72.54024      1.857     5.14     5.161643     20.46059     48.79958         7     1.138     0.876  28.75   0
       107    272.2021    752.5629 300.0151244 +22.6754423     824.8756     72.54024      1.779     3.44     5.063997     20.46059     97.60032        18     1.267     0.972 -49.13   0
       108    896.4144    739.7184 300.2136983 +22.8588617      400.163      72.5033      1.715     5.84     4.952244     20.46059     34.56414        10     1.087     0.883  86.51   0
       109    269.5555    736.9062 300.0193896 +22.6701556     561.9008     72.54024      1.461     5.28     5.030065     20.46059     57.17371        13     1.215     0.829  18.00   0
       110    593.0333    727.5717 300.1230970 +22.7644657      406.847     72.54024      1.298     3.82     5.009788     20.46059     50.85229        10     0.990     0.706 -56.68   0
       111    562.6791    725.7850 300.1142247 +22.7548542     618.0169     72.54024      1.466     3.04      4.90154     20.46059     86.34307        14     1.059     0.833  60.09   0
       112    979.0101    722.3283 300.2451132 +22.8786035     4668.957     72.52177      1.678     3.39     5.143604     20.46059     363.4781        39     1.339     1.289  80.40   0
       113    472.2801    724.7814 300.0864059 +22.7274663     299.0103     72.52177      1.218     3.97     4.903519     20.46059       37.297         6     0.799     0.563 -39.16   0
       114    584.5334    723.2953 300.1218396 +22.7606900     1339.731     72.65096      1.442     2.79     4.993068     20.46059     141.8717        17     1.011     0.966 -15.37   0
       115    504.2154    723.0604 300.0969067 +22.7365463     317.3432     72.48481      1.321     2.64      4.88076     20.46059     57.66114         5     0.645     0.589 -11.08   0
       116    666.2047    718.2755 300.1489107 +22.7837260     225.1392     72.42934      1.182     3.26     4.962086     20.46059     41.81606         6     0.737     0.639 -45.51   0
       117    967.5795    713.5825 300.2443897 +22.8726663     1663.761      72.5033      1.707     4.17     5.189683     20.46059      123.711        26     1.325     1.166 -22.59   0
       118    330.2977    707.4412 300.0478583 +22.6799163     924.9508      72.5033      1.641     3.54     4.901355     20.46059     100.8311        16     1.145     0.951 -69.73   0
       119    195.9071    707.7057 300.0059775 +22.6396859     238.6562     72.68783      1.650     4.39     5.129985     20.46059      31.7476         5     1.109     0.494  55.29   0
       120    998.4534    703.9304 300.2571584 +22.8791382     1602.665     72.54024      1.673     3.80     5.247282     20.46059     131.8304        26     1.383     1.107  41.37   0
       121    793.9483    704.9752 300.1930421 +22.8181823     2718.395     72.54024      1.572     3.22     4.799468     20.46059     259.5078        30     1.437     1.077   5.34   0
       122     16.5865    694.7178 299.9544682 +22.5821624     896.9805      72.5033      1.771     4.25     5.090859     20.46059     87.93871        21     1.387     1.151 -87.06   0
       123    178.8111    691.2306 300.0060157 +22.6298305     750.2208     72.52177      1.895     4.41      5.15144     20.46059       64.907        11     1.173     1.034   3.26   0
       124    876.2042    691.0071 300.2232267 +22.8388099     595.6441     72.35532      2.065     5.91     5.118793     20.46059     42.08282        10     1.339     0.735 -21.33   0
       125    912.3105    681.9061 300.2374441 +22.8470091     149148.2     72.68783      1.582     3.28     5.304348     20.46059      13120.3       157     1.456     1.443 -49.33   0
       126    674.5151    685.8292 300.1620437 +22.7768965     330.2008     72.52177      1.285     4.29     5.116682     20.46059     44.74191         9     1.046     0.760  80.23   0
       127    764.5770    682.1161 300.1913153 +22.8028151      770.499     72.48481      1.347     3.06     4.977663     20.46059     91.96671        12     0.994     0.764   8.16   0
       128    945.1337    675.2575 300.2498423 +22.8549286     462.0977      72.5587      1.361     3.08     5.414319     20.46059     52.26999         9     0.870     0.697 -65.68   0
       129    598.5862    670.6697 300.1433171 +22.7497881     1637.838     72.54024      1.341     2.49     5.180853     20.46059     229.9814        16     0.946     0.925   0.76   0
       130    779.7666    667.9505 300.2006526 +22.8032957     9432.262      72.5587      1.434     2.87     4.965539     20.46059     1031.688        37     1.191     1.150 -37.42   0
       131    281.2663    663.0199 300.0470401 +22.6524630     4985.276      72.5033      1.501     2.90     4.861637     20.46059     598.2372        33     1.222     1.169  40.33   0
       132    363.3137    661.0633 300.0731990 +22.6765037      1137.81     72.63251      1.383     3.00     4.858239     20.46059     139.2303        16     1.057     0.914  81.13   0
       133    239.0967    658.6533 300.0353442 +22.6385634     375.9069     72.59562      1.499     3.53     4.922213     20.46059     48.25829        10     0.924     0.878  76.92   0
       134    571.4693    656.5770 300.1394507 +22.7376136     682.5737     72.54024      1.246     2.58     5.166724     20.46059     95.76713        12     0.918     0.783  31.20   0
       135    563.2127    648.7382 300.1394262 +22.7328877     3157.471     72.48481      1.347     2.51     5.157524     20.46059     397.2026        25     1.061     1.027 -69.18   0
       136    553.4000    642.5920 300.1383672 +22.7281816     1373.755     72.33681      1.262     2.37     5.115798     20.46059     185.2087        16     1.014     0.868  29.90   0
       137    481.7388    642.1568 300.1161972 +22.7065779     295.5051     72.52177      1.327     3.56     4.969059     20.46059     40.14092         5     1.014     0.361   2.62   0
       138    946.7704    640.5037 300.2616449 +22.8454292     503.8308     72.46633      2.109     4.38      5.30664     20.46059     47.90486         8     0.958     0.866  27.32   0
       139    216.7024    638.6563 300.0348769 +22.6261082     641.4888     72.61407      1.436     3.50     4.976922     20.46059     62.82011        11     0.955     0.781 -12.95   0
       140    230.8794    637.0953 300.0397923 +22.6299119     764.5701     72.63251      1.800     4.13     4.942605     20.46059     76.16129        14     1.285     0.964 -19.10   0
       141   1000.4702    634.2374 300.2804334 +22.8597078      560.308     72.48481      1.641     3.13     5.189126     20.46059      46.3996        10     0.930     0.709  -8.06   0
       142    288.3111    633.7429 300.0587423 +22.6461720     304.6807      72.5587      1.448     3.07     4.851976     20.46059     45.40007         6     0.860     0.491  45.16   0
       143    256.9555    633.7010 300.0490039 +22.6367575     603.4413     72.52177      1.605     3.45     4.901925     20.46059     70.81175         9     1.065     0.658  48.35   0
       144    577.3844    633.0284 300.1489432 +22.7326228     405.8083     72.54024      1.202     3.51     5.311343     20.46059     55.25221         9     0.906     0.674 -30.20   0
       145    478.2427    632.2882 300.1183148 +22.7026961     1632.893     72.52177      1.355     2.59     4.984876     20.46059     183.9403        20     1.074     0.977  -6.31   0
       146    132.1402    627.0417 300.0123612 +22.5974129     19789.23      72.5033      1.609     3.16     5.289096     20.46059     2168.609        60     1.429     1.324  28.72   0
       147     53.1225    628.6984 299.9872669 +22.5741853     691.1269     72.65096      1.517     4.58     5.289966     20.46059      66.8575        12     1.053     0.983  57.60   0
       148    563.2044    627.5282 300.1463141 +22.7267935     1203.404     72.46633      1.486     2.72     5.224618     20.46059     143.8959        17     1.162     0.858  36.52   0
       149    480.3638    624.2221 300.1215953 +22.7010155     287.6914     72.54024      1.331     3.71     5.004584     20.46059     32.70139         6     0.928     0.641 -60.40   0
       150    316.6582    619.2493 300.0722679 +22.6505113     232.8558     72.57716      1.119     3.39     4.850365     20.46059     36.38581         5     0.760     0.438 -72.91   0
       151    981.2535    613.7369 300.2810980 +22.8480602     1100.119     72.57716      1.679     3.61     5.117325     20.46059     101.7225        19     1.184     1.062 -61.15   0
       152    646.3119    615.0559 300.1762509 +22.7481148     305.2831      72.5587      1.444     5.31     5.581626     20.46059     30.02754         7     1.078     0.739  14.80   0
       153    847.9046    612.1141 300.2400351 +22.8076604     538.5316     72.70625      1.512     3.00     5.080495     20.46059     66.34464        10     0.980     0.680  76.96   0
       154     78.3124    611.3268 300.0007367 +22.5767577     1429.422      72.6694      1.871     4.59     5.401494     20.46059     121.2777        23     1.432     1.102  83.86   0
       155    144.5943    611.4604 300.0212934 +22.5966771     496.0359     72.48481      1.577     5.43     5.198601     20.46059     47.47591         8     1.389     0.599 -57.47   0
       156    920.4542    606.5641 300.2644625 +22.8277924     1111.598     72.54024      2.305     6.37     5.219607     20.46059     88.70808        23     1.983     1.052   8.85   0
       157    526.2943    608.0601 300.1411448 +22.7101402     507.7066     72.61407      1.281     2.21     5.091148     20.46059     77.53484         8     0.788     0.643  42.52   0
       158    319.0127    607.7750 300.0767274 +22.6479232     196.1877     72.52177      1.047     3.04      4.85127     20.46059     38.46581         5     0.794     0.486 -57.53   0
       159    483.5400    600.3878 300.1303262 +22.6951228     899.9901      72.5033      1.684     3.23     5.105096     20.46059     86.92939        16     1.140     0.894  11.89   0
       160    631.2573    599.1959 300.1767130 +22.7390477     506.5106     72.48481      1.403     2.73     5.684458     20.46059      68.6191         9     0.905     0.612 -18.18   0
       161    678.6174    597.6874 300.1919574 +22.7528042      454.836     72.46633      1.124     2.58     5.489175     20.46059     89.24695         9     0.922     0.630 -61.04   0
       162    648.7327    597.3701 300.1827500 +22.7437593     584.4731      72.5033      1.432     3.77     5.615319     20.46059     73.71897        11     1.025     0.872  83.75   0
       163    527.5527    596.2018 300.1453884 +22.7071115     1047.681     72.52177      1.534     3.64     5.212164     20.46059     105.0625        18     1.285     0.908  16.01   0
       164    493.0625    591.8150 300.1360751 +22.6955148     1723.035     72.48481      1.317     2.42     5.180164     20.46059     238.9774        18     0.974     0.901 -10.83   0
       165    857.9971    588.8476 300.2507398 +22.8039958     347.3286     72.52177      1.267     3.72     5.134121     20.46059      36.2523         7     0.837     0.682 -63.88   0
       166     54.8870    585.2503 300.0019269 +22.5622488     5148.178     72.52177      1.714     3.45     5.282604     20.46059      513.981        37     1.403     1.328 -61.22   0
       167    961.3056    591.9722 300.2819451 +22.8358301     3398.595     72.42934      1.509     2.98     5.068824     20.46059     336.8795        31     1.204     1.147 -46.04   0
       168   1001.3788    582.0742 300.2976622 +22.8449826     389.5894      72.5033      1.589     5.13     4.868951     20.46059     38.75227         7     1.343     0.554  14.85   0
       169    356.4543    578.4239 300.0979087 +22.6507216     9328.607     72.54024      1.407     2.55     4.883984     20.46059     1249.988        39     1.185     1.153  43.49   0
       170    478.8981    575.4742 300.1369730 +22.6865765     8843.374      72.6694      1.360     2.55     5.264347     20.46059     1194.784        38     1.161     1.087  56.17   0
       171    725.1832    572.2659 300.2147244 +22.7594498     298.3238      72.5033      1.248     3.87      5.29917     20.46059     41.48599         5     0.918     0.603  29.30   0
       172    244.2511    572.5256 300.0649229 +22.6153882     257.2098     72.54024      1.191     3.46     4.940381     20.46059      32.1642         5     0.752     0.460 -19.02   0
       173    122.7070    571.8730 300.0273474 +22.5787521     258.9419     72.65096      1.317     4.39     5.233649     20.46059     46.72936         5     1.090     0.503 -28.52   0
       174    975.2648    567.0027 300.2944102 +22.8328308     12776.05     72.52177      1.517     3.16     4.891173     20.46059     1221.135        48     1.283     1.258  44.55   0
       175    890.5915    569.5670 300.2671664 +22.8082147     1950.568     72.52177      1.444     2.70     5.129366     20.46059     238.7606        22     1.103     1.021  75.23   0
       176    539.5109    565.0975 300.1592142 +22.7017609     11930.32     72.70625      1.366     2.54     5.564982     20.46059     1484.983        41     1.154     1.118  55.15   0
       177    709.2057    560.9875 300.2134085 +22.7514227     532.5828     72.39235      1.359     3.56     5.384443     20.46059     62.53105        10     0.972     0.689 -28.94   0
       178    266.8313    560.4489 300.0758672 +22.6186917     1305.531      72.5587      1.451     2.68     4.918749     20.46059      174.549        19     1.109     0.983  67.23   0
       179    424.9837    560.0554 300.1251990 +22.6659892     271.1446     72.48481      1.316     1.74     5.093269     20.46059     52.79861         5     0.576     0.557  87.60   0
       180    513.9254    558.2933 300.1534576 +22.6921393     353.0079      72.6694      1.112     2.06     5.529608     20.46059     77.07041         5     0.734     0.403 -20.26   0
       181    471.1047    553.2796 300.1417550 +22.6778664     4484.647     72.63251      1.307     2.62     5.369561     20.46059      512.924        27     1.096     1.016  33.42   0
       182    813.9413    553.3528 300.2485324 +22.7805994     882.7168     72.57716      1.413     2.50     5.243731     20.46059     120.5135        12     0.945     0.779  48.98   0
       183    449.3247    551.7690 300.1354659 +22.6709050     1204.642     72.52177      1.281     2.40     5.254393     20.46059     177.1271        16     0.974     0.900 -49.56   0
       184    203.6853    551.0528 300.0592821 +22.5970607     705.8468     72.54024      1.444     2.94     5.002318     20.46059     105.8941        14     1.000     0.908  22.80   0
       185    891.0816    548.7230 300.2740889 +22.8023694      1637.32     72.63251      1.524     3.56     5.099884     20.46059     172.6142        19     1.233     0.940 -40.97   0
       186    137.4920    548.6823 300.0394738 +22.5765306     379.9358      72.6694      1.691     3.92      5.14117     20.46059     45.62567         6     0.926     0.680 -10.81   0
       187    587.8043    540.8401 300.1821312 +22.7092632     201086.6     72.54024      1.339     2.44     5.803142     20.46059     29775.26       187     1.410     1.327 -15.43   0
       188    411.3425    547.1288 300.1251515 +22.6581883     346.0494     72.54024      1.462     2.05     5.075733     20.46059     63.33859         6     0.730     0.552  28.04   0
       189    771.4971    545.8998 300.2377218 +22.7657452     793.4075     72.72468      1.299     2.64      5.31669     20.46059     110.0103        13     0.937     0.821  14.48   0
       190    273.8684    540.7053 300.0844673 +22.6151334     3531.955      72.6694      1.422     2.66     4.925064     20.46059     459.1099        27     1.145     1.041  35.24   0
       191    839.7174    537.0835 300.2618522 +22.7836423     636.7855     72.65096      1.928     3.49      5.17877     20.46059     55.25693         9     0.914     0.783  25.56   0
       192    858.3101    535.4055 300.2681944 +22.7887277      265.364     72.42934      1.301     3.51     5.128261     20.46059     38.93726         5     0.762     0.466  14.93   0
       193    478.4178    521.4404 300.1543706 +22.6709130     2775.882     72.54024      1.415     2.64     5.407021     20.46059     324.1917        28     1.470     0.987 -84.46   0
       194    322.7124    523.5813 300.1052207 +22.6248597      387.096     72.46633      1.473     3.48      4.91696     20.46059     62.80347        10     1.085     0.842  12.10   0
       195    927.8375    521.3696 300.2944355 +22.8055108     196.3397      72.5587      1.269     5.75     4.855917     20.46059     34.51849         8     1.000     0.931  36.02   0
       196    889.9203    517.7363 300.2837895 +22.7931134     446.7925     72.63251      1.524     3.80     4.966666     20.46059     54.18049         7     1.006     0.581  10.75   0
       197    709.2170    516.7234 300.2277864 +22.7387059     232.3103     72.52177      1.227     3.48     5.360479     20.46059     38.55335         6     0.888     0.645 -74.45   0
       198    795.4171    509.7999 300.2569008 +22.7625331     435.2523     72.41085      1.055     2.08     5.122424     20.46059     59.96903         5     0.673     0.470 -71.79   0
       199    875.4292    507.4862 300.2825988 +22.7858275     1596.287     72.52177      1.312     2.36     4.974336     20.46059     219.7263        19     1.076     0.929 -45.58   0
       200    746.6206    505.1182 300.2432111 +22.7465735     2615.115     72.48481      1.342     2.51     5.260769     20.46059     326.5137        22     1.047     0.979  21.55   0
       201      5.3525    505.7986 300.0123359 +22.5245929     745.9231     72.39235      1.536     3.35     5.263854     20.46059     96.40646        16     1.197     0.870 -10.81  16
       202    990.7999    502.2441 300.3202873 +22.8188607     574.6022      72.5033      2.074     4.62     4.616287     20.46059     66.23449        12     1.302     0.887  40.28   2
       203    989.5857    498.1410 300.3212408 +22.8173172     756.2795      72.5033      1.522     3.63      4.61043     20.46059     79.51254        12     0.986     0.869  14.01   3
       204    955.8289    502.0779 300.3094312 +22.8083440     406.4654     72.52177      1.481     3.38     4.676136     20.46059     39.97031         8     0.840     0.650  46.95   0
       205    651.2911    501.6479 300.2146331 +22.7170223     492.0492     72.52177      1.378     3.47     5.522264     20.46059     67.14483         9     0.984     0.725  -5.51   0
       206    533.9731    500.8567 300.1783505 +22.6816473     895.5119     72.52177      1.531     2.90     5.456442     20.46059     114.5246        14     0.999     0.900  71.08   0
       207   1003.8351    499.2912 300.3253132 +22.8219135     1500.831     72.48481      1.598     3.07     4.591802     20.46059     129.9854        18     1.052     1.012  29.95   0
       208    875.7229    497.5845 300.2859055 +22.7830688     2271.767     72.52177      1.614     4.23     4.933742     20.46059     257.6738        25     1.401     0.972  68.43   0
       209    629.0209    495.4733 300.2097002 +22.7085766     805.8475     72.52177      1.747     2.37     5.646008     20.46059     80.22438         8     0.719     0.686 -53.27   2
       210    415.0595    495.1927 300.1431720 +22.6443865     358.1079     72.48481      1.400     3.70     5.141994     20.46059     38.24329         7     0.856     0.654  58.48   0
       211    913.8733    492.5732 300.2994305 +22.7930503     4384.474     72.52177      1.422     2.51      4.73214     20.46059     585.4533        29     1.162     1.088  56.05   0
       212    467.6807    494.3844 300.1598129 +22.6599238     400.6587      72.5033      1.063     2.65      5.31376     20.46059     63.68658         8     0.861     0.623   2.53   0
       213    555.2377    491.6672 300.1879557 +22.6853785     291.2329      72.5033      1.381     3.15     5.463285     20.46059     40.53493         5     0.901     0.414  82.86   0
       214    574.5459    488.3431 300.1950479 +22.6902082     451.7356     72.57716      1.418     3.02     5.559443     20.46059     58.58512         6     0.872     0.489  46.57   0
       215   1005.5902    483.0048 300.3311489 +22.8177551     719.5458     72.37384      1.477     3.39      4.57945     20.46059      85.3003        16     1.117     1.011 -73.73   0
       216    145.7344    482.7959 300.0634277 +22.5600910     1107.825     72.52177      1.642     3.60     5.075083     20.46059     128.3267        19     1.234     0.988  17.77   0
       217    945.7958    480.7231 300.3132352 +22.7991998     267.4373     72.42934      1.194     2.47     4.578272     20.46059     54.28795         5     0.846     0.444  -4.47   0
       218    807.0255    477.1134 300.2711325 +22.7566134     278.3432     72.46633      1.305     3.14     4.948112     20.46059     39.13151         6     0.782     0.652 -12.93   0
       219    138.2183    472.8406 300.0643231 +22.5549796      428.064     72.54024      1.439     4.34     5.112921     20.46059     56.92125        10     1.119     0.783 -60.47   0
       220    374.3772    473.1898 300.1376554 +22.6258746     1859.019     72.52177      0.622     0.92     5.003356     20.46059     1112.721         6     0.603     0.311  27.58   0
       221   1001.4078    472.2013 300.3333515 +22.8133962     387.7101     72.33681      1.401     3.40     4.578272     20.46059     36.97795         5     0.743     0.450  70.57   0
       222    746.1210    467.1325 300.2553884 +22.7355057     435.4084     72.63251      1.181     2.05      5.24993     20.46059     77.98057         7     0.790     0.517  45.44   0
       223    634.8527    464.6634 300.2215196 +22.7014700     277.2179     72.57716      1.220     1.67     5.561308     20.46059     67.13352         5     0.679     0.425  22.98   0
       224    687.3714    463.1938 300.2383590 +22.7167785     863.6018     72.52177      1.231     2.28      5.31496     20.46059     122.3519        10     0.858     0.673 -13.04   0
       225    666.3881    461.2550 300.2324506 +22.7099364     303.8158     72.52177      1.229     2.98     5.364716     20.46059     33.99939         5     0.716     0.464  74.00   0
       226   1001.8176    455.6083 300.3388664 +22.8087467     566.4147     72.46633      1.465     3.26     4.578272     20.46059     79.43748         9     0.890     0.825 -14.33   0
       227    748.0834    455.1930 300.2598760 +22.7326615     845.5798     72.44784      1.271     2.46     5.260504     20.46059     145.7398        12     0.927     0.842  76.38   0
       228    905.3825    451.5401 300.3101042 +22.7787097      1033.88     72.46633      1.392     2.59     4.750951     20.46059     139.0141        17     1.020     0.934 -80.75   0
       229    863.5964    449.6111 300.2976992 +22.7656450     260.2493     72.33681      1.128     3.94     5.047748     20.46059     29.62587         5     1.052     0.422  74.99   0
       230    889.6854    447.9145 300.3063856 +22.7729679     673.9977     72.65096      1.313     3.12      4.86851     20.46059     91.96587        10     0.965     0.739  14.27   0
       231    869.8272    448.1997 300.3001003 +22.7671047     308.5606     72.48481      1.225     3.23      5.01735     20.46059     48.89146         5     0.927     0.342  44.02   0
       232    633.9055    445.7712 300.2273574 +22.6957571     3314.478     72.44784      1.297     2.31     5.542334     20.46059     523.7206        24     1.023     0.959  60.24   0
       233    994.4400    445.0161 300.3400031 +22.8034920     575.3693     72.54024      1.444     3.50     4.578272     20.46059     80.98355        10     1.076     0.643 -11.99   0
       234    110.6200    436.8600 300.0674240 +22.5363760     316.3866     72.46633      1.246     1.94     5.313844     20.46059     52.27337         5     0.681     0.450  69.25   0
       235    639.2901    433.6901 300.2329564 +22.6938980     241.4001     72.68783      1.128     2.78       5.5001     20.46059     47.18867         5     0.722     0.453  -9.39   0
       236    405.6580    433.4156 300.1603005 +22.6238247     247.2771      72.5033      1.278     3.51     5.226459     20.46059     39.23485         5     0.758     0.468 -15.08   0
       237    917.0916    424.7704 300.3224460 +22.7745170      465.641     72.48481      1.277     2.96     4.684622     20.46059     66.44588         9     0.790     0.775 -50.68   0
       238   1003.5885    423.5819 300.3498154 +22.8000653     985.6179     72.48481      1.455     3.34     4.578272     20.46059     120.2112        19     1.134     1.032  62.96   0
       239    653.5819    421.8199 300.2412617 +22.6947670     327.9281     72.52177      1.334     3.31     5.413523     20.46059     50.86608         6     0.896     0.563 -20.24   0
       240    744.4865    419.5963 300.2703098 +22.7213517     1124.091     72.44784      1.309     2.16     5.317722     20.46059     171.1895        17     0.995     0.900 -88.16   0
       241    540.5307    420.1701 300.2065854 +22.6604296     443.7347      72.5033      1.292     3.43     5.588974     20.46059     53.47997        10     0.913     0.815  80.35   0
       242    248.1873    417.8434 300.1163656 +22.5721577     808.2354     72.52177      1.585     3.52     5.033387     20.46059     95.04243        12     1.046     0.859  28.31   0
       243    310.7437    413.5505 300.1372162 +22.5896747     3831.077      72.5587      1.429     2.53     5.021192     20.46059     505.6144        29     1.190     1.069  42.02   0
       244    257.9475    408.2720 300.1225074 +22.5723347     7618.948     72.52177      1.404     2.96     5.070127     20.46059     869.4422        36     1.213     1.116  50.82   0
       245    762.9387    408.6424 300.2796164 +22.7237280     270.6345      72.5033      1.224     3.01     5.304789     20.46059     42.44824         5     0.859     0.471  -6.99   0
       246   1023.2813    403.4052 300.3625092 +22.8001552      1222.55     58.49297      1.153     2.27     4.833435     20.46059     213.0929        13     0.986     0.763 -87.55  24
       247    398.8022    402.5299 300.1681912 +22.6128983     4840.469     72.46633      1.327     2.29     5.210876     20.46059     767.8802        30     1.152     1.032  73.34   0
       248    643.0352    399.3454 300.2452704 +22.6851488     18715.93     72.54024      1.294     2.32     5.431668     20.46059     2806.754        49     1.165     1.112  77.00   0
       249    659.6184    400.5049 300.2500605 +22.6904486      506.351     72.44784      1.364     2.66     5.375423     20.46059     68.39645        10     0.829     0.816  68.97   2
       250    662.2983    398.3013 300.2516106 +22.6906178      309.536      72.7431      1.044     3.55     5.367573     20.46059     57.16071         5     0.762     0.485 -26.49   3
       251    886.9090    395.4135 300.3225611 +22.7570396     268.1836     72.46633      1.140     4.45     5.042006     20.46059     49.70486         7     1.043     0.623 -17.42   0
       252    840.1481    389.8709 300.3097785 +22.7414475     380.4651     72.52177      1.318     3.55     5.176259     20.46059     56.78698         8     0.999     0.700 -33.26   0
       253    263.3284    386.8384 300.1311366 +22.5677921     405.8905     72.48481      1.387     4.80     5.154002     20.46059     40.93457         8     0.967     0.675  28.32   0
       254    976.7717    381.9739 300.3549532 +22.7800714      721.289      72.5033      1.511     4.69     5.064268     20.46059     94.05437        16     1.339     1.005 -71.73   0
       255    513.3648    381.0952 300.2108082 +22.6410636      471.595     72.52177      1.608     3.35     5.348666     20.46059     46.22767         8     0.979     0.728  39.09   0
       256    686.3712    380.5359 300.2648766 +22.6927204     212.8753     72.52177      1.096     2.82     5.337931     20.46059     48.56953         5     0.722     0.466  18.77   0
       257    197.6427    379.2063 300.1131869 +22.5459122     1988.309     72.54024      1.419     2.79     5.248487     20.46059     245.6237        23     1.225     1.081 -82.11   0
       258    210.7919    374.6184 300.1187642 +22.5485361     309.2865     72.48481      1.679     5.03     5.235328     20.46059       26.901         5     1.008     0.711  81.40   0
       259    997.4276    369.3422 300.3654972 +22.7826196     1203.572     72.52177      1.334     2.74     5.335361     20.46059     160.5032        17     1.056     0.930  21.32   0
       260    583.7059    368.7639 300.2367144 +22.6585898     6665.356     72.52177      1.291     2.27     5.417463     20.46059     1049.509        32     1.116     1.025  85.93   0
       261    298.4243    367.9391 300.1481856 +22.5728824     714.8303     72.52177      1.362     3.01     5.210824     20.46059     97.64931        13     0.998     0.880 -78.25   0
       262    843.8157    361.0393 300.3202787 +22.7342545     420.8417     72.54024      1.189     2.22     5.124748     20.46059     71.38115         5     0.766     0.438 -21.98   0
       263    156.1586    361.3689 300.1060774 +22.5283551     488.8774     72.54024      1.338     2.75      5.34538     20.46059     65.47213         7     0.798     0.611 -24.79   0
       264      3.4553    358.9068 300.0594211 +22.4818665     1337.362     67.05083      1.663     3.23     5.371107     20.46059     149.4234        19     1.154     1.058 -52.30  24
       265    787.7554    357.7731 300.3038608 +22.7165327     1096.619     72.54024      1.427     2.89     5.068681     20.46059     157.4567        15     1.152     0.836  85.30   0
       266    697.4752    358.9356 300.2753461 +22.6898360     509.5715      72.5587      1.257     2.90     5.344718     20.46059     70.76024         9     0.921     0.654  63.71   0
       267    490.2952    354.9968 300.2120946 +22.6266533     6252.725     72.42934      1.294     2.43     5.194129     20.46059     811.2582        30     1.076     1.010  68.86   0
       268    882.2703    349.4612 300.3360271 +22.7424357     1431.512      72.5587      1.439     2.70     5.195915     20.46059     178.2394        19     1.104     0.987  66.51   0
       269    979.5560    349.6710 300.3663047 +22.7716127     574.5662     72.48481      1.423     4.23     5.491724     20.46059     63.43737        12     1.123     0.841  49.66   0
       270    475.1066    343.6736 300.2110402 +22.6188496     593.3891     72.65096      1.378     3.27     5.188609     20.46059     71.92058         9     0.894     0.713  12.55   0
       271      2.2680    340.5925 300.0649941 +22.4762534     845.2422     61.57245      1.345     3.00     5.369271     20.46059     119.3925        18     1.247     0.929  81.66  24
       272    557.7201    341.2301 300.2375557 +22.6428933     472.1055     72.52177      1.569     3.44     5.346345     20.46059     60.89316         7     0.952     0.614  76.41   0
       273    538.1180    339.3825 300.2320510 +22.6364912     378.9519     72.48481      1.847     4.46     5.329028     20.46059     36.53763         7     0.890     0.634 -23.06   0
       274    855.1002    337.1629 300.3315450 +22.7307661     517.4081     72.52177      1.154     2.33     5.227018     20.46059     86.36373         9     0.750     0.732   0.13   0
       275    377.8389    334.2172 300.1838347 +22.5869921     2569.993     72.54024      1.315     2.41     5.213138     20.46059     333.6871        21     1.055     0.965  39.46   0
       276     96.3132    331.5988 300.0971344 +22.5018672     1082.828     72.42934      1.586     2.70     5.462906     20.46059     133.8062        15     1.020     0.904  -0.44   0
       277    325.0381    327.4763 300.1695933 +22.5692349     244.3239      72.5033      1.195     4.15      5.25182     20.46059     28.69601         5     0.763     0.643  83.18   0
       278    347.2001    323.6201 300.1777394 +22.5747676     29915.66     72.44784      1.358     2.40     5.232792     20.46059     4017.032        61     1.241     1.161  56.57   0
       279    881.9737    321.2998 300.3450722 +22.7342474     1323.278     72.46633      1.320     2.96     5.327677     20.46059     175.1328        18     1.080     0.904  19.23   0
       280    837.6786    319.0164 300.3320006 +22.7203324     237.5813     72.52177      1.214     3.80     5.293591     20.46059     40.25815         6     0.888     0.563   0.64   0
       281     43.4547    311.4215 300.0872540 +22.4802277       4959.2     72.54024      1.633     3.02     5.410112     20.46059     588.6325        42     1.384     1.276  44.50   0
       282    797.2000    310.1540 300.3222558 +22.7056669     513.0794      72.5033      1.228     2.58     5.312545     20.46059      73.3429        10     0.863     0.730   0.82   0
       283    445.7191    309.1038 300.2131080 +22.6001125     498.0059     72.65096      1.264     2.51     5.286222     20.46059     79.75495        10     0.941     0.654  50.26   0
       284    221.5436    309.9958 300.1430741 +22.5331997     486.9525     72.48481      1.346     2.20      5.33063     20.46059     56.25421         6     0.733     0.498  89.72   0
       285    757.8019    303.4901 300.3121367 +22.6919565     1883.926     72.44784      1.297     2.21     5.373057     20.46059     276.7842        21     1.069     0.995  66.45   0
       286    565.5438    298.2700 300.2539300 +22.6328889     209.3261     72.54024      1.116     3.43     5.353703     20.46059     44.23217         7     0.940     0.514 -33.04   0
       287    973.0495    296.6491 300.3814783 +22.7544124     549.9322      72.5587      1.166     2.90      5.58831     20.46059     86.11476         9     0.875     0.682  20.77   0
       288    419.4339    288.0386 300.2117603 +22.5861854     2197.457      72.5587      1.461     3.11     5.339804     20.46059     257.8253        25     1.437     0.888  63.72   0
       289    631.7782    287.0369 300.2782045 +22.6494942     316.6227     72.54024      1.399     2.56     5.351217     20.46059     57.28592         7     0.816     0.644 -35.28   0
       290    858.4982    281.1652 300.3507722 +22.7156775     599.7296      72.5033      1.264     2.27     5.452708     20.46059     85.78737         8     0.741     0.664  14.97   0
       291    758.0643    278.8911 300.3201986 +22.6849613     328.7965     72.63251      1.258     2.42     5.401597     20.46059     45.71555         6     0.730     0.554 -40.37   0
       292    741.0233    278.5740 300.3149900 +22.6797688     411.0036     72.48481      1.266     2.60     5.383289     20.46059     65.44376         8     0.785     0.682 -38.93   0
       293    495.3321    267.3698 300.2420907 +22.6029796     1214.395      72.5033      1.294     2.44     5.333357     20.46059     146.1616        15     1.019     0.859  36.15   0
       294    302.4500    267.6178 300.1819840 +22.5452707     321.8722     72.52177      1.537     3.92     5.309753     20.46059     37.73326         5     1.003     0.438 -13.53   0
       295    580.2280    264.8508 300.2693440 +22.6276800     252.6183     72.54024      1.167     2.94     5.330004     20.46059     42.42491         5     0.912     0.342  43.34   0
       296   1006.3182    264.0008 300.4024495 +22.7549734     248.7903     72.41085      1.062     2.45     5.704901     20.46059     50.64927         5     0.778     0.475 -25.60   0
       297    740.1742    259.3397 300.3209645 +22.6739835     2153.594      72.5033      1.290     2.33     5.358496     20.46059     312.2035        21     1.023     0.980  68.82   0
       298   1001.5205    253.7616 300.4042738 +22.7505918      3091.13     72.48481      1.432     2.51     5.694266     20.46059     414.0674        27     1.167     1.054  86.58   0
       299    547.6188    252.1578 300.2633054 +22.6142661     181.5758     72.54024      1.095     3.44     5.316486     20.46059     30.30318         5     0.766     0.448 -72.34   0
       300    448.5639    243.0965 300.2354043 +22.5819957     756.5004     72.52177      1.424     3.62     5.276288     20.46059     93.37672        14     1.157     0.875  41.61   0
       301    154.3284    237.2885 300.1457583 +22.4921734     632.1441     72.68783      1.303     3.66     5.519117     20.46059     78.53452        12     1.129     0.777 -84.30   0
       302    123.3302    237.1942 300.1361529 +22.4828563     1353.884     72.48481      1.787     3.81     5.654969     20.46059     139.6318        23     1.317     1.111 -24.25   0
       303   1016.9424    234.4335 300.4153551 +22.7496440     546.5054     72.54024      1.431     2.52     5.766334     20.46059     80.04324         9     0.882     0.635  60.48   0
       304    207.3201    229.2354 300.1648457 +22.5057402      542.806     72.46633      1.353     2.81     5.488131     20.46059     64.74517         9     0.913     0.669  -2.32   0
       305   1002.5443    227.0372 300.4132613 +22.7432082     260.5932     72.52177      1.328     2.17     5.706988     20.46059     53.83839         5     0.717     0.524  -4.88   0
       306     62.9636    226.6491 300.1208110 +22.4617349     351.6876     72.52177      1.513     4.13     5.933794     20.46059     43.54528         6     1.182     0.412 -12.54   0
       307    811.6802    220.7683 300.3557645 +22.6842931     653.9355     72.52177      1.219     2.54     5.327168     20.46059     101.6577        11     0.868     0.786 -86.99   0
       308    402.1763    220.6680 300.2282402 +22.5616558     247.5571      72.5033      1.173     3.73     5.222473     20.46059     49.84393         6     0.911     0.571 -63.15   0
       309    902.3136    213.9300 300.3862443 +22.7094482     356.1148     72.63251      1.442     3.78     5.362815     20.46059     55.58318         8     1.103     0.644  20.72   0
       310    909.9162    209.8863 300.3899270 +22.7105596     2069.069     72.63251      1.361     2.64     5.374352     20.46059     291.0013        24     1.121     1.028 -30.67   0
       311    328.5487    207.0453 300.2097475 +22.5356861     2086.666     72.54024      1.369     2.45     5.377094     20.46059     284.5697        24     1.099     1.035  63.27   0
       312    158.9557    202.4967 300.1584791 +22.4835669     302.7072     72.54024      1.287     4.74     5.508981     20.46059     44.32985         7     0.861     0.741  54.98   0
       313    808.0975    201.5630 300.3608758 +22.6776965     442.1779     72.52177      1.186     2.89     5.369865     20.46059     67.93446         8     0.834     0.653  42.70   0
       314    914.9981    198.8406 300.3950941 +22.7089022     356.3575     72.52177      1.425     3.48     5.396196     20.46059     41.07047         6     0.888     0.474  30.38   0
       315      4.5901    195.5370 300.1127620 +22.4353039     466.3558     70.82085      1.611     3.12     6.135278     20.46059     41.98656         6     0.903     0.414 -70.68  16
       316    223.2978    194.0593 300.1812207 +22.5004226     928.9897     72.59562      1.635     3.37     5.495909     20.46059     93.72749        15     1.097     0.920  64.00   0
       317    406.4288    202.1232 300.2355773 +22.5575999     896.4551      72.5033      1.389     3.42      5.25496     20.46059     107.0327        16     1.149     0.903 -33.90   0
       318    761.0676    191.0991 300.3496082 +22.6606114     1876.821     72.61407      1.398     2.80     5.346831     20.46059     230.9991        21     1.214     0.924  75.96   0
       319    825.9233    190.9606 300.3698716 +22.6799812     527.5419     72.50329      1.281     2.54     5.394585     20.46059     85.54497         9     0.865     0.744  37.05   0
       320    192.8330    190.6286 300.1728600 +22.4903090     348.4189     72.54024      1.639     4.22     5.495909     20.46059     32.03945         6     0.772     0.656 -55.02   0
       321    244.8044    187.2923 300.1901032 +22.5049221     594.4254     72.41085      1.435     3.13     5.529269     20.46059     79.06086         9     0.881     0.792  65.57   0
       322    765.1815    182.8078 300.3535791 +22.6594578      733.056     72.48481      1.323     2.27     5.359471     20.46059     106.8985        11     0.860     0.757 -41.91   0
       323    534.5269    183.6101 300.2814583 +22.5906402     316.7003     72.52177      1.110     3.55      5.29312     20.46059     56.92066         6     0.938     0.415 -17.74   0
       324    685.7035    181.8177 300.3291306 +22.6353843     1272.752     72.42934      1.304     2.38     5.181063     20.46059     189.7218        18     1.019     0.938  46.06   0
       325    506.9641    178.3835 300.2745706 +22.5808844     313.1115     72.52177      1.277     3.01     5.306308     20.46059     44.50977         7     0.744     0.638   3.37   0
       326    881.1732    173.5776 300.3927366 +22.6915129     1438.804      72.5033      1.281     2.17     5.435149     20.46059     238.2767        16     1.042     0.842  70.46   0
       327    611.7531    173.5358 300.3087767 +22.6108653      1093.48      72.5587      1.477     3.32     5.189106     20.46059      137.685        15     1.178     0.789  54.94   0
       328    893.1650    172.8187 300.3967226 +22.6948826     822.1085     72.52177      1.322     2.54     5.438895     20.46059     114.5803        13     0.965     0.786  37.54   0
       329   1009.9917    163.1944 300.4362883 +22.7270633     1233.247     72.37384      1.433     3.09     5.713872     20.46059     135.7052        19     1.185     0.964  50.01   0
       330     33.6032    159.4281 300.1334832 +22.4336306     369.2932     72.48481      1.553     4.92     6.104702     20.46059      44.8967         6     0.871     0.787 -22.01   0
       331    243.9567    156.0528 300.1999679 +22.4956925      786.179      72.5587      1.358     2.43     5.609056     20.46059     125.9754        11     0.924     0.700  66.52   0
       332    125.9605    154.9852 300.1636263 +22.4600321     262.9087     72.54024      1.172     3.62     5.832051     20.46059     31.93452         5     0.662     0.569  -0.29   0
       333    105.6985    150.4140 300.1588102 +22.4526474     2148.192     72.42934      1.534     3.23     6.004213     20.46059     270.3211        24     1.194     1.104  48.46   0
       334    928.8691    147.6256 300.4160273 +22.6983155     722.2808     72.52177      1.343     2.39     5.463055     20.46059      120.758        14     1.056     0.877 -80.36   0
       335     55.0502    147.4370 300.1440347 +22.4366143     553.8842     72.54024      1.678     4.19     6.094888     20.46059     56.20348         9     0.882     0.747  51.73   0
       336    263.1564    143.8137 300.2099071 +22.4979275     5798.022     72.54024      1.435     2.67     5.729005     20.46059       694.41        33     1.219     1.102  67.42   0
       337    244.5477    145.2225 300.2036627 +22.4927577      374.852     72.52177      1.194     3.46     5.673048     20.46059     50.17494         6     0.879     0.578  20.42   0
       338     47.3891    138.1244 300.1446729 +22.4316437     1297.294     72.54024      1.654     2.92      6.10253     20.46059     138.8735        21     1.151     1.032  29.26   0
       339    246.6488    134.7430 300.2077134 +22.4903760     624.1009     72.57716      1.595     2.83     5.731414     20.46059     94.43982        11     1.015     0.716 -57.65   0
       340    907.3259    125.5807 300.4164546 +22.6855269     3614.826     72.52177      1.440     2.49     5.462394     20.46059     504.8666        30     1.248     1.065  80.99   0
       341   1011.0045    124.4632 300.4491616 +22.7162188       2831.6     72.48481      1.481     2.51     5.493275     20.46059     389.3665        27     1.210     1.116  52.97   0
       342    456.9003    120.7930 300.2776553 +22.5493373     552.3121     72.42934      1.243     2.42     5.321887     20.46059     110.6364        10     0.952     0.649  -1.21   0
       343    209.6053    120.9953 300.2006499 +22.4753285     305.4942     72.37384      1.297     3.40     5.820551     20.46059     53.00352         7     0.942     0.590 -30.72   0
       344    571.2200    118.7623 300.3139093 +22.5829807     203.4368     72.54024      1.227     4.50     5.333164     20.46059     37.47938         7     1.004     0.577 -20.20   0
       345    380.7632    112.5303 300.2566366 +22.5241625     671.1781      72.5033      1.482     2.82     5.328254     20.46059      74.0002        10     0.881     0.780  76.03   0
       346    384.9034    111.2978 300.2583245 +22.5250481     455.7522     72.70625      1.361     2.90     5.327233     20.46059     58.66391         5     0.750     0.426 -15.62   1
       347    146.9623    109.5635 300.1848787 +22.4532765     732.3561     72.59562      1.485     3.80     6.049332     20.46059     67.71918         9     1.077     0.613  -5.88   0
       348    508.1251    107.9635 300.2977617 +22.5609863     1662.169     72.46633      1.297     2.33     5.335945     20.46059     251.8383        20     1.051     0.935  70.14   0
       349    436.1566    108.7047 300.2751166 +22.5396507     586.9542     72.54024      1.505     2.49     5.321679     20.46059     85.51395         7     0.932     0.494 -44.37   0
       350    569.7762    107.0626 300.3172522 +22.5791842     476.0365      72.5033      1.300     2.34     5.360155     20.46059     62.01488         7     0.719     0.632 -72.13   0
       351    251.2107    103.4061 300.2192899 +22.4827378     428.3227     72.39235      1.450     5.00      5.89453     20.46059     48.97889         7     1.141     0.633 -10.55   0
       352    796.7301     97.4530 300.3910858 +22.6443444     318.4352     72.52177      1.067     2.19     5.483033     20.46059     53.76645         5     0.667     0.481 -16.26   0
       353    153.5697     93.2183 300.1922305 +22.4505601     279.5803      72.5033      1.263     3.44     6.163253     20.46059     30.81544         5     0.758     0.452 -70.49   0
       354    942.5406     92.1859 300.4382644 +22.6864506     344.5081     72.48481      1.221     4.29     5.424435     20.46059     42.67801         6     0.957     0.548  27.55   0
       355    282.1006     87.7402 300.2339754 +22.4874883     6086.405     72.61407      1.470     2.71     5.907188     20.46059      720.207        38     1.267     1.152  59.27   0
       356    788.6939     88.3617 300.3915274 +22.6393241     361.4929     72.52177      1.209     3.32     5.549753     20.46059     51.33137         7     0.948     0.660  20.56   0
       357    133.2427     87.2449 300.1878474 +22.4427539      727.678     72.57716      1.542     3.03     6.174649     20.46059     87.82924        11     0.986     0.827 -39.04   0
       358    911.7949     86.6485 300.4304687 +22.6756600     407.8317      72.5033      1.396     4.83     5.454952     20.46059     178.8546         8     1.400     0.471  80.19   0
       359    254.1525     81.8214 300.2272007 +22.4774162      235.763      72.5587      1.134     2.13     5.976719     20.46059     46.93577         6     0.712     0.546 -45.19   0
       360    297.5154     79.3047 300.2415044 +22.4896808     370.9055     72.70625      1.234     4.00     5.852474     20.46059     54.29432         7     1.008     0.594  65.52   0
       361    758.1025     79.2658 300.3849396 +22.6275537     287.6083     72.61407      1.067     1.80     5.708005     20.46059     78.14218         6     0.692     0.548 -81.61   0
       362     43.8788     78.4903 300.1629107 +22.4134631     435.0278      72.6694      1.591     4.59     5.909619     20.46059       44.762         9     1.063     0.800 -14.50   0
       363    528.2211     73.1297 300.3153095 +22.5569865     6386.235     72.54024      1.356     2.47     5.360595     20.46059     822.9391        36     1.231     1.042  70.18   0
       364    413.6895     73.1010 300.2796635 +22.5226879     619.5403     72.68783      1.180     3.00     5.322173     20.46059     109.7747        12     1.058     0.812  30.56   0
       365    585.4968     67.4499 300.3349877 +22.5724982     120.8057     72.59562      0.992     4.09     5.505311     20.46059     48.35346         6     1.012     0.472 -36.59   0
       366    548.3667     66.8590 300.3236152 +22.5612139     256.9883     72.54024      1.499     4.16     5.384392     20.46059     37.44641         5     0.954     0.687 -13.09   0
       367    693.0872     89.4168 300.3613869 +22.6110180     349.4843     72.44784      1.517     4.71     5.798506     20.46059     35.99352         8     1.089     0.578  19.51   0
       368    780.7816     63.2192 300.3972098 +22.6297228     703.1093     72.52177      1.311     2.97     5.645976     20.46059     104.5396        12     0.976     0.793 -75.72   0
       369    873.2528     62.0839 300.4264098 +22.6570611     341.2106      72.5587      1.274     3.34     5.652078     20.46059     56.82421         9     0.984     0.691 -24.36   0
       370    220.9216     56.9399 300.2249295 +22.4603121      517.919     72.57716      1.548     3.69     6.107387     20.46059     63.14627        10     1.084     0.804  11.71   0
       371    579.5272     55.8991 300.3368718 +22.5673893     534.5562      72.6694      1.612     2.91     5.526968     20.46059     69.25931         8     0.914     0.679   1.45   0
       372    656.6309     53.1871 300.3617696 +22.5896861     6293.354     72.52177      1.369     2.54     5.766924     20.46059     830.4169        35     1.217     1.089  70.56   0
       373    431.5396     52.1170 300.2920198 +22.5219997     1540.268     72.63251      1.458     2.85     5.324846     20.46059     180.3646        20     1.137     1.013 -82.57   0
       374    697.6240     50.5286 300.3754043 +22.6011889     1008.512      72.5587      1.530     2.67     5.798506     20.46059     150.5518        15     1.011     0.946  53.38   0
       375    767.5757     48.1797 300.3979673 +22.6214443     302.7668     72.52177      1.224     3.71      5.71554     20.46059     46.35379         7     1.004     0.537 -20.43   0
       376    713.7810     46.8233 300.3816401 +22.6049578     519.3472     72.52177      1.201     2.34     5.798506     20.46059     92.45663         9     0.772     0.757 -58.58   0
       377    983.4705     44.7219 300.4664171 +22.6850307     688.1599     72.63251      1.503     3.00     5.270053     20.46059     74.36639        12     0.983     0.781 -15.70   0
       378    180.4605     44.7404 300.2163014 +22.4446866      633.548     72.57716      1.330     3.03     6.198969     20.46059     90.03521        12     1.038     0.756 -40.75   0
       379     27.0897     45.3002 300.1684494 +22.3988983     457.4281     72.68783      2.157     4.78     5.332974     20.46059     38.34506         6     1.235     0.525 -26.88   0
       380    752.1697     42.1936 300.3951050 +22.6151125     511.4757     72.52177      1.275     3.28     5.763103     20.46059     74.83503         9     0.939     0.735  35.88   0
       381    700.8337     38.1040 300.3804309 +22.5985751     2765.865     72.52177      1.360     2.73     5.798506     20.46059      369.556        26     1.200     1.033  79.39   0
       382    341.8715     39.1287 300.2683238 +22.4914165     537.4636     72.57716      1.424     2.56     5.465122     20.46059     55.61866         6     0.718     0.569 -37.89   0
       383    715.9221     37.0882 300.3854622 +22.6027977     866.0115      72.6694      1.640     5.35     5.798506     20.46059     89.65391        14     1.316     0.816  47.34   0
       384    787.4443     29.6962 300.4101507 +22.6220704     1583.048     72.54024      1.428     2.51     5.712106     20.46059     244.3349        19     1.091     0.959  84.49   0
       385    947.3367     28.4868 300.4604052 +22.6695507     193.6612     72.63251      1.045     3.33     5.231069     20.46059     47.06883         5     0.788     0.408  25.33   0
       386    269.3840     25.2953 300.2502559 +22.4657325     208.4497     72.44784      0.921     3.46     6.197404     20.46059     41.45684         5     0.726     0.478  80.39   0
       387    725.1201     23.1073 300.3928592 +22.6015275     811.2513     72.63251      1.304     2.21     5.798506     20.46059     100.3243         9     0.748     0.708 -84.81   0
       388    530.9346     22.0846 300.3326962 +22.5431195     1079.629     72.63251      1.454     2.54     5.364624     20.46059     142.0097        18     1.046     0.964 -77.27   0
       389    103.8555     22.2447 300.1997762 +22.4152745      535.933      72.5587      1.589     3.73        6.252     20.46059     58.14246         9     1.010     0.660  18.18   2
       390    435.0044     20.3513 300.3033916 +22.5139037     754.7795      72.5033      1.298     2.72      5.32932     20.46059     107.3006        12     0.952     0.804 -53.60   0
       391    817.0197     19.2971 300.4227410 +22.6279259     464.6653     72.44784      1.290     3.23     5.789696     20.46059     73.17383         8     0.938     0.653  13.45   0
       392    765.6765   1020.8605 300.0815078 +22.9004310     409.6123     69.52267      1.552     3.45     2.982007     20.46059     35.17969         5     0.809     0.426  73.63  16
       393    330.2415   1018.8298 299.9465898 +22.7692424     982.3078     72.54024      1.853     5.26     13.16737     20.46059     79.06406        20     1.320     1.130 -54.83  16
       394    165.8091   1014.2421 299.8969518 +22.7185771     1381.652     72.54024      2.741    11.07     92.94714     20.46059     50.67156        32     2.009     1.698 -30.86  16
       395    217.2124   1009.2676 299.9145503 +22.7325795     678.5041     72.52177      1.816    11.14     83.00648     20.46059     41.96555        19     3.052     1.132 -88.34  19
       396    209.0421    996.3145 299.9162242 +22.7264130     1591.761     72.48481      6.972    11.93     73.10812     20.46059     50.83774        33     2.446     1.620  72.57   3
       397    206.7189    999.9916 299.9143057 +22.7267702     1320.304     72.46633      6.036     9.34     76.65249     20.46059     54.22291        24     2.205     1.103  72.66   3
