#   1 NUMBER                 Running object number                                     
#   2 X_IMAGE                Object position along x                                    [pixel]
#   3 Y_IMAGE                Object position along y                                    [pixel]
#   4 ALPHA_J2000            Right ascension of barycenter (J2000)                      [deg]
#   5 DELTA_J2000            Declination of barycenter (J2000)                          [deg]
#   6 FLUX_APER              Flux vector within fixed circular aperture(s)              [count]
#   7 FLUXERR_APER           RMS error vector for aperture flux(es)                     [count]
#   8 FLUX_RADIUS            Fraction-of-light radii                                    [pixel]
#   9 FWHM_IMAGE             FWHM assuming a gaussian core                              [pixel]
#  10 BACKGROUND             Background at centroid position                            [count]
#  11 THRESHOLD              Detection threshold above background                       [count]
#  12 FLUX_MAX               Peak flux above background                                 [count]
#  13 ISOAREA_IMAGE          Isophotal area above Analysis threshold                    [pixel**2]
#  14 A_IMAGE                Profile RMS along major axis                               [pixel]
#  15 B_IMAGE                Profile RMS along minor axis                               [pixel]
#  16 THETA_IMAGE            Position angle (CCW/x)                                     [deg]
#  17 FLAGS                  Extraction flags                                          
         1    706.6888     16.7125 300.3929998 +22.6015015     678.3669     72.40963      1.474     3.74     6.317933     20.38229      111.334        13     1.156     0.839  61.54   0
         2    512.3441     16.2180 300.3325955 +22.5432005     1033.646      72.2258      1.321     2.40     6.032907     20.38229      119.783        13     0.883     0.835 -63.98   0
         3     85.6988     15.8989 300.1999207 +22.4153537     615.1467     72.48303      1.537     3.44     7.014489     20.38229     66.85829        10     1.128     0.798 -53.71   0
         4    416.3055     14.3555 300.3032889 +22.5139165     616.5797      72.2626      1.168     2.70     6.105057     20.38229     84.34116        12     0.970     0.777  69.09   0
         5    187.5397      4.0157 300.2354428 +22.4424441      3822.56     68.81369      1.625     3.11     6.966366     20.38229     395.8131        33     1.359     1.173  68.52  24
         6    755.4975      5.0062 300.4120114 +22.6127362     587.2322     71.52295      1.267     2.91     6.398183     20.38229     91.12399        13     1.003     0.854  35.85  16
         7    512.8888      1.7400 300.3374563 +22.5392003     203.5578     58.56495      1.209     3.71     6.040957     20.38229     40.27477         7     0.864     0.589 -33.66  24
         8    609.7814      1.4314 300.3677451 +22.5681091      159.409     56.79018      0.885     3.41     6.525543     20.38229     36.87906         5     0.735     0.458 -19.13  24
         9    194.0554   1005.6793 299.9122577 +22.7319086     928.3847       72.281      2.633     7.37     85.85606     20.38229     41.62439        12     1.618     1.077   5.05   3
        10    265.8854   1014.7947 299.9316353 +22.7560790     2532.538     72.17056      6.402    31.72     37.32661     20.38229     61.48906       182     6.846     4.080 -74.28  19
        11    219.8170   1003.1805 299.9210832 +22.7389237     2132.299      72.2258      3.952    30.48     80.14101     20.38229     62.49915       191     6.115     4.217  -8.34  19
        12    248.8192   1000.9261 299.9308383 +22.7469809     3130.214     72.24421      7.505    22.87      51.3341     20.38229     92.00533       158     5.597     2.595   3.28  19
        13    216.5723    986.4539 299.9255158 +22.7331540     4390.326      72.2626      7.611    20.05     65.13065     20.38229      89.4693       244     4.771     4.240 -75.74   3
        14    236.1651    985.8076 299.9318205 +22.7388484     5911.061     72.24421      9.795    28.86     54.22696     20.38229     105.9025       540     6.649     6.274  17.51  19
        15    254.4365    974.4816 299.9411889 +22.7410835     8876.865      72.2074     12.084    37.87     32.22158     20.38229     187.3817       968    12.735     5.192  62.99  19
        16    371.7052    999.0374 299.9696911 +22.7833117     292.6362      72.2258      1.523     4.55     5.214163     20.38229     43.39198         5     1.319     0.447 -85.76   0
        17    548.3918    948.8613 300.0410308 +22.8219132     370.8134      72.2258      1.266     2.68     4.190164     20.38229     39.13638         5     0.718     0.455 -71.43   0
        18    103.3377   1010.9310 299.8823407 +22.7061848     4149.881       72.281     14.495    74.57     87.51609     20.38229     155.4632      1570    15.110    10.210  39.66  27
        19    819.3973    948.1503 300.1257306 +22.9029554     450.1503     72.24421      2.025     3.49     4.203447     20.38229     25.96194         5     0.790     0.445  71.85   0
        20    576.3438    944.9973 300.0509953 +22.8291862     1456.592      72.2074      1.829     4.72     4.180747     20.38229     96.72813        23     1.263     1.212  24.69   0
        21     93.5502    943.8954 299.9011049 +22.6840302     6000.031     72.29939     28.482   117.80     24.61159     20.38229      1228.01      4809    21.676    17.762 -71.58  18
        22    655.1906    984.9029 300.0625811 +22.8642810      9591.51     72.15214      2.008     5.11      3.90177     20.38229     591.9844        46     1.571     1.432 -16.38   3
        23    470.1355    941.3071 300.0191155 +22.7962765     1006.732     72.35453      1.803     5.10     4.298905     20.38229     93.68137        21     1.374     1.192  39.90   0
        24    400.7674    939.5305 299.9980959 +22.7749604     6669.668      72.2258      1.892     4.45     4.594025     20.38229     482.6121        46     1.505     1.417   2.15   0
        25    750.0333    987.9630 300.0911488 +22.8935940     678.2312       72.281      2.253     7.58     3.860175     20.38229      44.8726        15     1.422     1.131  20.43   0
        26    433.7132    926.5249 300.0125829 +22.7811112     499.2008      72.3729      1.705     6.57     4.430441     20.38229     41.21595        12     1.295     0.936  55.31   0
        27    189.0421    996.5114 299.9136812 +22.7277755      3001.88     72.24421      5.967    22.28     78.66402     20.38229     62.67633       157     4.605     3.348 -82.21  18
        28      8.2777   1002.5908 299.8555076 +22.6752566     2415.573      72.2074     15.884    54.58    -20.35325     20.38229     75.09387       768    15.527     5.323  85.98  24
        29    948.2198    919.0500 300.1753844 +22.9332016     1468.053      72.2258      1.708     5.82      4.34357     20.38229     107.9249        18     1.435     0.876 -89.71   3
        30    946.0000    919.0225 300.1747006 +22.9325286     1228.385     72.15214      1.532     5.58     4.347876     20.38229      116.812        13     1.661     0.708  86.08   3
        31    180.3415    968.0098 299.9202474 +22.7169925     960.1206      72.2074      5.233     9.89     55.17318     20.38229      39.3926        21     2.620     1.041  75.07   3
        32    597.7648    914.9570 300.0674405 +22.8269876     403.9106     72.29939      2.020     4.35     4.240401     20.38229     36.20165         5     0.768     0.700 -88.79   0
        33    445.8856    914.5480 300.0202683 +22.7813257     347.8768      72.2626      1.770     6.16     4.418724     20.38229     27.97382         7     1.213     0.880  -3.09   0
        34    735.6573    906.9020 300.1130366 +22.8660131     770.9191     72.33615      1.957     6.69     4.337066     20.38229     48.30233        15     1.301     0.964 -34.85   0
        35    228.2040    902.2278 299.9565299 +22.7124913     877.8933      72.2074      7.710     7.41     9.513381     20.38229     31.89274        12     1.987     0.774  52.38   0
        36    547.7358    902.0137 300.0560644 +22.8082721     432.7541      72.2074      1.651     4.37     4.358391     20.38229     44.28548        11     1.207     0.944  87.66   0
        37    770.6447    901.4749 300.1257102 +22.8749414     1099.257      72.2258      1.936     4.99     4.471544     20.38229     66.17979        20     1.303     1.128 -38.20   0
        38    793.0069    895.1494 300.1347406 +22.8798271     11373.33     72.24421      1.865     4.36     4.605941     20.38229     749.2196        52     1.469     1.443 -67.90   0
        39    160.7795    955.9026 299.9181023 +22.7076503     1787.718     72.17056      5.798    14.21     48.55248     20.38229     55.67087        49     2.826     1.987  50.39   2
        40    838.6261    895.0750 300.1489920 +22.8934770     486.9929     72.24421      1.777     6.31     4.578682     20.38229     44.46037        12     1.183     0.946 -77.83   0
        41    182.5855    977.9220 299.9177208 +22.7205080     1735.073      72.2626      3.882    14.47      63.2032     20.38229     50.44981        54     2.720     2.140  44.92   3
        42    513.6765    976.9547 300.0210786 +22.8195634     441.7964      72.2258      1.732     6.31     4.201133     20.38229     34.98388        10     1.128     0.990 -12.43   0
        43    942.0448    971.1907 300.1564952 +22.9463270     777.7319      72.2626      2.119     8.21     4.175767     20.38229     47.32183        21     1.581     1.196 -52.40   0
        44    104.1004    886.4741 299.9230593 +22.6707336      1197.45      72.3729      7.306     6.86     8.510262     20.38229     63.39163        22     1.582     1.370  49.48   0
        45    498.1789    883.1498 300.0467638 +22.7879984     506.5803     72.24421      1.812     6.79     4.438318     20.38229     51.56625        11     1.362     0.949  48.16   0
        46    844.5934    882.8569 300.1548270 +22.8917563     508.6978     72.24421      1.853     6.40     4.692643     20.38229     34.75422        12     1.340     0.859 -22.20   0
        47    801.5475    877.2372 300.1432295 +22.8772429     1405.619      72.2626      1.828     4.52     4.861094     20.38229     103.0597        25     1.311     1.235 -26.72   0
        48     94.2760    877.9485 299.9227773 +22.6653407      701.335      72.2626      4.734     7.75      7.01271     20.38229     55.17324        11     1.807     0.931 -15.11   0
        49    984.7532    876.7125 300.2005559 +22.9319847      464.963      72.2258      1.892     6.71     5.001947     20.38229     37.96056        10     1.204     1.048 -32.71   0
        50    653.0773    873.8438 300.0980475 +22.8317686     597.4318      72.2258      2.159     7.79     4.503219     20.38229     40.89862        16     1.803     0.941  25.82   0
        51    839.4423    871.1201 300.1570373 +22.8868420     756.2574      72.2258      1.902     5.03     4.832315     20.38229     54.52254        15     1.237     0.985  74.17   0
        52    948.5364    868.4145 300.1919522 +22.9187513     377.8406      72.2074      1.496     3.46      5.15742     20.38229     33.81486         5     1.072     0.323  21.36   0
        53    888.5403    861.7042 300.1754149 +22.8988489     629.0439     72.31777      1.915     6.39     4.965897     20.38229     49.62265        15     1.272     1.189  74.63   0
        54    739.5906    861.2993 300.1290938 +22.8540982     666.2162     72.15214      1.672     6.10     4.620238     20.38229     50.02246        14     1.192     0.923   1.28   0
        55    451.9839    857.1271 300.0408407 +22.7666779     4282.092     72.24421      1.737     3.75     4.578878     20.38229      348.263        33     1.325     1.282  20.92   0
        56    750.6656    857.9076 300.1336496 +22.8564435     584.7333      72.3729      1.734     5.94     4.692621     20.38229     45.27625        11     1.124     0.883 -31.93   0
        57    495.8065    845.5240 300.0582601 +22.7764888     292.1858     72.17056      1.554     4.22     4.650085     20.38229     34.05614         6     1.032     0.492   5.57   0
        58    177.5225    842.3859 299.9602251 +22.6801223      963.581      72.2626      2.294     5.16     6.848405     20.38229      77.7459        17     1.487     0.990  72.73   0
        59     95.1534    843.7086 299.9341831 +22.6557860     356.8521     72.24421      2.138     3.61     5.626422     20.38229     37.75272         5     1.050     0.358  87.37   0
        60    154.2566    839.8531 299.9538133 +22.6724152     1696.719     72.29939      2.061     5.04     6.840018     20.38229     129.2336        28     1.431     1.352 -73.61   0
        61   1023.9215    829.4286 300.2281580 +22.9301318     292.7296     54.71571      1.030     3.47     5.255424     20.38229     91.28631         7     1.339     0.268  88.88  24
        62    980.4481    827.7015 300.2151503 +22.9166142     2038.063       72.281      1.871     4.31     5.252574     20.38229     138.1228        30     1.438     1.253  10.46   0
        63     30.0068    829.1651 299.9186611 +22.6320655     421.8069     72.24421      1.522     3.29     5.351894     20.38229     47.00037         5     0.958     0.374  59.37   0
        64    686.6670    828.3107 300.1233226 +22.8287640     468.6972      72.3729      2.079     5.27     4.600608     20.38229     29.98306         5     1.045     0.752 -30.28   0
        65    763.7924    821.4818 300.1495867 +22.8499170      637.058     72.17056      1.690     4.48     4.787697     20.38229     73.42936        13     1.182     0.867  16.28   0
        66    632.0464    815.4002 300.1104971 +22.8086856     4905.304      72.2258      1.665     3.59     4.580327     20.38229     431.3347        36     1.317     1.253 -31.17   0
        67    122.6937    815.7411 299.9518379 +22.6560297     433.1277     72.29939      1.720     4.29     5.514199     20.38229      45.9925         7     0.987     0.532  62.54   0
        68    434.2549    812.7573 300.0497467 +22.7486284     545.6564     72.24421      1.723     4.25     5.003669     20.38229     69.12153        13     1.227     0.903 -14.59   0
        69    182.1934    808.9912 299.9725346 +22.6719455     1503.872     72.09685      1.876     4.03     5.416117     20.38229     132.0199        23     1.335     1.194 -42.86   0
        70    652.7838    807.7647 300.1194421 +22.8127091     649.4073     72.24421      1.536     4.21     4.595661     20.38229     60.62724        14     1.098     0.910 -45.63   0
        71    201.7646    806.2747 299.9795047 +22.6770377     440.8241     72.18898      1.572     3.28     5.242465     20.38229     51.47711         7     0.981     0.618  26.06   0
        72    569.3583    798.7305 300.0963842 +22.7851086     232.9897      72.2074      1.087     3.87     4.820424     20.38229     41.38458         6     1.060     0.435   5.19   0
        73    808.0870    795.0748 300.1719848 +22.8556054     4175.374      72.3729      1.666     3.68     5.052068     20.38229     313.2469        34     1.344     1.283  81.24   0
        74   1023.7076    795.5131 300.2391185 +22.9203220     399.4261     56.13091      1.259     4.34     5.277035     20.38229     69.34428         8     1.224     0.439 -83.94  24
        75    217.4917    788.9869 299.9900163 +22.6767965     395.0971     72.18898      1.335     4.12     5.028422     20.38229     47.00915         6     0.972     0.500 -89.75   0
        76    524.8315    787.7872 300.0860712 +22.7686188     549.8641      72.2258      1.580     5.54      4.94494     20.38229     55.34673        13     1.103     0.928 -29.59   0
        77    171.2741    785.3506 299.9768234 +22.6618887     1094.754     72.24421      1.964     4.97      5.07798     20.38229     88.40607        21     1.492     1.043   0.63   0
        78    586.7012    781.0785 300.1075258 +22.7852396     621.4012      72.3729      1.588     4.75     4.770819     20.38229      54.3394        13     1.064     0.951  29.76   0
        79    321.0863    777.5201 300.0259749 +22.7045791     53464.02     72.40963      1.707     3.38     5.013188     20.38229     5564.795        90     1.464     1.443  -9.97   0
        80    579.0785    776.7235 300.1065665 +22.7817044     1708.534     72.35453      1.643     3.15     4.808129     20.38229     166.4332        23     1.249     1.069  30.19   0
        81    991.8430    776.2458 300.2354361 +22.9052420     912.7986       72.281      1.881     5.12     5.255821     20.38229     61.63654        19     1.290     1.070  -6.62   0
        82    249.1908    775.7953 300.0041651 +22.6825207     538.1068     72.09685      1.953     4.97     5.010861     20.38229      55.0813        13     1.317     0.858 -19.70   0
        83    607.9281    772.9345 300.1167869 +22.7892640     921.3898       72.281      1.553     3.35     4.726648     20.38229     98.97647        16     1.088     0.965 -27.08   0
        84      7.7385    772.0936 299.9302921 +22.6090185     762.0672     72.33616      1.980     4.90     5.147466     20.38229     56.77013        13     1.326     0.873 -39.76  16
        85    618.9882    771.2405 300.1207839 +22.7920926     549.8807      72.2258      1.491     4.37     4.732369     20.38229     54.62402        14     1.200     0.849   8.29   0
        86    939.4509    768.4572 300.2216175 +22.8873119     303.7811     72.29939      1.484     4.63     5.247336     20.38229     29.02113         7     0.890     0.683  17.62   0
        87    724.7387    767.4465 300.1549775 +22.8226956     364.1482      72.2626      1.467     4.93     4.635625     20.38229     36.80914         9     1.123     0.728  13.06   0
        88    761.9998    757.7257 300.1697545 +22.8310687     764.9451     72.11528      1.561     3.57     4.785317     20.38229     75.41129        15     1.067     0.995   4.06   0
        89    370.8648    754.8140 300.0488480 +22.7129912     31956.64      72.2074      1.614     3.46     4.989409     20.38229      3172.27        70     1.386     1.346 -10.33   0
        90    385.1606    755.4508 300.0530910 +22.7174607     2053.894      72.2626      1.691     3.12     5.000126     20.38229     206.1596        25     1.223     1.136 -13.66   0
        91    894.0408    750.8837 300.2131613 +22.8686608      2794.39     72.20739      1.662     3.73     5.111742     20.38229     200.0035        32     1.357     1.263 -29.74   0
        92    924.3352    749.5340 300.2230521 +22.8773472     196.6659     72.29939      1.710     3.96     5.211528     20.38229     23.88225         6     0.952     0.472 -89.04   0
        93    382.1173    749.1889 300.0541789 +22.7147510      723.868      72.2074      1.992     4.04      4.99043     20.38229     56.86564        13     1.119     0.911 -11.65   0
        94    652.0267    746.9470 300.1389762 +22.7950187     795.9403      72.2626      1.433     4.03     4.837778     20.38229     74.58923        18     1.222     0.992  -7.13   0
        95    253.2998    746.4715 300.0149744 +22.6753400     895.8517     72.40963      1.742     4.95     4.972934     20.38229     74.81313        17     1.253     1.045   1.66   0
        96    488.6998    746.9097 300.0881050 +22.7460525     412.9944     72.40963      1.539     4.20     4.827886     20.38229     43.97486         9     1.027     0.758 -54.56   0
        97    498.9638    741.6407 300.0930141 +22.7476170     842.5427     72.31777      1.542     3.91     4.824999     20.38229     90.22226        17     1.266     0.867  27.01   0
        98    420.3052    741.5862 300.0685382 +22.7240193     218.1865     72.17056      1.080     4.43     4.980404     20.38229     31.68404         7     1.243     0.449 -39.61   0
        99     58.7743    741.9288 299.9559580 +22.6156822     402.3309     72.24421      1.292     2.91     5.094835     20.38229     51.89564         5     0.776     0.490 -40.44   1
       100    900.0292    738.7001 300.2189898 +22.8669540     517.1166     72.15214      1.529     5.47     5.124654     20.38229     57.68093         9     1.170     0.721  -2.61   0
       101    401.3775    737.6445 300.0639266 +22.7172128     270.6067     72.29939      1.379     4.64     4.977673     20.38229     40.00788         6     0.884     0.751  76.56   0
       102    356.8198    737.5925 300.0500735 +22.7038373     419.7412      72.2074      1.405     5.06     4.975802     20.38229     41.42099         8     1.484     0.487   2.54   0
       103    653.5009    735.8539 300.1430412 +22.7922748     371.5943     72.33615      1.767     2.99     4.882419     20.38229     48.99699         5     1.000     0.622  24.19   0
       104    445.1086    736.3901 300.0779496 +22.7299643     449.0892     72.18898      1.609     4.36      4.89541     20.38229     50.37831         6     0.813     0.665   5.46   0
       105     86.5600    736.1900 299.9664605 +22.6223729      476.666     72.24421      1.852     4.98     5.073187     20.38229     33.46254         9     1.338     0.524 -27.31   0
       106    877.8436    733.0576 300.2139024 +22.8586873     424.0517     72.24421      1.761     2.03     5.080986     20.38229     37.33358         5     0.906     0.697  85.94   0
       107    251.4306    731.1050 300.0193869 +22.6703704     477.8397     72.17056      1.740     4.43     4.954212     20.38229     52.05364         7     1.307     0.616  -6.19   0
       108    574.3607    721.4421 300.1230647 +22.7644180     483.0389     72.33616      1.483     3.78     4.886922     20.38229     55.37093         9     0.976     0.685 -50.24   0
       109    544.0420    719.7361 300.1141739 +22.7548408     627.4736     72.24421      1.403     3.67     4.881107     20.38229     72.45432        11     1.062     0.742  18.21   0
       110    960.3966    716.2562 300.2451212 +22.8785851     4626.755      72.2074      1.722     3.79     5.265154     20.38229     380.2294        36     1.332     1.284 -67.99   0
       111    565.9177    717.1623 300.1218252 +22.7606586     1268.505      72.2074      1.502     3.27     4.886427     20.38229     124.3394        19     1.136     0.988 -39.79   0
       112    485.8914    716.9602 300.0969639 +22.7366130     385.8904     72.24421      1.468     2.71     4.856697     20.38229      38.3796         5     0.619     0.590  -6.95   0
       113    948.7933    707.6979 300.2442816 +22.8726506     1583.224     72.13371      1.636     3.78     5.295657     20.38229      139.044        23     1.306     1.109 -46.40   0
       114    311.6713    701.2404 300.0478357 +22.6798665     847.9281      72.2258      1.594     4.48     5.101562     20.38229      78.1404        15     1.142     1.024 -65.49   0
       115    178.4062    702.0151 300.0061251 +22.6401218      292.685     72.15214      1.637     3.55     5.025614     20.38229     32.59355         5     0.780     0.578   1.88   0
       116    775.2855    698.7955 300.1930502 +22.8181214     2531.684     72.17056      1.688     3.45     5.143201     20.38229     210.0435        30     1.522     1.109   1.95   0
       117    979.9673    697.7722 300.2572363 +22.8791337     1770.805     72.24421      1.799     4.28     5.281251     20.38229     120.7085        25     1.316     1.275  35.88   0
       118    160.4560    685.1829 300.0060118 +22.6299086     497.9171      72.2258      1.618     4.98     5.096317     20.38229     60.84792         8     1.230     0.844   0.93   0
       119    857.6407    684.9073 300.2232484 +22.8388011      531.412     72.24421      1.599     4.30      5.40167     20.38229     59.46807        12     1.170     0.816 -15.10   0
       120    893.6899    675.8483 300.2374382 +22.8469951     149293.9     72.24421      1.638     3.49     5.449791     20.38229     12292.17       148     1.495     1.430 -45.30   0
       121    746.2047    676.1027 300.1913567 +22.8028902      820.111     72.15214      1.596     3.08     5.118648     20.38229      78.4223        10     0.965     0.714  -6.59   0
       122    926.5391    668.5392 300.2500625 +22.8547325     447.3531       72.281      1.668     5.90     5.444211     20.38229     39.74324        11     1.103     0.889  39.97   0
       123    579.9113    664.5389 300.1432847 +22.7497416     1666.591     72.31777      1.462     2.91     4.952633     20.38229     202.5065        21     1.093     1.063 -30.97   0
       124    761.1177    661.9304 300.2006115 +22.8032864     9406.483     72.35453      1.470     3.05     5.257089     20.38229     897.4617        38     1.200     1.173  10.11   0
       125    242.8236    663.1667 300.0387848 +22.6482947     314.5178     72.24421      1.623     4.48      4.90976     20.38229     27.27497         5     0.806     0.709  44.77   0
       126    262.6144    656.8516 300.0469937 +22.6524172     4992.104      72.2626      1.597     3.22      4.99366     20.38229     545.2242        37     1.314     1.216   0.52   0
       127    345.0065    654.7842 300.0733045 +22.6765284     1167.941     72.17056      1.578     3.25     5.247238     20.38229      142.493        17     1.171     0.908 -33.37   0
       128    220.1746    653.2195 300.0349707 +22.6386481     498.0594      72.2626      1.780     5.34     4.855224     20.38229     63.60223         9     1.330     0.606 -34.14   0
       129    552.9897    650.4051 300.1394896 +22.7376148      794.695     72.09685      1.526     3.28     5.112187     20.38229     91.23612        14     1.054     0.853  13.85   0
       130    544.6519    642.6262 300.1394195 +22.7328822     3234.156      72.2626      1.468     2.83     5.210872     20.38229     396.0936        26     1.149     1.070  65.57   0
       131    534.8933    636.3887 300.1384060 +22.7281664     1474.599     72.18898      1.447     2.94      5.26775     20.38229     162.6636        17     1.014     0.943 -84.87   0
       132    928.9127    634.5272 300.2618541 +22.8456682     429.1756     72.39127      1.479     2.75     5.477929     20.38229     60.69482         8     0.914     0.740 -53.88   0
       133    445.8019    633.4889 300.1116014 +22.7006315     272.6144     72.17056      1.477     4.22     5.224482     20.38229     30.02463         5     0.884     0.575  47.43   0
       134    198.2236    632.5738 300.0348497 +22.6261408     720.5205      72.2074      1.631     3.80     4.947515     20.38229     79.37761        14     1.202     0.892 -23.54   0
       135    212.3190    630.9477 300.0397623 +22.6299012     673.7665       72.281      1.549     4.29     4.888784     20.38229     71.24362        11     1.128     0.722 -26.19   0
       136    981.7065    628.0345 300.2804391 +22.8596101     412.1829      72.2074      1.403     3.40     5.343279     20.38229     50.60459        10     1.052     0.689  13.45   0
       137    269.8178    627.6747 300.0587134 +22.6462036     444.5602     72.24421      1.530     3.41     5.023026     20.38229     45.98738         5     1.109     0.303 -54.84   0
       138    238.1620    627.6967 300.0488576 +22.6367178     483.1426      72.2258      1.457     3.52     4.888784     20.38229     64.24839        11     0.981     0.871 -65.08   0
       139    558.5663    626.5620 300.1489730 +22.7324388     491.2166       72.281      1.624     3.71     5.299772     20.38229     50.16159         8     1.126     0.609  44.00   0
       140    459.5924    626.1540 300.1182784 +22.7026591     1958.626      72.2626      1.533     3.18     5.222299     20.38229     197.5564        22     1.140     1.038   6.01   0
       141    113.5994    620.8698 300.0123348 +22.5974028     19966.07     72.18898      1.730     3.59     5.439491     20.38229     1986.557        64     1.445     1.413  22.94   0
       142     35.3996    622.6171 299.9874570 +22.5744476     844.8614     72.13371      1.790     2.39     5.456324     20.38229     84.30547         8     0.867     0.606 -82.27   2
       143    544.7368    621.3298 300.1463644 +22.7267918     1029.917       72.281      1.492     3.03     5.452266     20.38229     121.3073        17     1.083     1.008  14.66   0
       144    580.2226    620.4824 300.1576950 +22.7371823     351.5734      72.2074      1.162     3.86     5.209785     20.38229      50.7613         8     0.935     0.744  58.42   0
       145    298.2658    612.9634 300.0723440 +22.6505108     278.3595     72.24421      1.237     2.49     5.125956     20.38229     58.13959         6     0.851     0.440 -48.77   0
       146    962.5633    607.6885 300.2810744 +22.8480298     1077.199      72.2258      1.654     3.80     5.407627     20.38229     85.58444        17     1.105     0.996  -1.99   0
       147     59.5142    604.9323 300.0006969 +22.5766079     1663.651     72.33615      2.162     5.68     5.596276     20.38229     99.74516        32     1.722     1.309 -88.74   0
       148    829.4133    605.9404 300.2401001 +22.8076554     294.8834      72.2258      1.397     3.61     5.495051     20.38229     59.02282         8     0.873     0.811  19.99   0
       149    125.9083    605.5285 300.0211451 +22.5966928     299.3557     72.40963      1.204     4.41     5.401098     20.38229     51.41332         5     1.169     0.473  52.30   0
       150    508.0569    602.5034 300.1410545 +22.7103931     472.0308     72.31777      1.408     4.27     5.421845     20.38229     55.13021        10     1.112     0.822 -70.70   0
       151    902.6384    600.4124 300.2647388 +22.8279953     902.7543     72.24421      1.880     3.78     5.504869     20.38229     84.31926        15     1.114     0.906  47.30   0
       152    647.2974    598.8490 300.1856235 +22.7510659     320.3543     72.29939      1.128     2.55     5.127186     20.38229     49.08166         5     0.707     0.632  19.86   0
       153    464.7471    594.4520 300.1301814 +22.6951012      821.631       72.281      1.492     2.91      5.32673     20.38229     86.14804        14     1.037     0.842  -2.68   0
       154    612.6707    592.8500 300.1767813 +22.7389682     593.4623     72.24421      1.396     3.12     5.157128     20.38229     65.31981        13     0.980     0.893  85.20   0
       155    630.4724    591.2081 300.1828620 +22.7438301     602.3345      72.2258      1.283     2.97     5.171216     20.38229      67.0864        11     0.990     0.708 -35.01   0
       156    659.8583    591.5906 300.1918960 +22.7527439      425.953      72.2074      1.426     3.98     5.162225     20.38229     49.46276         7     0.967     0.470  -9.89   0
       157    509.0405    590.0801 300.1453961 +22.7071202     931.5853      72.2258      1.459     3.29     5.470217     20.38229     106.7922        15     1.087     0.877  50.34   0
       158    942.7544    585.8239 300.2819950 +22.8358138     3345.136      72.2626      1.583     3.26     5.464828     20.38229     312.3541        31     1.297     1.150  65.25   0
       159    474.5791    585.6111 300.1361148 +22.6955092     1638.739      72.2258      1.376     2.38     5.376914     20.38229     229.5182        18     1.026     0.947  43.02   0
       160     36.4258    579.0021 300.0019417 +22.5622434      5076.73     72.18898      1.783     3.45     5.654106     20.38229     520.7755        39     1.423     1.329  21.44   0
       161    337.8729    572.2933 300.0978797 +22.6507101     9272.251      72.3729      1.489     3.00     5.200552     20.38229     949.5837        38     1.221     1.178  58.80   0
       162    460.3287    569.4083 300.1369396 +22.6865856     8916.899      72.2258      1.410     2.61     5.408463     20.38229     1106.748        39     1.189     1.136  89.63   0
       163    956.6689    560.9543 300.2944152 +22.8328306     12668.72      72.2258      1.573     3.26     5.424787     20.38229     1085.984        47     1.330     1.257 -65.53   0
       164    871.8937    563.5290 300.2671273 +22.8081880     1784.497     72.35453      1.485     3.04     5.504869     20.38229     209.8633        21     1.100     1.070  69.38   0
       165    520.9301    559.0142 300.1591893 +22.7017611     11744.55      72.2626      1.407     2.80     5.594158     20.38229     1402.962        43     1.199     1.153  41.29   0
       166    690.3515    555.0779 300.2132597 +22.7513888     525.3027     72.24421      1.372     2.85     5.263254     20.38229     63.87329         9     0.925     0.609 -18.80   0
       167    248.4500    554.3898 300.0758677 +22.6187626     1361.362      72.2626      1.474     3.16     4.897008     20.38229     140.8978        19     1.186     0.970 -24.30   0
       168    406.8602    553.8376 300.1253480 +22.6660897     237.8431      72.2626      1.438     3.41     5.267881     20.38229     33.08424         6     0.736     0.583  47.80   0
       169    169.7095    552.9043 300.0518570 +22.5947271     307.1561     72.42799      1.529     4.90     4.933122     20.38229     39.62336         5     0.900     0.756  84.74   0
       170    494.9445    552.0010 300.1533731 +22.6919602     432.0209     72.17056      1.424     5.21     5.582193     20.38229     50.60799        10     1.111     0.691  23.49   0
       171    572.1572    548.4482 300.1785790 +22.7140756     1752.985      72.2626      0.685     0.94     5.607281     20.38229     823.6931         6     0.565     0.364  63.11   0
       172    795.5753    547.3481 300.2485778 +22.7806833     721.4277      72.2626      1.343     3.04     5.421948     20.38229      95.9979        13     1.042     0.792  -6.03   0
       173    452.6015    547.0989 300.1417786 +22.6778633     4434.178     72.13371      1.398     2.71     5.450311     20.38229      544.993        29     1.155     1.090  88.35   0
       174    430.7209    545.5906 300.1354552 +22.6708727     1351.033      72.2074      1.480     3.19     5.339971     20.38229     162.8189        19     1.120     1.023  27.61   0
       175    185.1442    544.7636 300.0593010 +22.5970189      806.515     72.24421      1.612     3.22     4.908068     20.38229     93.07466        16     1.234     0.872  17.39   0
       176    872.4866    542.8364 300.2740327 +22.8024178     1705.303      72.2258      1.529     3.43     5.500546     20.38229     161.4427        22     1.261     1.029 -23.15   0
       177    972.9081    541.9431 300.3056578 +22.8322266     286.6383     72.29939      1.512     4.41     5.384377     20.38229     33.45025         6     1.022     0.541   9.69   0
       178    569.2130    534.7411 300.1821131 +22.7092561     206762.3      72.2258      1.399     2.57     5.614889     20.38229      26599.7       193     1.449     1.366 -21.70   0
       179    392.4651    541.0015 300.1250349 +22.6580895     458.8058     72.24421      1.633     4.14     5.269699     20.38229     54.85682        10     1.038     0.832 -20.01   0
       180    753.1171    539.7479 300.2378062 +22.7657835     870.8254       72.281      1.426     2.64     5.313394     20.38229     120.1256        14     0.964     0.868 -43.11   0
       181    255.2517    534.5176 300.0844370 +22.6150974     3609.815      72.2626      1.578     2.86     4.895634     20.38229     430.6913        33     1.255     1.212  -9.44   0
       182    822.2779    535.5239 300.2607458 +22.7852815     300.5911     72.35453      1.134     3.41      5.44082     20.38229     51.42659         5     0.805     0.417  23.53   0
       183    338.3830    534.5791 300.1102860 +22.6400354     253.1044      72.2258      1.638     4.35     5.184115     20.38229     27.09505         5     1.003     0.536  42.22   0
       184    820.9393    531.0561 300.2617792 +22.7835966     552.3563     72.31777      1.659     5.11     5.431542     20.38229     47.83369        10     1.097     0.691  20.91   0
       185    434.0238    531.5371 300.1410472 +22.6678269     219.4115      72.2258      1.310     3.99     5.358145     20.38229     33.72481         5     0.914     0.499   0.80   0
       186    601.1100    521.7744 300.1962621 +22.7150873     297.2473     72.17056      1.143     4.12     5.577364     20.38229     38.26507         6     1.091     0.445  29.04   0
       187    459.8372    515.2757 300.1543655 +22.6708925     2716.858      72.2074      1.447     2.81     5.479769     20.38229     366.3257        28     1.524     0.984 -85.06   0
       188    304.3157    517.6007 300.1051968 +22.6249491     376.3746     72.11528      1.323     3.07     4.991149     20.38229     56.34432         5     0.708     0.477 -12.34   0
       189    871.7320    511.7195 300.2839022 +22.7932473     328.5608     72.35453      1.713     4.72     5.433551     20.38229     36.30112         6     1.188     0.619 -34.81   0
       190    563.7889    511.0069 300.1881301 +22.7008132     139.1189     72.11528      1.092     2.92     5.598814     20.38229     33.56274         5     0.790     0.486 -33.01   0
       191    888.8027    506.5861 300.2908948 +22.7968826     98.46821      72.0784      1.001     3.49     5.445169     20.38229     26.43946         5     0.793     0.445  18.84   0
       192    776.5903    504.2482 300.2566533 +22.7626112     297.4748      72.2626      1.100     3.78     5.323314     20.38229     42.34463         6     0.956     0.430  -2.99   0
       193    856.8909    501.3614 300.2826358 +22.7858263     1659.816     72.24421      1.473     2.91     5.395943     20.38229     212.9655        22     1.145     1.000 -47.42   0
       194    744.1558    501.2512 300.2475129 +22.7520367     376.8252       72.281      1.565     3.42     5.244586     20.38229     27.04042         5     0.973     0.347 -44.17   0
       195    728.0168    498.9768 300.2432195 +22.7465497     2616.344     72.24421      1.348     2.96     5.245752     20.38229     304.6396        23     1.089     0.970  48.52   0
       196    937.5997    496.3066 300.3094584 +22.8085360     258.6858     72.11528      1.172     6.85     5.489892     20.38229     44.92171         9     1.607     0.820  52.41   0
       197    633.1506    496.0778 300.2145903 +22.7173028     383.2724     72.24421      1.417     3.41      5.48613     20.38229     51.16012         8     0.904     0.763  72.47   0
       198    515.2005    494.6577 300.1783025 +22.6815594     812.7757     72.18898      1.461     3.82     5.579644     20.38229     90.61926        14     1.125     0.848  43.30   0
       199    985.2485    493.0753 300.3253784 +22.8218701      1384.39     72.24421      1.532     3.57     5.465346     20.38229     120.4295        19     1.156     0.942 -14.77   0
       200    857.2980    491.4307 300.2859873 +22.7830935     2301.939     72.18898      1.745     3.78     5.373258     20.38229     223.6977        29     1.538     1.076  76.59   0
       201    970.8286    492.1940 300.3211638 +22.8173004     949.0605     72.24421      1.762     3.72     5.474548     20.38229      66.3098        11     0.985     0.743 -19.43   0
       202    610.3990    488.4785 300.2099676 +22.7083042     899.2868     72.13371      2.215     5.75     5.548479     20.38229     86.80845        13     1.850     0.773  83.28   0
       203    396.0911    489.1921 300.1429862 +22.6442988     363.1277     72.15214      1.249     3.02     5.293327     20.38229     54.25744         6     0.775     0.666   0.08   0
       204    895.2845    486.5327 300.2994284 +22.7930582     4353.966     72.35453      1.461     2.62     5.425828     20.38229     543.4688        32     1.200     1.138  87.98   0
       205    449.0028    488.4801 300.1596918 +22.6599501     355.6364     72.15214      1.139     2.63     5.423455     20.38229     51.73644         6     0.760     0.500  -0.58   0
       206    632.9102    483.3608 300.2186443 +22.7135769     160.3695      72.2258      1.009     3.40     5.490207     20.38229     36.05424         5     0.772     0.433 -18.97   0
       207    556.2086    482.4503 300.1950404 +22.6903386     308.6437     72.24421      1.096     2.59     5.578506     20.38229     54.63346         7     0.812     0.603  79.73   0
       208    127.2173    476.6601 300.0633979 +22.5601038     1085.819     72.18898      1.569     3.48     5.266197     20.38229     117.4628        19     1.181     1.015  42.76   0
       209    987.0974    476.9216 300.3312003 +22.8177786     661.5959     72.35453      1.521     3.84     5.456464     20.38229     73.22771        15     1.164     0.903 -12.69   0
       210    926.2257    475.0179 300.3128214 +22.7990104     117.5654      72.2626      1.279     3.84     5.430944     20.38229     26.60188         5     0.825     0.513 -35.51   0
       211    788.0350    470.3856 300.2712169 +22.7563055     445.5578     72.24421      1.486     3.17     5.254888     20.38229     50.11882         7     0.723     0.685 -18.17   0
       212    983.7996    466.2168 300.3336465 +22.8137133     317.8012     72.13371      1.224     3.45     5.355348     20.38229     51.72079         7     0.899     0.671  -7.19   0
       213    119.9576    466.6049 300.0644046 +22.5550411     383.7413      72.2626      1.388     4.29     5.367826     20.38229      46.7366         8     1.097     0.666   5.62   0
       214    727.5590    460.8501 300.2554554 +22.7354554     378.0756      72.2626      1.292     3.15     5.217081     20.38229     61.25137         9     0.882     0.729  15.15   0
       215    336.5222    459.5399 300.1340699 +22.6179314     306.3491     72.29939      2.097     4.75     5.238996     20.38229      30.6785         7     1.454     0.440 -22.76   0
       216    668.6500    456.8794 300.2383805 +22.7166722     870.6765      72.2626      1.372     2.86     5.385569     20.38229     104.0695        14     0.940     0.905   9.00   0
       217    983.0215    449.7897 300.3387368 +22.8087566     595.7635      72.2258      1.389     2.49      5.20823     20.38229     79.80325         8     0.930     0.543  -4.18   0
       218    729.4988    449.1666 300.2598531 +22.7326784     822.7343      72.2258      1.314     2.73     5.205441     20.38229     121.6487        14     1.005     0.846 -33.65   0
       219    886.7245    445.6024 300.3100461 +22.7787282      1008.28     72.15214      1.333     2.42     5.114562     20.38229     135.0545        14     0.896     0.878  16.77   0
       220    870.7747    441.9671 300.3062503 +22.7729082      552.534     72.24421      1.239     3.15     5.064185     20.38229      79.7243        10     0.920     0.763  35.02   0
       221    851.5546    442.0206 300.3002370 +22.7671697     336.2281     72.29939      1.425     3.24     5.060404     20.38229      45.4974         5     0.769     0.580  -2.57   0
       222    615.2845    439.6110 300.2273545 +22.6957266     3253.982      72.2074      1.368     2.39     5.442989     20.38229     436.5326        27     1.097     1.042 -63.48   0
       223    976.3708    438.6110 300.3402899 +22.8035514     453.0039     72.24421      1.293     4.93     5.106266     20.38229     76.55593        10     1.409     0.644 -47.59   0
       224    455.0193    426.6021 300.1816524 +22.6439796     504.5352     72.17056      1.304     3.48     5.243512     20.38229     62.00053        10     1.005     0.813  12.05   0
       225    898.7493    418.8858 300.3224704 +22.7746461     547.8279     72.24421      1.382     3.28     4.899924     20.38229     69.71473        11     0.920     0.863 -29.12   0
       226    985.0479    417.7681 300.3497641 +22.8001543     991.6931       72.281      1.504     3.08     4.914447     20.38229      121.353        18     1.119     0.962   8.54   0
       227    726.0375    413.7424 300.2702727 +22.7214603     1098.949     72.24421      1.318     2.11      5.19315     20.38229     179.5739        16     0.936     0.909  16.77   0
       228    635.0728    415.4755 300.2413554 +22.6947178     317.8121     72.31777      1.362     2.78     5.377002     20.38229     58.48135         6     0.759     0.612 -51.90   0
       229    521.7327    414.0284 300.2065114 +22.6603537      507.196      72.2258      1.385     3.27     5.329327     20.38229     57.13527         9     0.918     0.753  44.45   0
       230    229.9844    411.6956 300.1164480 +22.5722624     692.2685     72.17056      1.367     2.70     5.518825     20.38229     84.50585         9     0.818     0.717 -62.36   0
       231    292.3045    407.3743 300.1372409 +22.5896997     3736.668     72.18898      1.425     2.66     5.364102     20.38229     468.1237        25     1.116     1.079 -73.56   0
       232   1023.8515    406.1469 300.3656488 +22.8084244     1118.659      55.1272      1.027     3.22       4.9127     20.38229     324.2694         9     1.159     0.353  87.70  24
       233    239.4486    402.1439 300.1224923 +22.5723566     7568.646       72.281      1.462     2.72     5.499751     20.38229     861.7247        39     1.257     1.181  28.07   0
       234    743.8958    402.9790 300.2793342 +22.7237137     93.75698     72.15214      1.023     2.66     5.139566     20.38229     35.64724         5     0.638     0.567  -1.46   0
       235    617.7717    401.9789 300.2403443 +22.6856576     343.1339      72.2258      1.394     5.14     5.390175     20.38229     47.56351         8     0.994     0.876  55.50   0
       236   1005.3947    397.2322 300.3627807 +22.8003372     1780.491      72.2258      1.548     3.19     4.909117     20.38229     188.3229        26     1.308     1.135 -71.14   0
       237    380.2309    396.4692 300.1681466 +22.6129161     4907.619      72.2258      1.390     2.58     5.272513     20.38229     627.1593        28     1.128     1.061  87.72   0
       238    624.4836    393.2522 300.2452682 +22.6851599      18586.9       72.281      1.331     2.45     5.385525     20.38229     2319.311        47     1.176     1.127  85.78   0
       239    471.8743    395.1156 300.1971206 +22.6399841     428.4525     72.33615      2.341     4.19     5.223066     20.38229     44.42274         7     0.998     0.612   1.01   0
       240    642.1962    393.2709 300.2507822 +22.6904699     961.6804     72.18898      1.993     6.58     5.371577     20.38229     70.01527        17     1.608     0.755 -42.18   0
       241    867.8448    390.2368 300.3221273 +22.7571577     415.0087       72.281      1.538     5.30     4.870536     20.38229     45.42371         8     1.241     0.640 -39.15   0
       242    251.0471    391.5005 300.1295550 +22.5727766     349.1756      72.2626      1.285     3.79     5.471368     20.38229     33.56066         6     0.824     0.500  -0.02   0
       243    821.5106    383.5077 300.3098579 +22.7413530     -133.463     72.40963      0.000     2.93     4.886522     20.38229     55.36337         5     0.876     0.515  43.79   0
       244    244.7177    380.2800 300.1312269 +22.5676577     434.0782      72.3729      1.525     3.27     5.492114     20.38229     45.62902         8     0.885     0.655  -0.43   0
       245    957.9784    375.8449 300.3549223 +22.7799961      839.021     72.29939      1.597     4.06     4.899349     20.38229      74.5319        15     1.205     0.867 -28.23   0
       246    494.9601    375.0498 300.2108225 +22.6411350     295.0433       72.281      1.347     2.05     5.273186     20.38229     54.16185         5     0.598     0.573  86.14   0
       247    179.1975    373.2458 300.1131277 +22.5460003     2031.125     72.24421      1.501     3.01     5.551416     20.38229     238.4948        24     1.188     1.069   8.47   0
       248    565.1406    362.6458 300.2367096 +22.6585917     6726.624       72.281      1.338     2.38     5.397149     20.38229     971.2236        34     1.158     1.052  72.02   0
       249    978.8815    363.4435 300.3654709 +22.7826848     1188.401      72.2074      1.433     3.11     4.903669     20.38229     145.7088        19     1.116     0.969  39.66   0
       250    279.8438    361.5929 300.1482201 +22.5728183     726.8953      72.2626      1.477     3.76     5.397122     20.38229     79.41952        14     1.123     0.914  64.09   0
       251    137.8359    355.2071 300.1061173 +22.5284233     489.6913      72.2626      1.323     3.08     5.568618     20.38229     68.54514        10     0.979     0.722 -48.07   0
       252    825.0648    354.9688 300.3202280 +22.7342114     346.7957     72.24421      1.495     3.11     4.885327     20.38229     48.35703         5     0.951     0.376 -29.79   0
       253    769.4135    351.8271 300.3038913 +22.7166487      1183.66     72.24421      1.473     3.08     5.054299     20.38229      140.772        17     1.058     0.976  87.80   0
       254    678.8218    352.8183 300.2753256 +22.6898106     451.6967     72.24421      1.323     3.27     5.334501     20.38229     67.66986        11     0.933     0.806 -55.60   0
       255    859.2303    350.7818 300.3322441 +22.7432341      174.717      72.2258      1.197     4.13     4.883223     20.38229     29.94828         5     0.837     0.630 -37.66   0
       256    471.7687    348.8931 300.2120873 +22.6266729     6199.887     72.17056      1.362     2.50     5.255235     20.38229      887.471        33     1.143     1.067  75.32   0
       257    961.1470    343.8379 300.3662980 +22.7717388     644.6903      72.2626      1.388     3.12     4.900532     20.38229     79.34277        11     1.000     0.711 -40.63   0
       258    863.8156    343.4451 300.3360552 +22.7424967     1477.661      72.2626      1.392     2.72     4.927704     20.38229     190.9284        18     1.103     0.952 -46.68   0
       259    456.2606    337.7955 300.2108586 +22.6188389     484.8304      72.2258      1.298     1.95     5.253431     20.38229     69.17809         6     0.677     0.547 -33.38   0
       260    539.2302    335.7514 300.2373642 +22.6431031     457.5681      72.2626      1.198     2.41      5.35521     20.38229     63.88837         6     0.733     0.530 -40.07   0
       261    817.0954    334.4633 300.3243961 +22.7259298     251.3609     72.33615      1.459     4.11     4.985875     20.38229     32.02965         5     0.902     0.535 -46.42   0
       262    519.3539    333.8057 300.2318038 +22.6365909     238.5149     72.24421      1.267     3.63     5.318594     20.38229     31.92522         6     0.719     0.659  15.71   0
       263    836.4963    331.3559 300.3314558 +22.7308434     495.4934      72.2626      1.400     3.94     4.999611     20.38229     70.12923        11     1.169     0.684 -22.97   0
       264    359.2676    328.1008 300.1838057 +22.5869969     2581.255     72.33616      1.427     2.82     5.528276     20.38229      310.966        29     1.163     1.135  31.24   0
       265     77.7469    325.4500 300.0970879 +22.5018682     1153.106       72.281      1.648     3.29     5.648309     20.38229     120.2795        18     1.183     0.982  19.02   0
       266    328.6602    317.4509 300.1777341 +22.5747675     30078.75     72.29939      1.462     2.56     5.582372     20.38229     4083.894        65     1.312     1.213  67.51   0
       267    863.3109    315.2786 300.3450369 +22.7342458     1360.671      72.3729      1.329     2.66     5.089722     20.38229     177.6656        17     1.037     0.916  14.21   0
       268    819.1622    313.1811 300.3319460 +22.7204288     253.7628     72.24421      1.711     2.86     5.093822     20.38229     36.55402         5     0.730     0.675 -42.70   0
       269     24.9555    305.1684 300.0872566 +22.4802204     5048.262     72.29939      1.696     3.30     5.914833     20.38229     494.2748        39     1.407     1.312  75.34   0
       270    778.7827    304.0872 300.3223029 +22.7057273     586.8011     72.18898      1.437     2.76     5.168689     20.38229     73.97756         9     0.885     0.665  79.65   0
       271    202.9241    303.9159 300.1430018 +22.5332037     442.0526     72.35453      1.447     3.43     5.541996     20.38229     45.45044         8     0.839     0.643 -39.35   0
       272    427.1619    303.0086 300.2130836 +22.6001277      456.927      72.2626      1.312     3.10     5.241057     20.38229     70.75029        10     0.928     0.707  -1.83   0
       273    739.1478    297.4402 300.3121003 +22.6919516     1996.035     72.24421      1.359     2.46     5.234752     20.38229     267.0651        20     1.009     1.000 -12.21   0
       274    547.3925    291.8701 300.2541435 +22.6329369     362.7151      72.2258      1.408     3.19     5.288181     20.38229     64.21982        10     0.958     0.833  56.24   0
       275    954.1450    290.5154 300.3814136 +22.7543058     645.7363     72.31777      1.445     3.48     4.906467     20.38229     74.95777        12     1.128     0.722  53.37   0
       276    993.3304    288.9922 300.3941381 +22.7655922     2134.509      72.2258      0.594     0.75     4.906742     20.38229     1219.852         7     0.494     0.390  -0.91   0
       277    400.9812    281.8565 300.2117938 +22.5862081     2115.037      72.2258      1.576     3.83     5.416788     20.38229     200.9962        25     1.295     1.067  59.00   0
       278    613.2526    280.8534 300.2782381 +22.6494918     291.2224       72.281      1.129     3.24     5.425732     20.38229     56.86512         8     1.000     0.526 -34.59   0
       279    840.3040    274.9510 300.3509431 +22.7157625     540.0625     72.29939      1.318     3.11     5.238015     20.38229     86.36388        11     0.982     0.779 -38.69   0
       280    739.2163    272.4031 300.3202438 +22.6847734     230.5477     72.15214      1.251     3.01     5.259418     20.38229     41.10577         6     0.746     0.627 -56.51   0
       281    690.7757    271.5892 300.3054057 +22.6700386     271.4721     72.24421      1.497     4.16     5.377124     20.38229     40.35967         6     1.072     0.460  10.35   0
       282    191.1334    263.1298 300.1525640 +22.5179573     194.7387       72.281      1.089     3.94     5.622321     20.38229     39.32566         6     0.947     0.469 -33.63   0
       283    476.8101    261.2781 300.2420812 +22.6030072     1159.128      72.2074      1.251     2.31     5.291398     20.38229     170.5454        17     0.971     0.926 -68.53   0
       284    988.2601    256.8918 300.4029688 +22.7548403     344.8907     72.31777      1.597     6.07     5.166157     20.38229     35.04377         8     1.133     0.915 -58.74   0
       285    882.5958    254.5466 300.3707554 +22.7225501     146.4472      72.2258      1.132     3.92     5.243495     20.38229     29.64178         5     1.017     0.432  75.39   0
       286    859.7032    254.9133 300.3634945 +22.7158051     217.4805     72.42799      1.113     3.79     5.264339     20.38229     38.38197         5     0.851     0.486  40.09   0
       287    721.6285    253.2532 300.3209718 +22.6740025     2233.715      72.2626      1.392     2.49     5.314119     20.38229     280.1584        22     1.112     0.966  48.58   0
       288    982.8712    247.6116 300.4042970 +22.7505582      3170.39      72.2626      1.545     3.10     5.239118     20.38229     374.1624        31     1.299     1.167  81.25   0
       289    429.9127    237.1706 300.2352958 +22.5820339     717.7059     72.24421      1.369     2.93     5.370656     20.38229     88.74546        11     0.879     0.826  60.43   0
       290    105.0666    231.0783 300.1361924 +22.4829608     1450.972     72.35453      1.696     3.32     5.674152     20.38229     131.0928        23     1.320     1.028 -47.50   0
       291    135.3498    230.9764 300.1456424 +22.4920068     580.9815     72.24421      1.553     5.01     5.601546     20.38229     56.09192        12     1.265     0.843  43.42   0
       292    998.9982    228.3010 300.4155942 +22.7498269     456.4694     72.13371      1.293     3.03     5.401252     20.38229     69.92876         9     0.923     0.700  10.58   0
       293    842.3923    225.4523 300.3676499 +22.7021511     327.1494      72.2258      1.572     3.76     5.274493     20.38229     36.90788         6     0.997     0.407  18.36   0
       294    188.7520    223.1692 300.1647832 +22.5057669     483.3873       72.281      1.472     3.80     5.742833     20.38229     57.85546        11     0.993     0.880 -27.66   0
       295    983.8052    220.7147 300.4133123 +22.7430991      295.071     72.17056      1.214     3.73     5.443072     20.38229     41.47799         6     0.884     0.664  69.83   0
       296     45.0000    219.9447 300.1211282 +22.4617616      279.897     72.15214      1.254     2.85     5.872321     20.38229     38.88627         4     0.707     0.421 -88.26   2
       297    865.1622    217.0600 300.3774749 +22.7065508     395.8632      72.2626      1.366     3.83     5.342234     20.38229     45.81882         7     1.088     0.462 -33.93   0
       298    793.4548    214.7701 300.3558504 +22.6844339     589.3426      72.2626      1.250     2.66     5.324282     20.38229     89.13781        14     0.957     0.897  -9.68   0
       299    383.7653    214.1678 300.2283878 +22.5616024     436.9781       72.281      1.367     4.06     5.725608     20.38229     48.33215         8     0.779     0.731  41.04   0
       300    884.1874    208.0011 300.3863484 +22.7096376      394.833     72.05996      1.323     2.59     5.429769     20.38229      53.6591         6     0.876     0.439  51.59   0
       301    891.3940    203.8231 300.3899518 +22.7105920     2059.147      72.2258      1.434     2.77     5.463075     20.38229     231.7296        23     1.124     1.055  52.08   0
       302    309.9571    200.7552 300.2097629 +22.5356406     2150.785     72.29939      1.472     2.76     5.938254     20.38229     272.3123        25     1.199     1.055  67.75   0
       303    387.9391    196.1130 300.2355419 +22.5576644     1119.623     72.33615      1.492     2.87     5.800566     20.38229     135.9229        19     1.135     0.986 -51.43   0
       304    789.9003    195.9084 300.3608587 +22.6779454     680.4791     72.40963      1.353     2.27      5.45916     20.38229      84.2055         9     0.761     0.717   9.17   0
       305    139.3967    196.3361 300.1581339 +22.4832712     329.8335      72.2258      1.415     4.38     5.690213     20.38229     52.01381         5     0.823     0.663   7.88   0
       306    829.4622    194.7447 300.3735753 +22.6894494     313.8572     72.31777      1.807     3.91     5.470245     20.38229     39.58498         6     0.912     0.691 -64.66   0
       307    896.6511    192.7643 300.3951784 +22.7089835     386.6075      72.2626      1.409     3.31     5.531107     20.38229     53.43825         7     1.004     0.505 -24.33   0
       308    322.7848    188.0177 300.2178856 +22.5358234     149.7142      72.2258      1.283     2.50     5.956397     20.38229     42.15243         5     0.777     0.473 -33.01   0
       309    204.7332    188.0159 300.1811534 +22.5004580     766.4696      72.2258      1.562     3.41     5.910371     20.38229     87.17274        12     1.013     0.885 -61.18   0
       310    742.5444    185.1605 300.3495765 +22.6606820      1781.92     72.24421      1.341     2.54     5.554921     20.38229     204.5001        19     1.013     0.952  68.89   0
       311    807.3470    184.9421 300.3698561 +22.6800122     554.2329     72.29939      1.258     3.05     5.532725     20.38229      71.8826        11     0.921     0.797 -22.20   0
       312    174.3082    183.9756 300.1729996 +22.4901818     317.2943     72.18898      1.426     3.21     5.792836     20.38229     37.61968         5     0.803     0.490 -32.38   0
       313    226.0864    181.3387 300.1899613 +22.5049373     565.5854     72.33616      1.532     4.21     5.996822     20.38229     68.89058         9     1.078     0.857  54.06   0
       314   1014.3560    178.0321 300.4366907 +22.7399563     837.6852     72.29939      1.481     3.07     5.631197     20.38229     94.25525        11     0.977     0.745 -26.35   0
       315    746.5700    176.5584 300.3536211 +22.6594129     904.5229       72.281      1.521     3.04     5.603028     20.38229     111.6587        14     1.047     0.844  72.43   0
       316    667.1493    175.8471 300.3290916 +22.6354379     1248.466       72.281      1.342     2.42     5.531991     20.38229     194.7005        18     1.071     0.932 -86.71   0
       317    515.8171    177.4329 300.2814219 +22.5905898     171.6145      72.2258      1.015     1.99     5.619287     20.38229     49.98668         5     0.665     0.474 -18.07   0
       318    488.8623    171.8692 300.2748300 +22.5809197      307.565       72.281      1.314     3.42     5.769168     20.38229     47.54333         5     0.984     0.344 -88.79   0
       319    862.5278    167.2840 300.3927946 +22.6914439     1433.962     72.35453      1.498     2.65     5.663786     20.38229     192.7154        20     1.164     0.963  86.97   0
       320    593.3790    167.7669 300.3087207 +22.6110321     897.2382     72.24421      1.216     2.35     5.549546     20.38229     150.0784        13     0.916     0.856 -21.04   0
       321   1020.0331    167.2628 300.4419550 +22.7385552      196.625     71.48576      1.217     3.81     5.679322     20.38229      29.6999         5     0.830     0.501  54.82  16
       322    874.5933    166.6885 300.3967518 +22.6948825     926.2288     72.15214      1.645     2.89     5.666326     20.38229     107.7422        15     1.041     0.941 -35.59   0
       323    921.0218    166.4291 300.4113224 +22.7086981     215.0681      72.2258      1.092     2.98     5.682029     20.38229     42.30843         6     0.789     0.493  -4.28   0
       324    991.2748    156.9502 300.4363215 +22.7269858     1085.995     72.24421      1.399     3.09     5.711584     20.38229     127.8218        14     1.012     0.860  17.83   0
       325     14.7533    153.4424 300.1332885 +22.4336010     457.0468       72.281      1.609     4.08     5.684393     20.38229     62.58592        10     1.214     0.799 -18.64   0
       326    225.5826    149.7383 300.2000498 +22.4957083     690.4141      72.2258      1.462     3.17     6.015196     20.38229     98.88779        14     1.177     0.790 -21.15   0
       327     87.2203    144.2414 300.1587992 +22.4526749     2063.127       72.281      1.566     3.18     5.844053     20.38229     281.9987        27     1.305     1.159  55.62   0
       328    910.2838    141.8105 300.4159538 +22.6984025     667.2153      72.2074      1.353     2.39     5.726475     20.38229     103.7907        10     0.901     0.681  32.30   0
       329     36.8744    141.5515 300.1440193 +22.4368158     411.7867     72.24421      1.517     3.95     5.717468     20.38229     52.72018        10     1.116     0.650 -23.66   0
       330    244.6629    137.6777 300.2098960 +22.4979591     5697.203     72.31777      1.523     2.87     6.023862     20.38229     758.9129        36     1.283     1.170  73.37   0
       331    226.6457    139.2541 300.2037794 +22.4930148     303.4919       72.281      1.215     3.40     6.030019     20.38229     37.19083         5     0.737     0.454 -75.09   0
       332     28.7661    132.0217 300.1445881 +22.4316492     1457.617      72.2626      1.849     4.13     5.688602     20.38229     126.7216        24     1.347     1.218  65.75   0
       333    228.1246    128.9775 300.2075709 +22.4905054     757.9597     72.24421      1.556     3.23     6.043214     20.38229     77.98659         9     0.961     0.619 -29.99   0
       334    888.7385    119.4953 300.4164658 +22.6855366      3629.73     72.33616      1.490     2.61      5.73539     20.38229     468.7011        32     1.253     1.104  87.65   0
       335    992.4969    118.2466 300.4492512 +22.7162133     2779.062       72.281      1.626     2.94     5.770197     20.38229     302.0928        29     1.302     1.156 -75.03   0
       336    438.2537    114.9371 300.2775261 +22.5494017     713.3265     72.29939      1.399     2.89     6.023945     20.38229     89.52987        11     0.953     0.763 -85.77   0
       337    190.9090    115.2437 300.2004454 +22.4754114     311.8364     72.24421      1.561     3.08      6.05161     20.38229     46.84095         7     1.037     0.821  -6.12   0
       338    552.7679    112.6840 300.3139248 +22.5830380     216.2658      72.2258      0.988     2.39     5.842994     20.38229     47.63034         5     0.707     0.450  12.53   0
       339    362.4563    106.2312 300.2567488 +22.5242026     721.5264      72.2626      1.780     3.34     6.030848     20.38229     68.10912        11     1.059     0.714  -2.76   2
       340    128.2495    103.0747 300.1849014 +22.4531439     646.2325     72.24421      1.466     4.26      6.17932     20.38229     72.03167        14     1.250     0.931  62.51   0
       341    489.6372    101.9506 300.2977381 +22.5610529     1674.466     72.24421      1.365     2.63     5.977028     20.38229     224.9698        20     1.127     0.899  64.77   0
       342    417.6193    102.1810 300.2752357 +22.5395567     521.5765     72.24421      1.590     4.00     6.065196     20.38229     54.40636        10     1.121     0.789 -75.45   0
       343    551.1279    101.1797 300.3171430 +22.5792393     405.1872       72.281      1.524     3.60     5.912226     20.38229     37.89727         8     0.834     0.662 -39.91   0
       344    232.9954     97.4193 300.2193156 +22.4828973     337.1827     72.18898      1.209     4.08     6.082153     20.38229     55.70171         7     0.977     0.487   5.54   0
       345    778.3187     91.7023 300.3910316 +22.6445057     352.4541     72.39127      1.323     3.45      5.82715     20.38229     46.57349         7     0.916     0.540 -32.18   0
       346    923.8098     86.1542 300.4382170 +22.6864337     319.2979      72.2626      1.206     3.97     5.798125     20.38229     34.17616         6     0.768     0.587 -50.04   0
       347    263.6526     81.5678 300.2339921 +22.4875249      6004.97      72.2626      1.555     2.95     6.139695     20.38229     786.4213        37     1.329     1.172  62.33   0
       348    114.8300     81.2867 300.1877900 +22.4428648     741.4322     72.24421      1.674     4.65     6.398614     20.38229     56.54683        10     1.069     0.684 -18.92   0
       349    893.1370     79.6152 300.4307655 +22.6753773     301.2582      72.2074      1.170     3.25     5.785756     20.38229     43.23422         5     0.740     0.446 -19.16   0
       350    235.1947     75.8197 300.2270005 +22.4773498     373.1382      72.2074      1.395     3.89     6.259466     20.38229      42.9389         6     0.762     0.570 -33.58   0
       351    739.6476     73.3401 300.3849244 +22.6276529     275.3691     72.29939      1.656     4.85     5.945346     20.38229     30.95322         6     1.148     0.580 -26.06   0
       352     25.2199     72.1410 300.1628941 +22.4133894     523.8922     72.18898      1.687     2.88     6.104785     20.38229     54.70349         8     0.838     0.652 -40.23   0
       353    509.7487     67.0223 300.3153234 +22.5570316     6248.019     72.24421      1.435     2.82     5.995151     20.38229     724.9419        34     1.212     1.126 -79.58   0
       354    395.1161     67.0111 300.2796282 +22.5227094     626.5023     72.20739      1.336     3.09     6.099323     20.38229      76.0727        10     0.902     0.752 -55.71   0
       355    566.4069     61.5514 300.3347475 +22.5724180     229.9852     72.24421      1.185     4.07     6.001242     20.38229     48.30041         5     1.098     0.432  36.92   0
       356    530.3533     61.3451 300.3235819 +22.5615670     281.4755       72.281      1.500     4.15     5.964947     20.38229     34.83027         5     1.048     0.469   4.85   0
       357    762.0496     57.3498 300.3970923 +22.6297556     897.6323       72.281      1.723     4.79     6.054354     20.38229     101.6707        19     1.536     0.994 -68.88   0
       358    703.9923     59.2785 300.3783650 +22.6129393      471.184     72.17056      1.437     2.49     6.041975     20.38229     53.34405         3     0.847     0.220  28.53   2
       359    854.7128     55.9532 300.4264467 +22.6570749     669.0524      72.2074      1.673     3.21     5.879734     20.38229      68.6796         9     0.917     0.677 -19.38   0
       360    202.4325     50.5701 300.2249908 +22.4602818     540.9841     72.24421      1.667     3.58     6.528732     20.38229     67.89571        13     1.124     0.965 -57.69   0
       361    561.5117     49.5074 300.3371256 +22.5674895     381.0567     72.40963      1.114     2.84      6.01005     20.38229     55.76145         9     0.874     0.744  16.00   0
       362    638.1603     47.1944 300.3617604 +22.5897638     6161.787      72.2626      1.394     2.63     6.179924     20.38229     792.8935        34     1.235     1.075 -84.39   0
       363    412.9200     46.1695 300.2919258 +22.5220489     1585.308     72.24421      1.530     2.83     6.097364     20.38229      170.482        20     1.199     0.934  55.72   0
       364    679.2738     44.5123 300.3754446 +22.6012954     863.4819     72.39127      1.341     3.11     6.135075     20.38229     113.7542        15     1.033     0.901  51.51   0
       365    749.2034     42.4458 300.3979166 +22.6216245     491.2921      72.2258      2.144     4.02     6.152855     20.38229     48.50431         7     1.120     0.451  39.58   0
       366    695.1741     40.7656 300.3816156 +22.6049754      551.592     72.24421      1.273     2.49     6.160445     20.38229     96.84707        11     0.898     0.767 -49.18   0
       367    964.8918     38.6436 300.4664365 +22.6850472     557.1751     72.24421      1.411     3.27     5.801758     20.38229     72.12132        10     1.109     0.594  -9.21   0
       368    161.9637     38.1849 300.2164162 +22.4446017     702.6569     72.24421      1.636     5.44     6.651604     20.38229     73.03712        12     1.295     0.801 -65.89   0
       369      8.6636     39.3489 300.1683743 +22.3990103     321.9785     72.29939      1.442     4.24     6.718299     20.38229      31.2604         6     1.108     0.463   6.53   0
       370   1004.2247     38.3550 300.4788074 +22.6967263     299.4098      72.2626      1.200     2.38     5.801758     20.38229     40.48358         5     0.731     0.428  21.20   0
       371    733.4863     35.9425 300.3951233 +22.6150513     613.4424     72.35453      1.684     4.86     6.192651     20.38229     58.79436        10     1.196     0.894  60.16   0
       372    682.3284     32.0663 300.3804301 +22.5986294       2896.7       72.281      1.479     2.65      6.21917     20.38229     314.5438        27     1.225     1.059 -89.15   0
       373    697.7451     31.3413 300.3854711 +22.6030337      927.112     72.29939      1.897     5.43     6.225775     20.38229     81.07948        15     1.541     0.799  57.26   0
       374    323.1341     33.0557 300.2682243 +22.4913961     480.0606     72.29939      1.789     3.74     6.243149     20.38229     40.23128         5     0.795     0.505 -23.96   0
       375    768.8772     23.6457 300.4101439 +22.6221017     1516.744      72.2258      1.428     2.70     6.271819     20.38229     204.3782        20     1.094     1.016 -31.41   0
       376    929.5172     22.6901 300.4605664 +22.6698765     263.2787     72.35453      1.125     3.32     5.801758     20.38229     41.81301         5     1.009     0.316 -20.62   0
       377    311.2310   1012.6625 299.9464378 +22.7690747     1666.005      72.2626      4.977     5.41     6.873835     20.38229     90.62411        31     1.542     1.488 -44.38   0
       378    151.9603   1009.7675 299.8978369 +22.7204463     784.8488       72.281      3.108     7.51     91.95645     20.38229     32.69296        12     1.414     1.116 -38.95   3
       379    146.2335   1008.2195 299.8965598 +22.7182836     1504.238     72.24421      3.232    12.92     89.61378     20.38229     54.53809        43     2.853     1.629 -54.31  18
       380    649.5994    987.4505 300.0600098 +22.8633358     8605.881      72.2074      1.987     4.85     3.921867     20.38229      460.808        43     1.536     1.447  23.12   3
       381    798.4326     12.9243 300.4228355 +22.6278585     465.5097     72.24421      1.115     2.84     6.341813     20.38229     69.32983         9     0.812     0.769 -15.41   0
       382    562.9410    991.9855 300.0315336 +22.8386511     2357.925      72.2258      1.999     4.81     4.185119     20.38229     141.6497        34     1.491     1.420  34.69   0
       383    667.8558    954.3554 300.0764663 +22.8593106     7063.707      72.2626      1.954     4.42     4.027247     20.38229     417.2659        45     1.516     1.433   1.39   0
       384    161.3477   1006.0534 299.9019643 +22.7221991     398.2833       72.281      2.186     7.82     89.65076     20.38229     31.52087         8     1.882     0.908  62.61   0
