#   1 NUMBER                 Running object number                                     
#   2 X_IMAGE                Object position along x                                    [pixel]
#   3 Y_IMAGE                Object position along y                                    [pixel]
#   4 ALPHA_J2000            Right ascension of barycenter (J2000)                      [deg]
#   5 DELTA_J2000            Declination of barycenter (J2000)                          [deg]
#   6 FLUX_APER              Flux vector within fixed circular aperture(s)              [count]
#   7 FLUXERR_APER           RMS error vector for aperture flux(es)                     [count]
#   8 FLUX_RADIUS            Fraction-of-light radii                                    [pixel]
#   9 FWHM_IMAGE             FWHM assuming a gaussian core                              [pixel]
#  10 BACKGROUND             Background at centroid position                            [count]
#  11 THRESHOLD              Detection threshold above background                       [count]
#  12 FLUX_MAX               Peak flux above background                                 [count]
#  13 ISOAREA_IMAGE          Isophotal area above Analysis threshold                    [pixel**2]
#  14 A_IMAGE                Profile RMS along major axis                               [pixel]
#  15 B_IMAGE                Profile RMS along minor axis                               [pixel]
#  16 THETA_IMAGE            Position angle (CCW/x)                                     [deg]
#  17 FLAGS                  Extraction flags                                          
         1    691.9328     16.3012 300.3929241 +22.6015402     826.2207     72.41722      1.416     3.36     6.051085     20.40513     96.06666        12     1.006     0.830  61.97   0
         2    497.6364     15.5061 300.3326378 +22.5431725     1020.176     72.32517      1.435     2.78     5.471642     20.40513     132.9087        16     1.123     0.878  69.23   0
         3    401.5635     13.8207 300.3032658 +22.5139318       840.63     72.34359      1.480     2.56     5.246038     20.40513     119.9176        14     0.984     0.807 -25.71   0
         4    783.8028     12.6860 300.4227405 +22.6279820     391.3818     72.25144      1.337     2.71     5.980936     20.40513     53.35223         7     0.790     0.637  72.88   0
         5    740.7177      4.5233 300.4119500 +22.6127455      603.713     70.59113      1.496     2.67     6.004508     20.40513     82.48439         9     0.885     0.680  18.15  16
         6    303.4900      4.8206 300.2756536 +22.4819842      239.822     71.19255      1.394     4.56     5.588314     20.40513     31.41261         6     0.984     0.600  24.16  16
         7    172.8116      3.4891 300.2354277 +22.4424721      3550.38     66.92882      1.629     3.31     5.773124     20.40513     381.1309        33     1.336     1.219  27.78  24
         8    499.0421      1.2871 300.3376826 +22.5395041     289.5296     56.00381      1.217     3.43     5.512223     20.40513     60.83241         6     0.980     0.420 -10.97  24
         9    220.1943    983.9881 299.9318530 +22.7381567     4893.241      72.1961      7.639    23.99      64.4841     20.40513     103.1823       342     5.686     4.623 -80.78   3
        10     87.4492   1009.9272 299.8821379 +22.7057560     5090.451     72.32517     17.195   108.48     76.86868     20.40513     163.9711      2281    19.791    16.499 -46.33  27
        11    548.1102    991.2986 300.0315430 +22.8386173     2295.397     72.49078      2.120     5.77     4.083731     20.40513     144.5462        33     1.483     1.429  20.36   0
        12    634.7018    986.6797 300.0600232 +22.8632554     8529.553     72.45401      2.078     6.20     3.972196     20.40513     500.4921        48     1.643     1.532 -34.74   3
        13    640.1933    984.5848 300.0624160 +22.8643005     10072.81       72.233      2.177     5.04     4.023633     20.40513     516.7705        59     1.663     1.630  20.57   3
        14    734.3385    987.2372 300.0908962 +22.8932848     755.3039     72.34359      1.970     6.66     4.128454     20.40513     52.36704        17     1.319     1.191   2.60   0
        15      3.7588   1014.1044 299.8547682 +22.6818311     1485.251     67.97573      7.643    14.12    -10.25513     20.40513     43.00294        35     3.004     1.846  28.45  27
        16      2.6714    998.4129 299.8595351 +22.6770072     1192.604     63.41236     11.767    14.57    -8.762053     20.40513     39.25421        31     3.463     1.705  80.39  27
        17    169.5555    976.2635 299.9186169 +22.7207462     2086.223     72.34359      7.013    16.85     61.24943     20.40513     59.29797        59     3.847     2.052  77.21   3
        18     12.1779    974.0071 299.8704283 +22.6728653     670.4877     72.30675      3.288     3.90    0.9749658     20.40513     33.11621         5     0.848     0.514  25.21   8
        19    927.5413    970.6611 300.1565446 +22.9464254     813.2683     72.38042      2.024     7.42     4.235123     20.40513     43.04567        17     1.435     1.075  -1.92   0
        20    498.7537    975.7972 300.0212137 +22.8193680     427.8201     72.32517      1.791     6.14     3.968849     20.40513       51.786         9     1.431     1.014 -14.84   0
        21      3.8028   1021.8690 299.8522558 +22.6840697     1342.758      61.0792      8.103    13.52    -11.45783     20.40513      53.1579        38     3.546     1.435 -30.78  27
        22    653.1082    953.8033 300.0764543 +22.8593366      6880.87     72.21455      2.010     4.46     4.491342     20.40513     401.1099        50     1.557     1.506  19.25   0
        23    164.9573    946.7145 299.9267986 +22.7108932     1002.491     72.28831      5.492    11.82      36.7882     20.40513      35.3273        17     3.082     1.263  42.29   2
        24    244.6520    947.9872 299.9511713 +22.7351703     257.8748     72.36201      1.394     5.43     22.37811     20.40513     47.76257        10     1.053     0.791 -15.92   0
        25    561.4191    944.3274 300.0509689 +22.8291276     1563.288     72.32517      1.970     4.76     4.382027     20.40513     92.78703        27     1.363     1.302  34.32   0
        26    174.7484    997.1710 299.9134304 +22.7282996     2957.325     72.34359      6.760    28.04     79.17943     20.40513     64.47807       217     5.661     3.855  73.01  18
        27    455.3151    940.5005 300.0191690 +22.7962128     1065.697     72.49078      2.085     6.57     4.276547     20.40513     71.01468        20     1.588     1.184  58.82   0
        28    385.9568    938.8651 299.9981085 +22.7749421     6549.571     72.30675      1.976     4.30     4.724145     20.40513     472.3346        48     1.541     1.476  -5.53   0
        29    162.9704    999.2488 299.9090919 +22.7253608      990.622     72.34359      2.729     9.51     81.52733     20.40513     45.07397        20     1.859     1.358 -31.15   3
        30    430.6132    912.7865 300.0204919 +22.7808524      305.855     72.25144      1.838     4.58     4.460245     20.40513     22.14883         5     0.828     0.721 -26.87   0
        31    418.9018    925.7633 300.0126254 +22.7810637     531.7573     72.32517      1.814     6.21     4.455617     20.40513     44.15152         9     1.149     0.944 -63.52   0
        32    721.1383    906.1976 300.1131427 +22.8660607     836.4147     72.30675      2.017     5.89     4.707555     20.40513     48.87425        15     1.278     1.028  41.52   0
        33    933.0000    918.0658 300.1753571 +22.9329533     1591.078     72.30675      1.862     4.70     4.700457     20.40513     104.8864        19     1.580     0.940  87.49   3
        34    755.7502    901.0215 300.1256166 +22.8749476     1139.367     72.32517      2.116     6.18     4.598673     20.40513     62.62021        20     1.340     1.161  54.24   0
        35    534.1609    900.9921 300.0565729 +22.8085169     297.3051     72.34359      1.553     4.81     4.546255     20.40513     40.27451         6     1.034     0.635 -82.33   0
        36    211.7396    897.9634 299.9572028 +22.7109483     809.0573     72.34359      7.792     8.39     10.46321     20.40513     33.05616        10     1.943     1.011  81.81   0
        37    778.1877    894.4977 300.1347342 +22.8797981      11308.4     72.21455      1.887     4.40     4.570681     20.40513     726.7788        55     1.502     1.472   3.16   0
        38    823.8658    894.8093 300.1488772 +22.8935752     666.3695     72.28831      2.099     5.48     4.539503     20.40513     45.80973        11     1.121     0.756  44.48   0
        39    968.7731    894.3467 300.1942345 +22.9368558     460.8792     72.34359      1.989     4.68     4.906935     20.40513     34.61095         6     0.961     0.648  36.97   0
        40    356.8488    998.0188 299.9698061 +22.7831806      470.887     72.34359      2.218     6.82     4.481616     20.40513       31.322         9     1.243     1.048  34.24   0
        41    931.0000    917.9879 300.1747584 +22.9323318     1154.927     72.12225      1.560     4.04     4.693553     20.40513     122.8959        14     1.405     0.734  82.68   3
        42     90.0209    886.0343 299.9232335 +22.6710062      1059.34     72.34359      4.690     6.26     10.23887     20.40513      57.8014        15     1.403     0.928 -47.07   0
        43    483.2615    882.9966 300.0465729 +22.7880908     421.3347     72.30675      1.571     5.49     4.517938     20.40513     35.62332        10     1.134     0.751  -3.63   0
        44    830.0401    882.2390 300.1548909 +22.8918149     536.6573     72.39882      1.973     5.33     4.562052     20.40513      34.9472         7     1.168     0.687   1.40   0
        45    786.8741    876.6637 300.1432426 +22.8772793     1397.265     72.36201      1.892     5.01     4.571085     20.40513     75.89007        23     1.339     1.222  29.60   0
        46    970.0776    876.3961 300.2004796 +22.9320892     360.7095       72.233      1.591     6.13     4.969306     20.40513      32.1543        11     1.612     0.655  22.32   0
        47    638.3386    873.9653 300.0978184 +22.8319890     374.6017     72.34359      1.907     4.62     4.847541     20.40513     32.20101         5     1.045     0.580  19.81   0
        48    825.1993    869.5295 300.1575143 +22.8867140     1081.832     72.25144      2.436     6.99     4.579087     20.40513     51.34977        24     1.607     1.236  81.51   0
        49    873.5537    861.3722 300.1752491 +22.8988581     585.0897     72.36201      1.755     6.48     4.704798     20.40513     49.58441        11     1.517     0.776 -18.85   0
        50    724.9022    860.3515 300.1292254 +22.8540239     776.0971     72.36201      1.782     4.35     4.720591     20.40513     57.14713        17     1.218     1.030 -37.45   0
        51    736.0161    857.5068 300.1336152 +22.8565375     525.7902     72.25144      1.527     5.43      4.66218     20.40513     45.56607        14     1.140     0.968  56.79   0
        52    437.2728    856.5439 300.0408548 +22.7667094     4125.171     72.34359      1.841     3.86     4.626619     20.40513     375.9701        37     1.387     1.332   1.50   0
        53    215.9244    846.1091 299.9753652 +22.6973298     355.2726      72.4724      1.808     4.94     6.395122     20.40513     38.98359         8     1.056     0.804 -61.78   0
        54    162.9160    842.1031 299.9601816 +22.6802786     795.9982     72.49078      2.099     5.24     8.113801     20.40513     56.42155        13     1.345     1.023  19.45   0
        55     71.8033    841.6739 299.9319935 +22.6528187     335.2573       72.233      1.289     3.68     6.156244     20.40513     28.60365         5     0.993     0.391 -85.57   0
        56    139.9323    839.5187 299.9538750 +22.6726419     1567.804     72.43562      2.029     4.67     7.539289     20.40513     109.5853        21     1.493     0.916 -28.04   2
        57   1011.2591    828.5757 300.2288826 +22.9306828     2226.611     72.32517      1.963     4.74     5.025734     20.40513      139.245        35     1.539     1.401  57.73   0
        58    965.5197    827.1101 300.2150838 +22.9165628     2128.724     72.43562      1.974     4.54     5.055902     20.40513     115.5616        31     1.376     1.369  75.17   0
        59     15.5292    829.4290 299.9184839 +22.6324210     423.7168     72.32517      1.768     4.21     5.166484     20.40513     31.51526         5     0.944     0.535  46.24   0
        60    670.8192    827.4497 300.1230657 +22.8283678     469.0503     72.32517      2.068     5.33     5.029623     20.40513     34.11222         7     1.144     0.701 -37.94   0
        61    749.2953    820.8624 300.1496700 +22.8499926     598.3104     72.41722      1.601     6.06     4.834338     20.40513     45.37371        14     1.350     0.933  -6.81   0
        62    617.2997    814.7751 300.1105081 +22.8086883     4953.035     72.25144      1.722     3.58     4.881281     20.40513     431.7685        40     1.419     1.318 -13.94   0
        63    419.4799    812.0186 300.0497913 +22.7485955     613.0161     72.32517      1.566     4.69      4.93017     20.40513      58.8078        15     1.214     0.934  55.60   0
        64    167.3450    808.3039 299.9725467 +22.6719122     1454.882     72.39882      1.942     4.19     5.779634     20.40513      127.007        22     1.308     1.163  30.00   0
        65    637.5557    807.1306 300.1193052 +22.8125641     741.3962     72.28831      1.846     5.89     4.951546     20.40513      53.0378        14     1.302     1.085  36.25   0
        66    186.4187    805.3309 299.9794449 +22.6767810     445.3647     72.32517      1.911     7.32     5.580682     20.40513     31.42413        11     1.601     0.938  67.81   0
        67    553.9755    798.0978 300.0962009 +22.7849197     424.8205       72.233      1.834     4.88     4.837698     20.40513     31.34033         7     0.911     0.740 -86.74   0
        68    793.3047    794.5513 300.1719463 +22.8556212     4307.833     72.38042      1.775     3.86     5.082802     20.40513     353.8698        40     1.392     1.352  84.81   0
        69   1010.1183    795.1429 300.2393963 +22.9207332     1101.514     72.36201      1.868     4.97     5.037714     20.40513     73.56789        21     1.327     1.129  52.53   0
        70    201.9530    788.8292 299.9896403 +22.6767066     491.0246     72.34359      1.707     2.33     5.366216     20.40513     60.37056         8     0.787     0.649 -44.00   0
        71    509.9348    786.7511 300.0861716 +22.7684608     745.5131     72.34359      1.639     5.42     4.788704     20.40513      63.7169        15     1.319     0.899  53.70   0
        72    156.6914    784.4423 299.9769900 +22.6618714      1202.34     72.32517      1.955     4.57     5.219224     20.40513     88.32188        20     1.240     1.160 -60.61   0
        73    306.3102    776.8987 300.0259837 +22.7045817     54153.36     72.49078      1.787     3.63     5.193375     20.40513     4979.131        97     1.560     1.494  24.97   0
        74    572.1712    780.3638 300.1076340 +22.7852819     581.9453     72.34359      1.932     5.49     4.857464     20.40513      50.3881        11     1.283     0.662 -56.87   0
        75    977.0980    775.6919 300.2354137 +22.9052547     877.7625     72.50916      1.804     4.94     5.094556     20.40513     61.61776        19     1.239     1.189 -86.87   0
        76    564.1392    776.0588 300.1065312 +22.7816384     1502.586     72.38042      1.572     3.49     4.848679     20.40513     133.3313        20     1.104     1.069 -47.73   0
        77    593.0709    772.3439 300.1167522 +22.7892430     925.1164     72.34359      1.755     5.08     4.880525     20.40513     85.64175        17     1.408     0.956 -36.02   0
        78    604.1065    770.6565 300.1207391 +22.7920659     606.4776     72.38042      1.740     3.48     4.892604     20.40513     51.17637        11     0.982     0.761 -74.81   0
        79    924.4578    768.4438 300.2213433 +22.8874069     340.9574     72.34359      1.604     3.78     5.219368     20.40513     29.62493         6     1.002     0.409  71.91   0
        80    709.1946    766.0830 300.1549765 +22.8222435     440.0848     72.25144      1.622     3.83     5.006807     20.40513     51.72372         5     1.219     0.345  62.46   0
        81    356.0571    754.1870 300.0488470 +22.7129808     31762.79     72.28831      1.699     3.33     5.226353     20.40513     2889.369        78     1.456     1.450 -14.37   0
        82    746.8816    757.0607 300.1696580 +22.8309435     711.3892     72.41722      1.663     5.33     5.100501     20.40513     65.18176        14     1.366     0.720  -5.41   0
        83    370.2115    754.9175 300.0530151 +22.7174344     2007.318     72.28831      1.776     3.60     5.146876     20.40513     189.5947        26     1.300     1.200 -30.23   0
        84    879.2557    750.2691 300.2131484 +22.8686461     2814.563     72.34359      1.741     3.71     5.271279     20.40513      213.642        30     1.334     1.239 -22.36   0
        85    367.1519    748.9440 300.0540042 +22.7148025      721.438     72.36201      1.999     3.01     5.160159     20.40513     60.53344         9     0.888     0.791  82.43   0
        86    637.0922    746.4851 300.1388739 +22.7950096      910.396     72.49078      1.473     3.01     4.906592     20.40513     94.00659        15     1.001     0.895  -9.61   0
        87    473.5160    745.7181 300.0881669 +22.7457638     427.4154     72.45401      1.421     3.17     4.819182     20.40513     51.60572         7     0.957     0.484  81.32   0
        88    484.1735    740.7710 300.0930936 +22.7475381     858.7305     72.30675      1.441     4.05     4.822361     20.40513     83.39851        16     1.186     0.914  72.21   0
        89     43.2235    741.4923 299.9556728 +22.6155119     587.8152     72.25144      1.850     5.30     5.051792     20.40513     49.31095         8     1.524     0.521 -33.07   0
        90    885.4766    738.6768 300.2188569 +22.8671783     610.7614     72.41722      1.582     5.33     5.296175     20.40513     56.16712        10     1.300     0.617   7.81   0
        91    238.4538    745.7303 300.0150018 +22.6752884     886.9597     72.36201      1.803     6.33     5.098078     20.40513     68.28896        16     1.330     0.968  33.93   0
        92    430.0381    735.5414 300.0779364 +22.7298089     325.8996     72.34359      1.400     4.73     4.828428     20.40513     54.47945         8     1.232     0.667  65.79   0
        93     71.8264    735.2366 299.9665964 +22.6222985     486.0135     72.34359      1.986     7.58     5.051163     20.40513     47.20888        10     1.712     0.940 -73.23   0
        94    236.5090    730.3643 300.0193905 +22.6702959     595.4768     72.28831      1.767     3.70       5.0356     20.40513     44.72826        12     1.025     0.821  53.58   0
        95    269.3784    724.1269 300.0316431 +22.6783629     285.5117     72.32517      1.689     4.37     4.985657     20.40513     28.36281         5     1.458     0.373 -77.29   0
        96    559.6932    721.3281 300.1229343 +22.7645904      300.358     72.45401      1.287     3.82     4.887794     20.40513     44.80956         6     1.030     0.465   3.89   0
        97    529.3773    719.1661 300.1141935 +22.7548839     575.3104     72.34359      1.615     3.81     4.860032     20.40513     53.68898        11     1.009     0.847 -20.04   0
        98    438.2521    718.1575 300.0861432 +22.7272807     333.9012     72.32517      1.410     4.76      4.84665     20.40513     34.35559         7     1.007     0.638  -6.33   0
        99    945.6871    715.6361 300.2451313 +22.8785887     4559.404     72.30675      1.800     4.01     5.358678     20.40513     333.7314        38     1.398     1.337 -34.02   0
       100    551.3124    716.4548 300.1219073 +22.7606793       1423.7     72.36201      1.652     3.28     4.874624     20.40513     157.4583        22     1.219     1.132 -24.53   0
       101    934.1082    707.1874 300.2442639 +22.8726932     1684.901     72.26988      1.691     3.60     5.450546     20.40513     136.1647        25     1.276     1.192  -6.00   0
       102    297.1301    700.6401 300.0479098 +22.6799438     968.0211     72.30675      1.789     4.45     4.949596     20.40513     78.28082        18     1.219     1.133 -76.33   0
       103    760.5613    698.3819 300.1929935 +22.8181846     2428.979     72.34359      1.641     3.39     5.350271     20.40513     229.9236        28     1.353     1.096  -2.70   0
       104    965.3174    697.1722 300.2572575 +22.8791600     1653.261     72.32517      1.779     4.00     5.408748     20.40513      118.811        26     1.350     1.179  24.88   0
       105    590.2882    694.8498 300.1410703 +22.7661550     12825.02     72.32517      1.054     3.48     5.103983     20.40513     3375.119        18     1.102     0.465   2.39   0
       106    145.7559    684.4948 300.0060690 +22.6299169     583.6927     72.34359      1.727     3.50     5.000187     20.40513     56.82829        10     0.926     0.787 -18.66   0
       107    842.5253    683.9354 300.2232486 +22.8385841     438.3734     72.36201      1.676     4.52     5.576942     20.40513     37.20896         8     0.840     0.692  -1.01   0
       108    878.8976    675.2726 300.2374092 +22.8469875     148805.2     72.45401      1.666     3.30     5.644456     20.40513     12459.13       158     1.546     1.511 -50.69   0
       109    641.2440    679.5695 300.1619133 +22.7770345     278.1023     72.36201      1.239     3.15     5.302567     20.40513     54.44733         6     0.829     0.490   5.97   0
       110   1024.0000    677.1658 300.2820745 +22.8909789     318.7242     54.26383      1.027     3.18     5.361411     20.40513      74.3173         5     1.188     0.289  90.00  24
       111    731.5099    675.6944 300.1913080 +22.8029640     806.3799     72.50916      1.593     3.37     5.342377     20.40513     72.90752        15     1.033     0.941 -18.75   0
       112    911.3488    668.6260 300.2496931 +22.8547950      422.795     72.34359      1.589     4.81     5.655541     20.40513     41.86026         8     1.029     0.636  -4.18   0
       113    565.1991    664.0677 300.1432556 +22.7497963     1602.583     72.28831      1.478     3.06     5.139203     20.40513     156.4107        21     1.115     1.071 -13.12   0
       114    746.3552    661.3943 300.2005826 +22.8033024       9577.7     72.32517      1.561     2.90     5.387054     20.40513     999.3599        44     1.310     1.220  67.53   0
       115    247.8307    656.2009 300.0470094 +22.6524076     5042.533     72.28831      1.695     3.38     5.010281     20.40513     427.1378        40     1.362     1.319 -47.49   0
       116    329.9813    654.4545 300.0731384 +22.6765362     1322.976     72.30675      1.615     3.10      4.98206     20.40513     122.9236        22     1.190     1.064  31.77   0
       117    205.8179    652.0547 300.0352874 +22.6386201     631.7424     72.30675      1.678     6.19     5.144316     20.40513      60.0206        12     1.512     0.713 -12.82   0
       118    538.0396    649.9386 300.1393853 +22.7375999       712.64     72.32517      1.395     3.21     5.194103     20.40513     80.95055        11     0.867     0.855   0.68   0
       119    915.3015    649.5618 300.2571205 +22.8504991     738.1915     72.32517      0.748     1.06     5.655541     20.40513     339.7087         5     0.518     0.488  30.39   0
       120    529.8589    642.0915 300.1393864 +22.7328949     3172.624     72.39882      1.533     2.99     5.293578     20.40513     303.2817        30     1.225     1.156  21.41   0
       121    520.1297    635.7910 300.1384028 +22.7281700     1489.646     72.30675      1.513     3.01     5.368799     20.40513     152.9009        18     1.124     0.907  24.92   0
       122    913.6007    634.2713 300.2615575 +22.8455948     469.1677     72.21455      1.400     3.29     5.655541     20.40513     52.70142         9     0.994     0.628   9.51   0
       123    183.5248    631.8885 300.0349045 +22.6261479     741.3649     72.45401      1.751     3.91     5.287843     20.40513     82.71037        15     1.254     0.925  14.04   0
       124    197.6052    630.6601 300.0396829 +22.6300175     540.1965     72.28831      1.581     4.14     5.272723     20.40513     58.91663        11     1.032     0.812 -26.34   0
       125    966.8406    627.3445 300.2804211 +22.8595439     566.4681     72.30675      1.851     6.67     5.556019     20.40513      42.0674        12     1.198     1.043  58.44   0
       126    544.0391    626.6760 300.1488113 +22.7327166     309.0853     72.28831      1.150     3.72      5.45785     20.40513     52.13136         7     1.006     0.518 -23.38   0
       127    444.8931    625.4344 300.1183368 +22.7026487     1841.483     72.26988      1.656     3.40     5.162285     20.40513     188.4919        23     1.235     1.067 -82.59   0
       128    254.9124    627.2018 300.0586329 +22.6462076     540.0602     72.25144      1.631     5.57     4.975221     20.40513     42.82953        10     1.274     0.687 -18.52   0
       129    223.4008    626.9116 300.0489242 +22.6366763     489.4148       72.233      1.614     5.14     5.250697     20.40513     61.54411        11     1.154     0.868  40.15   0
       130   1020.5693    623.3617 300.2984847 +22.8744834     916.4802     70.25056      1.740     4.31     5.416066     20.40513     68.21215        18     1.237     1.062  63.99  16
       131    477.2592    624.9133 300.1285846 +22.7121990     1009.254     72.41722      0.488     2.79      5.46887     20.40513     782.0554         5     0.724     0.316 -14.57   0
       132     98.7147    620.2451 300.0123143 +22.5973736     19954.17     72.30675      1.826     3.71     5.542853     20.40513     1720.583        67     1.562     1.458  31.03   0
       133     19.7353    622.0576 299.9871754 +22.5742055     726.3422     72.38042      2.075     5.82     5.529778     20.40513     59.77327        14     1.549     0.963 -21.65   0
       134    529.6794    620.8455 300.1462323 +22.7267393     1005.032     72.30675      1.685     4.01     5.532609     20.40513     89.69277        13     1.093     0.899  73.69   0
       135    565.2753    619.7166 300.1576875 +22.7370808     315.6214     72.41722      1.280     3.68      5.56363     20.40513      43.3113         5     0.963     0.405 -13.04   0
       136    283.6092    612.8598 300.0722199 +22.6506942     394.0418     72.28831      1.473     3.48     4.654877     20.40513     32.65285         5     0.789     0.443  71.69   0
       137    947.8373    607.3523 300.2809853 +22.8481073     1068.314     72.36201      1.688     3.97     5.605628     20.40513     92.53944        17     1.105     1.045  38.91   0
       138    612.8917    608.4064 300.1761972 +22.7480983     211.3315       72.233      1.026     4.35     5.667402     20.40513     34.84536         7     0.859     0.628  24.66   0
       139     44.7960    604.3880 300.0007034 +22.5766528     1644.749     72.17764      2.129     5.16     5.670548     20.40513      111.524        30     1.640     1.315  66.64   0
       140    814.4756    604.9769 300.2401526 +22.8074928     427.7543     72.36201      1.577     5.43     5.595874     20.40513     48.45813        12     1.303     0.781 -60.24   0
       141    111.2991    604.7004 300.0212758 +22.5966871     452.1877     72.56426      1.678     5.74     5.615469     20.40513     42.68367         9     1.090     0.988 -36.72   0
       142    493.0952    601.0977 300.1412522 +22.7101051     381.4289     72.50916      1.364     4.27     5.676049     20.40513     48.28049         9     0.940     0.816 -59.56   0
       143    888.0285    599.6502 300.2648259 +22.8279865     858.6973     72.34359      2.106     4.76     5.635948     20.40513     67.19603        15     1.177     1.027 -86.33   2
       144    632.6022    598.2113 300.1856508 +22.7510744     285.2159     72.14072      1.543     4.90     5.651935     20.40513     29.00997         5     1.042     0.653 -28.04   0
       145    449.9244    593.6624 300.1302235 +22.6950328     734.4948     72.38042      1.585     3.61     5.353684     20.40513     75.15603        13     0.999     0.894 -62.60   0
       146    597.7039    592.4832 300.1766368 +22.7389739     516.5099     72.49078      1.561     4.26     5.689657     20.40513      47.8415        13     1.039     0.994  40.65   0
       147    644.9875    590.7165 300.1919449 +22.7526313     476.1477     72.28831      1.494     4.67     5.640305     20.40513     52.15742         7     1.057     0.586  17.24   0
       148    615.9004    590.5572 300.1829323 +22.7438720     545.3703     72.30675      1.400     2.47     5.681816     20.40513     77.56981         9     0.865     0.655  64.06   0
       149    494.1202    589.2698 300.1454132 +22.7070152     962.2767     72.43562      1.659     4.09     5.686347     20.40513     91.20447        16     1.306     0.882  83.57   0
       150    927.9812    585.3593 300.2819332 +22.8358402     3305.065     72.34359      1.610     3.21     5.628924     20.40513     322.2498        30     1.306     1.194   8.00   0
       151    459.6497    585.0079 300.1360627 +22.6954618     1668.176     72.32517      1.446     3.21     5.482013     20.40513     191.7539        20     1.080     1.028  26.06   0
       152    809.5945    581.1778 300.2463606 +22.7991912     267.0231     72.30675      1.766     5.96      5.51285     20.40513     31.83766         7     1.139     0.877  78.51   0
       153    435.2979    580.5031 300.1299432 +22.6868706     298.7759     72.50916      1.070     2.57     5.252962     20.40513     50.08258         5     0.700     0.482 -15.03   0
       154     21.4695    578.3923 300.0018958 +22.5621981     4905.014     72.30675      1.882     3.95     5.913414     20.40513     419.1689        43     1.498     1.386  18.81   0
       155    967.1814    575.2124 300.2974617 +22.8446582     265.9061     72.28831      1.447     4.00     5.543808     20.40513     30.17121         6     0.795     0.576  41.91   0
       156    323.0804    571.6307 300.0978931 +22.6506901     9185.878     72.32517      1.567     2.96     5.139631     20.40513     998.6261        48     1.333     1.281  78.69   0
       157    445.5029    568.7529 300.1369368 +22.6865543     9147.087     72.36201      1.514     2.82     5.401338     20.40513     1129.013        44     1.276     1.213  43.93   0
       158    850.0548    566.3162 300.2638070 +22.8070348     341.0402     72.38042      1.590     4.40     5.515839     20.40513     35.84201         6     0.843     0.654  31.96   0
       159    210.4681    566.0644 300.0646636 +22.6153341     265.1165     72.38042      1.361     5.06     5.474909     20.40513     33.11147         7     0.958     0.757  45.83   0
       160    691.9402    565.0908 300.2149019 +22.7593326     383.3987     72.41722      1.491     5.90     5.522702     20.40513     34.97231        10     1.492     0.656  -7.86   0
       161    857.2214    563.0674 300.2670976 +22.8082467     1858.102     72.30675      1.624     3.34     5.516431     20.40513     169.6636        27     1.294     1.177 -15.33   0
       162    941.9118    560.3716 300.2943960 +22.8328268     12493.65     72.30675      1.635     3.09     5.580169     20.40513      1213.34        48     1.360     1.314 -60.19   0
       163    506.1316    558.4173 300.1591741 +22.7017529     11517.69     72.32517      1.438     2.66     5.713622     20.40513     1308.314        43     1.208     1.195 -78.22   0
       164    675.6147    554.4360 300.2132735 +22.7513812     472.9991     72.32517      1.209     3.11     5.593421     20.40513     66.53316        10     0.943     0.792  13.79   0
       165    233.3457    553.7861 300.0757673 +22.6186681      1377.27     72.32517      1.678     3.73     5.451363     20.40513     129.3268        19     1.147     1.058  31.93   0
       166    480.7148    551.8046 300.1534057 +22.6922379     362.2248     72.25144      1.291     3.78     5.717232     20.40513     47.67815         7     0.875     0.589   8.18   0
       167    780.5748    546.6323 300.2485302 +22.7805724     896.3472     72.32517      1.682     4.25     5.365714     20.40513     85.25079        17     1.248     1.008  86.23   0
       168    437.8173    546.5769 300.1417453 +22.6778824     4380.223     72.28831      1.501     2.88     5.425468     20.40513     498.0512        28     1.164     1.112  33.01   0
       169    416.1199    545.0417 300.1354883 +22.6709396     1321.365     72.30675      1.429     2.82      5.29269     20.40513     153.8852        17     1.086     0.925  -4.39   0
       170    170.5736    544.4575 300.0592716 +22.5971713     685.7905     72.32517      1.657     3.39     5.555628     20.40513      74.2858        13     1.062     0.879   9.83   0
       171    857.7015    542.2457 300.2740095 +22.8024051     1584.407     72.34359      1.627     3.49     5.464431     20.40513     152.4344        23     1.349     1.087 -21.28   0
       172    103.4033    542.3873 300.0390569 +22.5764373       341.05     72.15918      1.384     3.40     5.662975     20.40513     31.95019         5     1.119     0.298 -20.90   0
       173    554.4395    534.1602 300.1820988 +22.7092579     206647.5     72.39882      1.475     2.73     5.736029     20.40513     22406.67       200     1.527     1.438 -16.48   0
       174    738.1570    539.2165 300.2377124 +22.7657387     855.0126     72.34359      1.423     3.37     5.318287     20.40513     93.79441        13     1.060     0.784  44.50   0
       175    831.2098    538.0247 300.2671169 +22.7932600     273.8866     72.32517      1.172     3.05     5.423296     20.40513     40.43165         5     0.798     0.484  32.43   0
       176    942.1932    536.1891 300.3023373 +22.8259583      115.669      72.1961      1.255     3.37     5.556728     20.40513     33.12164         5     0.746     0.675 -34.90   0
       177    240.4868    533.9962 300.0844149 +22.6151277      3640.44     72.25144      1.611     3.12     5.463679     20.40513     401.0867        31     1.288     1.197 -28.68   0
       178    806.5378    530.6281 300.2618240 +22.7837467     568.0894     72.32517      1.497     3.14     5.388548     20.40513       61.836         8     0.825     0.717  16.81   0
       179    445.1425    514.4219 300.1544671 +22.6708421     2802.159     72.32517      1.479     2.65     5.524197     20.40513     288.7849        25     1.092     1.071  80.48   2
       180    289.0724    516.9965 300.1050510 +22.6248104     380.8555     72.26988      1.489     4.31      5.29269     20.40513     52.78826         9     0.971     0.909  -9.84   0
       181    894.3759    514.8110 300.2943594 +22.8054976     242.8188     72.32517      1.376     2.94     5.494681     20.40513     32.95897         5     0.733     0.446 -71.12   0
       182    856.4693    510.8504 300.2838200 +22.7930109     303.5251     72.32517      1.721     4.67     5.442197     20.40513     32.84583         6     0.942     0.658  -7.02   0
       183    378.1456    540.5633 300.1251207 +22.6582734     394.4798     72.34359      1.479     3.17      5.29656     20.40513     54.65824         7     0.982     0.492 -48.51   0
       184    762.1979    503.6877 300.2567449 +22.7627264     481.5652     72.25144      1.641     3.15      5.34197     20.40513     49.53595         6     0.725     0.635  55.18   0
       185    842.0560    500.8126 300.2825833 +22.7858101     1631.775     72.32517      1.479     2.96     5.421844     20.40513     184.2068        21     1.167     0.971  59.70   0
       186    713.2621    498.3339 300.2432262 +22.7465340     2573.606     72.36201      1.466     2.69     5.376503     20.40513     301.7926        26     1.155     1.069  61.38   0
       187     73.1558    498.4852 300.0439070 +22.5547679     343.3743     72.30675      1.398     2.74     5.836257     20.40513     44.36619         5     0.733     0.450  22.07   0
       188    956.6984    492.0837 300.3211855 +22.8176179     1106.556     72.49078      2.599     3.62       5.5016     20.40513      81.3511        12     1.109     0.817  39.03   2
       189    618.2579    495.1640 300.2146445 +22.7171705     476.2712     72.32517      1.509     4.25     5.795113     20.40513     50.83688         9     0.907     0.883 -79.03   0
       190    842.4634    491.0351 300.2858850 +22.7831212     2222.914     72.32517      1.706     3.38     5.417205     20.40513     230.7733        31     1.577     1.089  71.83   0
       191    500.6782    494.2537 300.1783099 +22.6816878     789.1313     72.36201      1.489     2.92     5.728944     20.40513     88.08133        10     0.895     0.793  12.36   0
       192    970.4979    492.4317 300.3253791 +22.8218482       1322.8     72.30675      1.619     3.29     5.498328     20.40513     137.7481        23     1.190     1.135   9.74   0
       193    595.5962    489.1582 300.2095330 +22.7086571     857.1449     72.34359      1.839     2.86      5.83728     20.40513      82.0587        10     0.877     0.768  28.52   0
       194    880.5161    486.0128 300.2993859 +22.7930688      4446.62     72.26988      1.528     3.05     5.450616     20.40513     420.7147        33     1.258     1.161 -81.83   0
       195    434.3488    487.8057 300.1597477 +22.6599630     444.9257     72.30675      1.363     2.66     5.510702     20.40513     53.73247         8     0.838     0.651 -70.13   0
       196    381.8630    488.7667 300.1430954 +22.6445123     326.4142     72.32517      1.363     3.93     5.355538     20.40513     43.57248         6     0.752     0.621  -6.39   0
       197    540.7900    482.1505 300.1947334 +22.6902270     465.4733     72.34359      1.562     3.81     5.743649     20.40513     46.40462         8     0.958     0.631  20.77   0
       198    972.3501    476.6069 300.3310950 +22.8178518     731.9661     72.32517      1.547     2.86     5.477377     20.40513     100.7282        13     1.074     0.813  27.06   0
       199    112.5577    475.6760 300.0635615 +22.5600349     1060.072     72.30675      1.748     3.93      5.62258     20.40513     101.1762        17     1.162     1.147 -12.00   0
       200    773.7612    469.9452 300.2713056 +22.7564896     304.8862     72.32517      1.442     3.87      5.36694     20.40513     36.64288         5     0.821     0.523 -30.94   0
       201    160.3812    468.2810 300.0808332 +22.5722490     101.8297     72.30675      0.991     3.47      5.55851     20.40513     33.12587         5     0.783     0.445  72.45   0
       202    105.5731    466.0685 300.0645085 +22.5551831     424.7774     72.30675      1.624     3.08     5.641607     20.40513     46.42369         7     0.850     0.642  22.62   0
       203    968.6047    465.4629 300.3335441 +22.8135260     340.5725     72.30675      1.649     4.41     5.437761     20.40513     37.73803         5     0.983     0.562  45.24   0
       204    712.8445    460.2955 300.2554453 +22.7354762     501.3667     72.34359      1.442     2.94     5.381482     20.40513     64.91698         8     0.827     0.698  55.30   0
       205    601.6222    457.9628 300.2215380 +22.7014981     341.0511     72.34359      1.402     5.29     5.836306     20.40513     37.97593         6     1.188     0.664  49.73   0
       206    653.9868    456.5667 300.2383095 +22.7167794     738.7492     72.30675      1.385     2.95     5.551744     20.40513     91.96482        11     0.917     0.785  47.98   0
       207    968.1876    449.4698 300.3386059 +22.8088017     424.2469     72.32517      1.288     2.94     5.386894     20.40513     67.11511         6     0.784     0.491   8.30   0
       208    714.7917    448.6767 300.2598240 +22.7327196     901.4865     72.28831      1.398     3.20      5.39188     20.40513     94.34801        15     1.091     0.864  -9.85   0
       209    872.2484    445.0611 300.3101014 +22.7788193     911.3255     72.38042      1.373     3.06     5.489748     20.40513     120.9846        14     1.110     0.797  27.18   0
       210    856.0579    441.1434 300.3063225 +22.7728465     615.7144     72.39882      1.582     4.16     5.477925     20.40513     79.05821        15     1.277     0.880  49.30   0
       211    836.7227    441.5444 300.3001611 +22.7671740     343.7883     72.36201      1.264     3.59     5.453916     20.40513     41.62791         9     0.903     0.761  25.25   0
       212    960.6821    438.5112 300.3398208 +22.8034039     565.4153     72.43562      1.780     5.35     5.389808     20.40513     44.79451        10     1.205     0.750 -54.97   0
       213    600.5220    439.0565 300.2273322 +22.6957356     3363.929     72.36201      1.407     2.62     5.812499     20.40513     377.2869        28     1.129     1.085 -89.07   0
       214     77.4017    429.9209 300.0674827 +22.5363614     344.6277       72.233      1.565     4.99     5.838947     20.40513     29.59975         7     0.881     0.800  46.17   0
       215    796.0351    427.7531 300.2919478 +22.7510287     7276.946     72.34359      0.573     0.90     5.421059     20.40513     4275.374         9     0.477     0.439 -81.58   0
       216    372.4022    426.4655 300.1603737 +22.6237835     372.1412     72.34359      1.792     4.85     5.307854     20.40513     34.11742         6     0.993     0.672 -68.69   0
       217    440.6629    426.3319 300.1816687 +22.6441960      493.502     72.38042      1.641     3.60     5.387739     20.40513     46.32718         9     0.998     0.609  -7.03   0
       218    987.8172    425.3528 300.3525610 +22.8077398     372.2489     72.36201      1.397     1.91     5.170793     20.40513     46.02649         5     0.697     0.434 -21.45   0
       219   1011.9026    418.4077 300.3623332 +22.8129494     1266.368      72.1961      1.527     2.92     4.945802     20.40513     153.4322        19     1.168     1.018 -25.26   0
       220    970.2431    417.1628 300.3497343 +22.8001252     1142.018     72.39882      1.585     4.02     5.265608     20.40513     108.9888        15     1.156     0.910   9.07   0
       221    883.9037    418.3810 300.3223978 +22.7746361     483.3788       72.233      1.408     3.64     5.540781     20.40513     56.22202         7     0.860     0.586  32.81   0
       222    620.2225    415.3402 300.2411688 +22.6948197     312.7423     72.30675      1.411     4.33     5.721516     20.40513     40.22053         6     0.778     0.685 -50.07   0
       223    711.0275    412.9872 300.2702349 +22.7213337     1127.266     72.32517      1.422     3.18     5.427534     20.40513     128.7956        20     1.182     0.976 -38.62   0
       224    506.6319    413.6620 300.2063250 +22.6603173     467.3524     72.34359      1.358     3.22     5.561075     20.40513     58.40226         9     0.995     0.603   3.40   0
       225    215.1323    411.1192 300.1164155 +22.5722483     738.6268     72.43562      1.474     3.66     5.670927     20.40513      76.3491        12     1.045     0.813 -15.10   0
       226    277.4848    406.7950 300.1372175 +22.5896926     3778.355     72.25144      1.525     2.73     5.396617     20.40513     465.8896        32     1.236     1.154  57.86   0
       227     54.5021    409.6090 300.0669559 +22.5236657      255.104     72.21455      1.275     3.93      5.93611     20.40513     36.32228         5     1.035     0.428  14.43   0
       228   1010.6442    405.6368 300.3660855 +22.8088993     4504.917     72.38042      1.670     3.13      4.94806     20.40513     447.2592        34     1.323     1.210 -87.17   0
       229    224.6350    401.4750 300.1225014 +22.5723269     7697.785     72.30675      1.615     3.00     5.669555     20.40513     899.2059        43     1.376     1.212  49.99   0
       230    990.6533    396.6882 300.3627500 +22.8003436     1821.376     72.34359      1.573     3.05     5.100736     20.40513     183.2783        27     1.235     1.158  34.25   0
       231    365.4498    395.8640 300.1681410 +22.6129104     4981.129     72.38042      1.502     2.65     5.296388     20.40513     639.9747        32     1.203     1.143  34.49   0
       232    609.7147    392.6381 300.2452623 +22.6851484     18353.01     72.30675      1.434     2.53      5.63445     20.40513      2510.31        54     1.287     1.181  70.79   0
       233    627.2643    392.4198 300.2508020 +22.6903409     824.0836     72.30675      1.944     6.24     5.569788     20.40513     57.28761        16     1.531     0.871 -43.61   0
       234    457.3157    394.7052 300.1971185 +22.6400984     312.1991     72.50916      1.332     3.38     5.341792     20.40513     42.06318         6     0.726     0.651  31.56   0
       235    236.8773    390.4914 300.1298742 +22.5728416     247.1446      72.4724      1.194     4.26     5.584702     20.40513     32.05707         6     1.044     0.496   3.89   0
       236    852.9785    389.1909 300.3222242 +22.7569860     213.1335     72.32517      1.360     2.54      5.47304     20.40513     39.62338         5     0.772     0.484  55.78   0
       237    806.9520    383.5240 300.3097073 +22.7415800     226.2975     72.32517      1.148     2.86     5.434378     20.40513     43.84869         6     0.771     0.499   2.05   0
       238    229.7148    379.2410 300.1312967 +22.5674643     219.2777     72.28831      1.447     4.81     5.594833     20.40513     43.52573         6     1.380     0.684   3.91   0
       239    943.5867    375.1652 300.3550458 +22.7800689      795.572     72.30675      1.590     6.29     5.436573     20.40513     85.48682        19     1.631     1.015 -63.78   0
       240    652.6868    373.9930 300.2647047 +22.6926568     198.3797       72.233      1.206     3.94     5.436535     20.40513      35.9053         6     0.885     0.565  -0.27   0
       241    480.0518    374.4568 300.2107698 +22.6410909     332.0624     72.38042      1.291     2.28     5.301891     20.40513     50.08423         6     0.791     0.689   7.18   0
       242    164.3385    372.4952 300.1131504 +22.5459344     2027.304     72.41722      1.650     2.91     5.470212     20.40513     245.6538        27     1.265     1.165  43.29   0
       243    550.3812    362.1359 300.2366741 +22.6586138     6629.432     72.28831      1.402     2.57     5.408332     20.40513     714.1199        35     1.238     1.072  64.05   0
       244    964.0278    362.8159 300.3654325 +22.7826334     1270.643     72.34359      1.460     2.60     5.287893     20.40513     170.3221        18     1.154     0.932 -89.72   0
       245    265.0181    361.2530 300.1481169 +22.5728773      671.733     72.30675      1.551     3.58     5.421881     20.40513     69.99088        13     1.158     0.773  -9.10   0
       246    810.1005    354.0201 300.3202635 +22.7340386     139.6901     72.25144      1.227     3.67     5.430009     20.40513     43.49569         5     0.679     0.570  -0.85   0
       247    754.4210    351.3335 300.3037720 +22.7165998     1172.581     72.30675      1.574     3.70     5.426518     20.40513     109.8055        19     1.285     0.928 -85.88   0
       248    123.0273    354.4756 300.1061504 +22.5283788     411.0429     72.30675      1.585     3.29     5.503464     20.40513     58.41614         6     0.841     0.605  40.55   0
       249    664.2111    352.6547 300.2752207 +22.6899734     447.4496     72.32517      1.208     2.56     5.387465     20.40513     73.24913         9     0.836     0.718   1.30   0
       250    457.0067    348.2919 300.2120831 +22.6266702     6290.738       72.233      1.432     2.69      5.21911     20.40513      729.723        39     1.276     1.147  69.05   0
       251    848.9695    342.8096 300.3360247 +22.7424480     1349.199     72.32517      1.423     2.72     5.428679     20.40513     190.1065        20     1.126     0.975 -68.91   0
       252    946.2994    343.1446 300.3662831 +22.7716703     542.2971     72.41722      1.377     3.07     5.416247     20.40513     62.72776        11     0.961     0.757 -15.77   0
       253    441.9912    337.1288 300.2110293 +22.6189651      500.067     72.30675      1.359     2.22     5.218824     20.40513     73.39265         8     0.795     0.619 -33.92   0
       254    524.3240    335.3313 300.2372541 +22.6431070      377.281     72.39882      1.284     3.06     5.297297     20.40513     59.16698         7     0.965     0.454  -8.35   0
       255    504.8307    333.1017 300.2319057 +22.6366285     269.5853     72.26988      1.257     3.41      5.26179     20.40513     38.20381         6     0.752     0.567 -33.02   0
       256    821.9700    330.3155 300.3316570 +22.7307744     562.2172     72.32517      1.351     2.79      5.42018     20.40513     82.57088         9     0.806     0.767 -33.99   0
       257    325.9854    329.9782 300.1772360 +22.5821606     283.7173     72.32517      1.385     2.92     5.326073     20.40513     35.13636         5     0.632     0.587 -89.67   0
       258    103.1345    329.8451 300.1079560 +22.5153445     266.5593     72.32517      1.253     4.53     5.594868     20.40513     33.72958         6     0.930     0.626  20.14   0
       259    344.5443    327.4937 300.1838183 +22.5870068     2559.886     72.38042      1.448     2.47     5.308037     20.40513     345.4243        23     1.135     1.023  45.61   0
       260     62.8683    324.5822 300.0971447 +22.5017644     1027.808     72.32517      1.710     3.66     5.452619     20.40513     119.1756        20     1.228     1.098  -7.40   0
       261    692.2986    322.5551 300.2937418 +22.6897291     312.2881     72.34359      1.201     3.98      5.39549     20.40513     36.46318         6     1.005     0.588  57.48   0
       262    313.8716    316.8658 300.1777199 +22.5747647     30210.93     72.36201      1.516     2.89      5.35042     20.40513     3487.924        70     1.378     1.289  62.11   0
       263    848.4497    314.5894 300.3450187 +22.7341764     1448.384     72.34359      1.458     2.70     5.423617     20.40513     185.0992        20     1.142     0.988  64.41   0
       264    804.3281    312.1979 300.3320328 +22.7202841     331.9217     72.26988      1.622     4.29      5.40521     20.40513     29.58007         6     0.768     0.682 -31.74   0
       265     10.1510    304.5230 300.0872655 +22.4802037     4866.153     72.32517      1.775     3.33     5.165626     20.40513     551.7085        42     1.430     1.373  74.72   0
       266    763.7810    303.5601 300.3221906 +22.7056645     528.0176     72.34359      1.383     3.18     5.398622     20.40513       76.976         8     0.923     0.627  31.53   0
       267    888.3936    302.9537 300.3612547 +22.7427827     341.4802     72.34359      1.683     3.41     5.462911     20.40513     40.16883         5     1.255     0.268 -35.46   0
       268    187.5848    303.1858 300.1428667 +22.5329974     434.6284     72.26988      1.698     5.70     5.434161     20.40513     44.81799         9     1.213     0.845  23.62   0
       269    412.0804    302.0486 300.2130969 +22.5999263     532.9673     72.36201      1.465     3.69     5.224669     20.40513     64.04018         9     1.032     0.668  70.31   0
       270    724.4396    296.7386 300.3121371 +22.6919275     2040.744     72.32517      1.539     2.60     5.393316     20.40513     236.4314        27     1.269     1.040 -57.19   0
       271    531.4122    291.7645 300.2535959 +22.6327083     959.3088     72.30675      0.842     3.72     5.275002     20.40513     413.5406         7     0.801     0.498  -5.43   0
       272    939.5352    289.8040 300.3814781 +22.7543021     437.8925     72.32517      1.215     3.01     5.488709     20.40513     74.74253        10     0.899     0.794  20.66   0
       273    793.2234    283.3619 300.3379243 +22.7086679      155.063     72.34359      0.995     3.45     5.389706     20.40513     30.04603         5     0.765     0.450  15.75   0
       274    386.1555    281.2667 300.2117669 +22.5861898     2226.334     72.30675      1.603     3.51     5.260176     20.40513     233.2222        22     1.283     0.975  58.02   0
       275    598.3083    280.0002 300.2782538 +22.6493564     341.0432      72.1961      1.261     3.99     5.376105     20.40513     51.66318         6     1.038     0.438  81.03   0
       276    825.3855    274.4394 300.3508495 +22.7157266     547.8059     72.34359      1.214     3.06     5.407376     20.40513     69.07614        11     0.901     0.859  20.64   0
       277    724.3336    272.4513 300.3199825 +22.6849119      287.675     72.34359      1.492     3.67     5.392223     20.40513     39.35683         5     0.926     0.497   2.33   0
       278    707.6741    271.7130 300.3150282 +22.6797132      340.468      72.4724      1.301     4.39     5.392223     20.40513     55.40084         9     1.199     0.633  81.24   0
       279    675.7274    270.9652 300.3053122 +22.6699355      410.699     72.32517      1.656     4.24     5.392378     20.40513     55.39227         5     1.152     0.445 -89.52   0
       280    461.9737    260.7868 300.2420167 +22.6030115     1135.717     72.32517      1.429     2.83     5.227855     20.40513     157.6987        15     1.010     0.853  22.88   0
       281    973.5128    257.1820 300.4026640 +22.7550818     319.6457     72.26988      1.346     3.52     5.380063     20.40513      37.9584         7     0.986     0.584 -12.85   0
       282    706.9172    252.6045 300.3209903 +22.6739920     2192.638     72.25144      1.505     2.86     5.395166     20.40513     267.8643        23     1.129     1.037  79.05   0
       283    968.1509    247.0818 300.4042666 +22.7505717     3312.823     72.34359      1.575     3.06     5.391203     20.40513     393.4608        29     1.345     1.148 -89.13   0
       284    415.2600    236.2707 300.2354220 +22.5819764     619.1599     72.36201      1.364     3.36     5.221383     20.40513     73.62907        12     0.995     0.857 -28.77   0
       285     90.1406    230.1041 300.1362667 +22.4828090     1469.777     72.39882      1.948     4.23     5.922064     20.40513     127.0104        27     1.509     1.244 -78.79   0
       286    120.6195    230.7417 300.1455368 +22.4921253     588.0633     72.30675      1.460     3.08     5.838456     20.40513     64.04733        11     0.935     0.800 -20.93   0
       287    983.9250    227.7706 300.4154532 +22.7497337     467.6424     72.34359      1.530     3.44      5.35144     20.40513     57.59661         7     0.918     0.700 -81.84   0
       288    827.5410    224.3780 300.3677589 +22.7019722      380.488     72.32517      1.583     5.65     5.421324     20.40513     39.65719         9     1.111     0.809 -65.07   0
       289    174.3258    222.5442 300.1648972 +22.5058627     540.8338     72.36201      1.696     2.90     5.680706     20.40513     61.51456         6     0.816     0.535 -38.58   0
       290    849.9432    216.5323 300.3772912 +22.7064182     271.0766     72.34359      1.429     4.70     5.459763     20.40513     33.70821         8     1.009     0.620 -42.64   0
       291    368.7811    213.8442 300.2282248 +22.5616120     571.4012     72.34359      1.764     4.95     5.355944     20.40513     45.51058        10     1.081     0.817 -86.87   0
       292    778.3392    214.2202 300.3557081 +22.6843277     674.5835     72.26988      1.208     2.59     5.408885     20.40513     98.17735         9     0.879     0.646   5.86   0
       293     52.5630    205.9884 300.1324042 +22.4646228     295.6424     72.30675      1.405     4.78     5.970931     20.40513     33.70324         7     1.263     0.513  28.17   0
       294    876.7254    203.1462 300.3899872 +22.7105801     1994.024     72.34359      1.526     2.90     5.508762     20.40513     245.4045        23     1.173     1.082 -85.61   0
       295    295.2191    200.2398 300.2097406 +22.5356705     2261.499     72.34359      1.642     2.72     5.603892     20.40513     227.1079        27     1.271     1.102 -72.38   0
       296    373.1508    195.3324 300.2355877 +22.5576007     1108.959     72.32517      1.555     3.80      5.47278     20.40513     120.8459        16     1.142     0.894  75.75   0
       297    124.7702    195.9296 300.1581156 +22.4833704     435.9512     72.32517      1.779     4.52     5.900686     20.40513     44.88361         5     0.981     0.606 -22.63   0
       298    774.9428    194.9341 300.3609031 +22.6777641     625.7488     72.36201      1.376     3.24     5.437578     20.40513     71.59044        11     0.926     0.803  15.78   0
       299    420.4444    193.1314 300.2510253 +22.5711307      420.618     72.28831      1.934     5.58     5.236992     20.40513     38.10452         7     1.648     0.533 -73.11   0
       300    882.5559    192.1239 300.3953805 +22.7091533     399.5846     72.30675      1.490     2.43     5.532616     20.40513     68.89314         5     0.710     0.688 -42.76   0
       301    189.7542    187.1979 300.1811571 +22.5003314      816.459     72.32517      1.806     5.13     5.828976     20.40513     96.44836        15     1.416     0.928  35.75   0
       302    727.7910    184.5245 300.3495761 +22.6606601     1583.854     72.30675      1.435     2.68     5.466372     20.40513     223.8897        22     1.120     1.089  63.21   0
       303    792.4968    184.1108 300.3698869 +22.6799034     610.0881     72.50916      1.459     3.58     5.442889     20.40513     66.63074        10     1.044     0.739  50.40   0
       304    211.0701    180.4832 300.1899647 +22.5047880     687.1474     72.43562      1.631     3.49     5.867968     20.40513     65.64819        11     1.072     0.917  73.03   0
       305    999.2556    177.2714 300.4366146 +22.7397870     756.1476     72.34359      1.353     3.06     5.311277     20.40513     92.43302        11     0.979     0.722   8.60   0
       306    732.0275    176.0613 300.3536411 +22.6594938     720.1267     72.32517      1.444     3.08     5.486629     20.40513     82.04165        12     1.039     0.803 -69.48   0
       307    501.3647    177.2360 300.2813792 +22.5907904      321.256     72.39882      1.287     3.02     5.319401     20.40513     56.00663         9     0.974     0.664   8.62   0
       308    652.3411    175.2560 300.3290615 +22.6354144     1233.333     72.39882      1.368     2.66       5.4273     20.40513      140.228        18     1.086     0.930 -88.63   0
       309    473.2713    171.9921 300.2743296 +22.5808720     365.8667     72.30675      1.441     3.87     5.296141     20.40513     40.95395         6     0.912     0.498   0.21   0
       310    847.7892    166.9318 300.3927030 +22.6915043     1422.948     72.32517      1.418     2.83     5.552316     20.40513     186.7791        19     1.073     0.955  30.07   0
       311    860.0130    165.9740 300.3968268 +22.6948857     770.9873     72.32517      1.541     3.95     5.578769     20.40513     79.54479        15     1.191     0.915 -29.40   0
       312    578.6680    167.1102 300.3087441 +22.6110207     908.2405      72.4724      1.310     2.75     5.429019     20.40513     126.8039        12     0.956     0.748 -29.17   0
       313    870.5966    162.9948 300.4010944 +22.6971947     242.7187     72.14072      1.892     4.28     5.595504     20.40513     22.25925         5     1.579     0.331 -61.98   0
       314   1020.7079    156.5283 300.4500369 +22.7402328     1709.387      69.9274      1.790     3.76     5.261166     20.40513     153.1901        27     1.527     1.181  88.80  24
       315    976.6937    156.3802 300.4363461 +22.7270269     1090.798     72.25144      1.489     2.79     5.441477     20.40513     138.0895        19     1.172     0.992 -42.84   0
       316    210.6056    149.0540 300.2000095 +22.4956191     773.0314     72.32517      1.577     4.39     6.038066     20.40513     84.09244        14     1.172     0.915 -60.74   0
       317     72.5045    143.7533 300.1587804 +22.4527241     2183.181     72.34359      1.700     3.13     5.964729     20.40513     263.4586        32     1.357     1.256  65.39   0
       318    895.5833    141.3711 300.4159007 +22.6984473     655.4037     72.32517      1.272     2.80     5.710319     20.40513     76.06602        11     0.923     0.789 -14.06   0
       319     22.3788    140.7779 300.1441629 +22.4368502     504.1858     72.32517      1.689     3.78     5.957393     20.40513      51.5206         8     0.977     0.800 -32.06   0
       320    229.8309    137.0652 300.2098768 +22.4979331     5732.282     72.32517      1.596     3.04      6.05187     20.40513     529.3953        38     1.332     1.240  64.66   0
       321    212.1436    138.4170 300.2039362 +22.4930236     353.7967     72.28831      1.420     4.15     6.048991     20.40513      41.3195         6     0.779     0.630 -36.80   0
       322     14.0564    131.3865 300.1446203 +22.4316593      1304.56     72.30675      1.678     3.57      5.94503     20.40513      149.706        23     1.265     1.190 -42.89   0
       323    213.1783    128.1756 300.2075779 +22.4903910     649.5931     72.28831      1.751     3.54     6.058474     20.40513     61.55285        12     1.098     0.808 -32.50   0
       324    874.0366    118.9882 300.4164345 +22.6855615     3524.104     72.30675      1.485     2.96     5.840323     20.40513     400.6766        31     1.265     1.127  86.18   0
       325    977.6858    117.7448 300.4491811 +22.7162042     2871.431     72.38042      1.631     3.13     5.757321     20.40513     276.7731        29     1.329     1.118  82.38   0
       326    423.3578    114.3701 300.2774664 +22.5493636     845.4992     72.36201      1.835     3.45      5.25644     20.40513     87.79159        13     1.095     0.835  50.67   0
       327    176.7355    114.8000 300.2005775 +22.4756321     243.9343     72.34359      1.374     5.31     6.051427     20.40513     35.02973         7     1.217     0.654 -10.60   0
       328    537.6396    111.8862 300.3138643 +22.5828608     359.6206     72.30675      1.729     3.43     5.397636     20.40513      29.1579         5     0.789     0.431  71.28   0
       329    347.8271    105.6700 300.2567723 +22.5242479     808.8248     72.32517      2.428     4.47     5.437426     20.40513     54.33017         9     1.010     0.722 -81.81   0
       330    474.7957    101.2319 300.2977429 +22.5609857     1761.644     72.30675      1.402     2.76      5.30849     20.40513     210.2632        22     1.105     1.061 -66.39   0
       331    403.0840    101.6979 300.2752615 +22.5396510     454.0916     72.49078      1.285     2.43     5.274596     20.40513     65.04649         7     0.782     0.598  12.81   0
       332    536.3163    100.6206 300.3171036 +22.5792253     545.2825     72.26988      1.697     3.38     5.397897     20.40513     52.28186         5     0.751     0.440 -19.59   0
       333    218.4924     96.4942 300.2194998 +22.4828793     546.1462     72.49078      2.038     6.00     6.081048     20.40513     51.78893         8     1.222     0.834  60.24   0
       334    763.2158     91.5065 300.3907771 +22.6445025     379.2762     72.25144      1.289     2.89     5.972734     20.40513     48.77012         6     0.694     0.651  47.52   0
       335    113.9430    102.7918 300.1849416 +22.4533724     691.3263     72.30675      1.699     3.47     5.970629     20.40513     78.93834        12     1.031     0.836  21.50   0
       336    248.8907     80.9251 300.2340031 +22.4875093     6019.949     72.49078      1.591     3.07     5.970176     20.40513     592.2606        41     1.378     1.241  71.05   0
       337    755.2473     81.9723 300.3913825 +22.6393756     318.9065     72.34359      1.439     4.93     5.975741     20.40513     47.08094         7     1.152     0.732  -0.20   0
       338    100.3074     80.5574 300.1879078 +22.4429001     653.1895     72.34359      1.782     3.10     5.764734     20.40513     71.28484         9     1.019     0.629 -20.84   0
       339    878.3193     79.1523 300.4306830 +22.6753792     264.5764     72.34359      1.331     2.26     5.977277     20.40513     42.98488         5     0.726     0.430  72.00   0
       340    264.4710     72.7469 300.2415012 +22.4898248     335.7413     72.30675      1.321     2.81     5.910194     20.40513     48.67321         6     0.692     0.632 -18.59   0
       341     10.5670     71.8378 300.1628356 +22.4135104     439.4777     72.36201      1.278     3.66     5.575158     20.40513     34.02184         5     1.064     0.362  -4.03   0
       342    890.9831     70.6519 300.4373891 +22.6767205     171.2602     72.32517      0.942     2.76     5.984929     20.40513     35.97863         5     0.854     0.475   2.34   0
       343    494.9578     66.4201 300.3153051 +22.5570117     6163.412     72.36201      1.476     2.83     5.371838     20.40513     748.3785        33     1.290     1.085  83.49   0
       344    380.2630     66.4582 300.2795778 +22.5226882      601.328     72.38042      1.262     3.01     5.269569     20.40513     73.78036         9     0.927     0.635 -26.71   0
       345    551.8184     60.9684 300.3347844 +22.5724624     334.3615     72.30675      1.484     4.47     5.765056     20.40513     39.74277         7     1.006     0.565 -75.39   0
       346    747.5154     56.8049 300.3971282 +22.6298217     968.2705     72.25144      1.987     6.89     5.984289     20.40513     83.03229        15     1.760     0.756 -66.30   0
       347    688.4830     58.0001 300.3783363 +22.6125043     263.3708      72.1961      1.219     3.84     5.877478     20.40513     41.13568         7     0.956     0.585  30.04   0
       348    840.0336     55.5112 300.4264014 +22.6571247     470.8139     72.28831      1.471     3.57     5.981316     20.40513     51.86739        10     1.018     0.753   3.11   0
       349    188.2049     50.5518 300.2249670 +22.4606065     501.6142     72.30675      1.720     4.27     5.932052     20.40513     55.28392         8     1.115     0.567 -15.37   0
       350    623.3110     46.5755 300.3617253 +22.5897175     6232.224     72.26988      1.504     2.73      6.02554     20.40513     720.9873        39     1.358     1.114  74.85   0
       351    546.2311     49.0888 300.3368934 +22.5673739     422.5632     72.28831      1.171     2.22     5.841295     20.40513     65.70202         7     0.694     0.651  30.99   0
       352    398.1601     45.4388 300.2919612 +22.5220034     1415.777     72.39882      1.551     2.94     5.254054     20.40513     161.1113        23     1.214     1.085  56.81   0
       353    664.4123     43.9273 300.3753936 +22.6012540     902.5603     72.34359      1.511     3.95     5.940279     20.40513     88.05169        15     1.158     0.929  79.50   0
       354    734.2653     41.3606 300.3980017 +22.6214143     385.0401     72.28831      1.432     2.54     5.990248     20.40513     47.53012         5     0.800     0.619  40.85   0
       355    680.4935     39.9662 300.3816899 +22.6049259     711.6161     72.26988      1.481     3.13     5.947277     20.40513     76.11972         9     0.821     0.785  60.93   0
       356    989.8820     37.8667 300.4788776 +22.6968587      209.879     72.43562      1.324     4.81     6.064572     20.40513     35.83595         7     1.023     0.640  -2.52   0
       357    950.3174     37.9749 300.4664940 +22.6850595     496.0727     72.30675      1.583     4.72     6.062247     20.40513     50.61695         9     1.012     0.736   3.86   0
       358    146.9608     37.9021 300.2162379 +22.4446190      664.277     72.30675      1.528     3.72     5.754254     20.40513     69.69415        10     0.982     0.741  34.25   0
       359    718.9518     35.6103 300.3950907 +22.6151787     548.0768     72.34359      1.558     3.82     5.985946     20.40513     66.22256        11     1.105     0.708  76.64   0
       360    667.6278     31.5017 300.3804224 +22.5986416     2713.119     72.26988      1.544     2.67     5.992673     20.40513     342.2523        25     1.232     1.018  75.30   0
       361    308.7474     32.4193 300.2683477 +22.4914917     373.0543     72.30675      1.409     4.42     5.596187     20.40513      44.2549         7     0.977     0.569 -60.06   0
       362    682.2831     30.5030 300.3853142 +22.6027390     811.5507     72.49078      1.794     5.89     5.991269     20.40513     66.74807        17     1.818     0.718  51.81   0
       363    754.1956     23.1139 300.4101289 +22.6221264     1586.368     72.25144      1.508     3.03     5.992549     20.40513     178.5101        20     1.192     1.042 -70.63   0
       364    831.7421     18.3834 300.4358464 +22.6439602     205.7203     72.30675      1.093     3.87      5.98672     20.40513     31.74334         5     1.042     0.412 -15.69   0
       365     77.7091    945.3148 299.9001279 +22.6843090       5773.5     72.49078     30.110     6.89     25.10178     20.40513     1264.554      4713    21.984    17.440 -59.85  19
       366    296.6100   1012.2589 299.9464279 +22.7691926     1640.653     72.28831      3.944     6.83     5.935334     20.40513     91.45756        31     1.703     1.501 -19.61   0
       367     71.1230     15.6252 300.1998740 +22.4155031     664.7347     72.34359      1.901     3.65     4.970391     20.40513     61.79918        10     1.136     0.735 -13.86   0
       368    133.8855   1007.4291 299.8973870 +22.7189773     1848.582     72.32517      3.369    15.90     86.87212     20.40513     74.37909        56     3.308     2.124 -41.65  18
       369    239.5298    973.7943 299.9411835 +22.7410350     8031.958     72.28831      9.321    33.61     43.22275     20.40513     175.1685       822    11.371     5.204  66.23  18
       370    202.0821   1002.5369 299.9201854 +22.7380408     1748.489     72.43562     -2.245    27.16     83.25153     20.40513     54.46073       105     5.941     3.448 -23.36  19
       371    232.3589   1000.0054 299.9304260 +22.7464001     1503.494     72.34359      2.658    16.37     71.37784     20.40513     53.36609        45     3.585     2.078  24.76   3
       372    202.0657    985.3529 299.9257706 +22.7331083     3935.671     72.34359      7.691    23.14     66.73272     20.40513     86.80655       275     5.092     4.727  23.03   3
