#   1 NUMBER                 Running object number                                     
#   2 X_IMAGE                Object position along x                                    [pixel]
#   3 Y_IMAGE                Object position along y                                    [pixel]
#   4 ALPHA_J2000            Right ascension of barycenter (J2000)                      [deg]
#   5 DELTA_J2000            Declination of barycenter (J2000)                          [deg]
#   6 FLUX_APER              Flux vector within fixed circular aperture(s)              [count]
#   7 FLUXERR_APER           RMS error vector for aperture flux(es)                     [count]
#   8 FLUX_RADIUS            Fraction-of-light radii                                    [pixel]
#   9 FWHM_IMAGE             FWHM assuming a gaussian core                              [pixel]
#  10 BACKGROUND             Background at centroid position                            [count]
#  11 THRESHOLD              Detection threshold above background                       [count]
#  12 FLUX_MAX               Peak flux above background                                 [count]
#  13 ISOAREA_IMAGE          Isophotal area above Analysis threshold                    [pixel**2]
#  14 A_IMAGE                Profile RMS along major axis                               [pixel]
#  15 B_IMAGE                Profile RMS along minor axis                               [pixel]
#  16 THETA_IMAGE            Position angle (CCW/x)                                     [deg]
#  17 FLAGS                  Extraction flags                                          
         1    686.4744     16.1630 300.3928460 +22.6015548     813.2926     72.18313      1.643     3.08     6.373961     20.38063     90.94032        14     1.041     0.916 -37.09   0
         2    492.3387     15.3314 300.3326263 +22.5432234     899.1937     72.29353      1.396     3.10     5.881028     20.38063     98.45351        17     1.112     0.916  35.04   0
         3    395.8046     12.8587 300.3033680 +22.5136177     700.4516     72.20154      1.629     4.99     6.101976     20.38063     74.55066        14     1.194     1.055  53.62   0
         4    778.4589     12.2226 300.4228010 +22.6279378     364.3889     72.23835      1.394     3.27     6.125081     20.38063     39.45196         7     0.842     0.601   9.91   0
         5    735.6685      4.0958 300.4120913 +22.6127991     624.8049     69.19337      1.300     3.29      6.46395     20.38063     73.04398        11     0.926     0.840   1.57  16
         6    167.4401      3.2279 300.2354285 +22.4424736     3646.483     65.84679      1.632     3.28     6.155932     20.38063     400.4146        31     1.356     1.154   7.28  24
         7    705.0916   1010.8784 300.0757200 +22.8930329      1367.77      72.3854      0.495    -1.56     3.623551     20.38063     978.4106         5     0.377     0.303 -33.19   0
         8     80.7495   1010.0353 299.8816635 +22.7055028     5380.972     72.25674     21.592   119.91     74.98492     20.38063      165.169      2850    21.636    20.870 -51.54  27
         9    164.3629    976.1278 299.9186865 +22.7208747     2143.839     72.20154      5.010    17.63     62.56017     20.38063     56.12075        72     3.324     2.605 -66.90   3
        10    233.9062    972.8701 299.9413736 +22.7408083     7342.015     72.36703      8.180    31.03     48.18315     20.38063     161.9394       636     9.740     4.619  59.47  18
        11      9.7030    979.2744 299.8695889 +22.6753575     1253.751     72.36703     10.076    10.27    -8.631087     20.38063      42.1081        18     2.920     1.006  61.54  19
        12    194.7808   1002.0292 299.9197208 +22.7374309     1705.896     72.23835      3.473    17.67     84.78134     20.38063     57.47832        53     3.590     2.417 -84.63  19
        13    157.1765    998.0732 299.9093142 +22.7250114     941.9812     72.27514      2.491     8.61     82.48005     20.38063     43.97757        15     2.527     0.819  44.88   2
        14    922.6988    969.3564 300.1570849 +22.9463274     801.9941     72.23835      2.539     8.61     4.780569     20.38063      39.7114        11     1.540     1.345  47.33   2
        15    226.0788    999.6333 299.9302340 +22.7461357      726.729     72.21995      1.815     5.59     80.54976     20.38063     52.28795        12     1.111     0.791  82.38   0
        16    159.2902    965.7560 299.9204824 +22.7163780     1170.985     72.23835      4.744     7.92     53.73119     20.38063     42.02685        17     1.737     1.010 -38.08   0
        17    170.3423    990.4240 299.9158960 +22.7267689     1235.104     72.23835      5.796     8.62     74.80478     20.38063     54.14919        23     2.518     0.824  53.00   3
        18     32.7055    993.7850 299.8720174 +22.6864225     920.6964     72.16471      5.053     5.24     11.77676     20.38063     31.60504         5     1.275     0.609  23.21   1
        19    647.6754    953.4517 300.0765063 +22.8593331     6891.482     72.25674      2.058     4.46     4.398567     20.38063     349.6805        51     1.602     1.521  60.69   0
        20    542.7579    990.9854 300.0316123 +22.8386498     2254.603     72.25674      1.989     4.58      4.59418     20.38063     138.5417        34     1.461     1.427 -37.98   0
        21    528.1602    947.9510 300.0410629 +22.8219207     441.2221     72.27514      2.103     5.23      4.56434     20.38063     31.73013         7     1.300     0.594  80.86   0
        22     41.0388   1014.7636 299.8677834 +22.6949382     995.2227     72.31191     10.959    13.18     24.54851     20.38063     48.38817        29     3.424     1.412 -82.85  19
        23    556.0823    944.1605 300.0509925 +22.8292051      1552.43     72.20154      2.003     5.31     4.622745     20.38063     110.6663        29     1.603     1.269 -68.66   0
        24    160.1897    945.9394 299.9272067 +22.7109646     962.8744     72.20154      3.734     4.52     35.88163     20.38063     42.48062         5     1.235     0.470 -35.54   1
        25    157.1662    944.7900 299.9266404 +22.7097277     808.7471     72.20154      5.717     6.22     34.66574     20.38063     32.33546        10     1.565     0.694 -70.21   1
        26      7.3734   1005.9421 299.8601913 +22.6823031     2529.213     72.23835     17.624    48.93    -19.06857     20.38063     65.36536       635    13.033     5.097  85.71  26
        27    450.0520    940.4053 300.0191945 +22.7963321     939.8517     72.21995      1.899     4.93     4.629576     20.38063     64.35359        17     1.254     1.047  29.04   0
        28    380.5350    938.4735 299.9981826 +22.7749282     6499.297     72.27514      1.994     4.31      5.04772     20.38063     393.9673        46     1.545     1.501  51.09   0
        29    170.4129    998.4079 299.9133211 +22.7290797     2582.605     72.12786      6.280    22.78      82.0574     20.38063     77.24524       110     4.490     3.317  77.95  19
        30    165.7325    995.3165 299.9128712 +22.7267886     2652.719     72.34866      5.193    18.54      79.5235     20.38063     71.68675        83     4.345     2.198 -59.87   3
        31    413.7183    925.9548 300.0125825 +22.7812884       466.88     72.21995      1.747     3.96     4.970779     20.38063     37.60217         7     0.772     0.650 -81.45   0
        32    629.4468    986.5331 300.0600661 +22.8633653     9039.891     72.21995      2.158     5.33     4.382394     20.38063      435.305        53     1.666     1.582  40.72   3
        33    927.0151    917.6105 300.1752616 +22.9327551     2288.631     72.14629      2.189     5.48     4.649084     20.38063     96.12049        39     1.637     1.529  46.42   0
        34    576.7855    914.8986 300.0669576 +22.8270123     389.0663     72.14629      1.828     6.36     4.717824     20.38063     33.12202         8     1.508     0.754 -20.18   0
        35    715.7031    906.0967 300.1131081 +22.8661272     789.5192     72.42211      2.018     6.77     4.406325     20.38063     51.46249        14     1.628     0.843   9.82   0
        36    208.7341    902.3132 299.9564888 +22.7130169     907.6735     72.33029      8.641     9.59     10.85596     20.38063     32.82377        13     2.347     1.093 -20.03   0
        37    750.5134    900.4725 300.1257884 +22.8749448     1144.605     72.36703      1.936     5.30     4.391712     20.38063     72.36876        22     1.383     1.196  44.61   0
        38    634.8953    984.2071 300.0625204 +22.8643311     9487.818     72.12786      2.155     5.36     4.326397     20.38063     473.7308        53     1.689     1.585 -68.30   3
        39    772.7906    894.2397 300.1347605 +22.8798307     11437.75     72.23835      1.964     4.61     4.455409     20.38063     670.6806        52     1.534     1.489  66.61   0
        40     72.4546    952.6254 299.8977572 +22.6865523     5903.035     72.27514     29.431    27.11     25.43078     20.38063     1248.706      3599    22.559    12.745 -23.66  19
        41    195.9968    985.7328 299.9253996 +22.7331222     3895.654     72.21995      7.436    23.58     69.62422     20.38063      79.6405       257     5.344     4.251  19.26   3
        42    818.1593    894.6829 300.1487631 +22.8935532     445.2354     72.20154      1.831     5.70      4.52045     20.38063     29.44122        10     1.248     0.735   9.56   0
        43    964.2023    893.8839 300.1945806 +22.9370783     472.1924     72.16471      1.963     5.11     5.015431     20.38063     36.90339         8     1.043     0.707  69.57   0
        44    137.1237    890.6680 299.9380068 +22.6881908     1061.139     72.33029      4.522     4.55     11.88573     20.38063     30.99288         5     1.667     0.352  45.13   0
        45    209.5630    895.9524 299.9588147 +22.7114409     914.7083     72.27514      4.015     3.96      10.0845     20.38063     29.21396         5     0.909     0.494  86.98   0
        46    215.9914    983.4858 299.9323488 +22.7384776     4503.828     72.16471      8.114    26.64     65.50465     20.38063     85.24722       353     5.839     4.968 -51.22   3
        47    481.0512   1001.0345 300.0091266 +22.8230281     406.0159     72.25674      2.233     3.76      3.81633     20.38063     31.89926         5     1.037     0.392 -58.40   0
        48     84.7168    885.6188 299.9233563 +22.6710170     1324.769     72.20154      6.059     6.47     7.409265     20.38063     52.24026        20     1.570     1.174 -53.50   3
        49    477.9541    882.3135 300.0467720 +22.7880260      473.686     72.21995      1.755     6.62     5.049981     20.38063     36.31028        10     1.240     0.991  24.73   0
        50    963.9243    881.0756 300.1986587 +22.9333147     2296.063     72.33029      0.436     1.84     5.010854     20.38063     1745.499         7     0.388     0.277 -50.21   0
        51    781.3422    876.4755 300.1432030 +22.8772910     1335.566     72.29353      1.848     4.23     4.483126     20.38063     100.4048        25     1.374     1.208  35.33   0
        52    240.9704    996.8790 299.9357618 +22.7498142     1378.966     72.23835      3.320    11.57     60.72371     20.38063     45.88485        28     2.402     1.551 -77.53   3
        53    964.2595    875.5704 300.2005534 +22.9318331     523.2676     72.25674      1.996     7.57     5.009094     20.38063     38.87149        10     1.431     1.121 -13.68   0
        54    633.3503    873.8162 300.0979390 +22.8321738     361.6812     72.27514      2.203     4.46     4.809257     20.38063      32.8919         6     0.963     0.589  22.35   0
        55    819.4870    869.7165 300.1572951 +22.8867793      879.355     72.34866      2.263     7.63     4.496121     20.38063     51.31855        18     1.390     1.172 -75.67   0
        56    867.6273    861.3375 300.1750335 +22.8987956     612.5919     72.23835      2.027     5.17     4.406079     20.38063     36.57444        12     1.074     0.925 -37.14   0
        57    719.0515    860.0964 300.1291088 +22.8539198     745.3229     72.31191      1.920     6.87     4.457753     20.38063     43.49561        19     1.346     1.150 -59.04   0
        58    730.6369    857.1946 300.1336637 +22.8565583      566.196     72.27514      2.085     6.83     4.442061     20.38063     45.04245        13     1.441     1.064  68.41   0
        59    431.7791    856.2399 300.0408722 +22.7666963     4279.688     72.27514      1.853     4.03     5.093043     20.38063     310.8624        38     1.408     1.373  81.67   0
        60     74.6405    844.0565 299.9337354 +22.6560731     290.1085     72.21995      1.315     3.84     5.568893     20.38063     30.64599         5     0.884     0.479 -88.23   0
        61    157.2302    841.7059 299.9601756 +22.6801788     835.6514     72.14629      1.982     5.16     7.833837     20.38063     56.52512        17     1.355     1.073  68.79   0
        62    134.1647    838.6718 299.9539901 +22.6723884     1566.887     72.23835      2.036     4.89     6.885511     20.38063      123.405        29     1.534     1.405 -51.22   0
        63   1006.0176    828.3554 300.2289359 +22.9307717     2044.645     72.25674      2.146     5.73     5.390783     20.38063     105.3251        33     1.552     1.430  17.21   0
        64      9.9733    828.6002 299.9186615 +22.6322352     534.7151     72.20154      1.843     3.77     5.100918     20.38063     42.37941         6     1.084     0.440  74.29   0
        65    960.1609    826.7189 300.2151571 +22.9165672     2103.767     72.20154      2.007     4.71     4.898044     20.38063      117.575        33     1.485     1.386  41.72   0
        66    665.7745    827.2940 300.1231674 +22.8285322     567.1684     72.16471      2.100     6.38     4.857777     20.38063     35.20596        10     1.586     0.722 -42.71   0
        67    743.6200    820.7667 300.1495534 +22.8499855     575.9995     72.23835      1.608     3.81     4.569461     20.38063     69.16278        12     1.096     0.936 -35.64   0
        68    167.2192    820.4245 299.9701991 +22.6770704      393.795     72.25674      1.405     3.17      6.48249     20.38063     43.89617         5     0.756     0.414  25.30   0
        69    611.8472    814.4464 300.1105396 +22.8086800     4712.799     72.23835      1.742     3.67     5.098323     20.38063     351.6008        38     1.354     1.328  21.84   0
        70    101.3126    815.2253 299.9513976 +22.6558062     573.8781     72.18313      2.385     6.50     5.436296     20.38063     35.89272         9     1.282     0.925   3.28   0
        71    413.8150    811.6970 300.0497592 +22.7485241     604.6241     72.14629      1.708     5.58     5.071101     20.38063     47.54587        11     0.986     0.889  17.27   0
        72    161.9198    807.9327 299.9726113 +22.6718968     1389.393     72.34866      1.981     5.02      5.81724     20.38063     106.4622        26     1.380     1.353  24.90   0
        73    632.3606    807.2286 300.1192773 +22.8127553     753.7009     72.25674      1.712     5.22     5.069989     20.38063     62.79158        14     1.140     0.966  -3.92   0
        74    182.1782    805.1345 299.9798204 +22.6771712     361.2514     72.21995      1.382     3.19     5.558916     20.38063     53.47298         8     0.966     0.615  78.08   0
        75   1004.7340    794.6571 300.2394895 +22.9207018     1127.625     72.27514      2.006     5.18     5.291192     20.38063     68.52258        22     1.448     1.144  46.88   0
        76    787.9365    794.2736 300.1719820 +22.8556531     4383.417     72.27514      1.843     3.86     4.590209     20.38063     286.5169        38     1.391     1.343 -36.38   0
        77    504.6095    786.5202 300.0862121 +22.7685169     601.2198     72.18313      1.788     6.23     5.039809     20.38063     58.61979        12     1.277     0.853  40.24   0
        78    151.1623    784.5217 299.9768747 +22.6619532     860.1234     72.21995      1.789     4.94     5.286461     20.38063       86.344        17     1.287     1.009  21.84   0
        79    566.7410    780.0150 300.1076783 +22.7852729     445.3322     72.20154      1.587     4.77     5.051283     20.38063     50.21822        12     1.144     0.893  43.19   0
        80    300.8670    776.5657 300.0260250 +22.7045716     54001.39     72.23835      1.837     3.86     5.216302     20.38063     4583.681       100     1.583     1.535  24.71   0
        81    558.7596    775.7855 300.1065666 +22.7816660     1657.944     72.25674      1.747     3.84     5.036361     20.38063     125.9573        26     1.348     1.180 -75.73   0
        82    971.4588    775.0920 300.2354641 +22.9051133     986.9358     72.31191      1.990     6.36     4.983448     20.38063      55.8673        22     1.364     1.255   7.65   0
        83    229.4821    774.5892 300.0044596 +22.6825955     454.8517     72.20154      1.802     5.94     5.253683     20.38063     47.59983         9     1.254     0.791  10.70   0
        84    587.8275    771.7929 300.1169194 +22.7892317     860.5594     72.23835      1.738     5.97     5.061224     20.38063     63.66517        21     1.514     1.115  76.30   0
        85    598.4614    770.4358 300.1206734 +22.7920290     400.1366     72.25674      1.520     5.57     5.069139     20.38063     48.68101        11     1.160     0.753 -12.99   0
        86    704.3058    766.5570 300.1549179 +22.8226333     495.6476     72.23835      1.686     5.74     4.943076     20.38063     43.89003        11     1.169     0.971  24.85   0
        87    498.6529    764.6744 300.0914567 +22.7604588     298.6057     72.23835      1.788     5.10     5.001644     20.38063     43.31355         5     1.127     0.653 -19.40   0
        88    741.6143    756.9692 300.1696638 +22.8310574      711.197     72.23835      1.585     4.56     4.885528     20.38063     57.31294        17     1.273     0.974 -14.67   0
        89    350.6172    753.8735 300.0488805 +22.7129766     31535.04     72.23835      1.751     3.62     5.112715     20.38063     2730.712        74     1.472     1.445  48.05   0
        90    365.0356    754.4966 300.0531655 +22.7174787     1951.375     72.23835      1.754     3.75     5.087498     20.38063     167.9752        24     1.272     1.151  -1.23   0
        91    873.6696    750.0374 300.2130968 +22.8686248     2758.832     72.20154      1.803     3.78     4.610692     20.38063     181.9091        35     1.431     1.307  57.25   0
        92    361.2879    748.3481 300.0539970 +22.7145900     685.9671     72.27514      2.511     6.32     5.082736     20.38063     42.58855        11     1.206     0.935   0.16   0
        93    631.7090    745.6927 300.1390735 +22.7948864      810.302     72.40376      1.670     5.07     5.042814     20.38063     66.51263        16     1.141     1.035  -5.53   0
        94    467.8198    746.2501 300.0878426 +22.7459260     439.1581     72.21995      1.588     4.16     4.968081     20.38063     60.32587         6     1.145     0.432   1.81   0
        95    233.1277    745.8459 300.0149338 +22.6754405      809.277     72.23835      1.699     3.75     5.116333     20.38063       89.752        13     1.192     0.821   0.94   0
        96    478.7068    740.7164 300.0930308 +22.7476006     999.3867     72.42211      1.752     4.43     4.959361     20.38063      67.6866        19     1.263     1.043  49.64   0
        97     38.1155    741.2592 299.9557904 +22.6156280      464.871     72.34866      1.771     4.86     5.050186     20.38063     42.36214         9     1.020     0.756 -69.71   0
        98    880.2036    737.4693 300.2192192 +22.8669699     602.8901     72.20154      1.927     6.48     4.684737     20.38063     43.30277        11     1.308     0.902  -2.38   0
        99    381.3810    736.9196 300.0639644 +22.7173336     456.3974     72.23835      1.317     3.70     5.021009     20.38063     48.25388         7     1.033     0.470 -43.53   0
       100    424.7646    735.6061 300.0778961 +22.7299629     448.2874     72.23835      1.744     3.63     4.952311     20.38063     56.51503         8     0.904     0.809  21.25   0
       101    337.5509    736.6458 300.0504122 +22.7041136     377.4683     72.25674      1.525     3.94     5.074383     20.38063     30.54894         6     0.934     0.476   3.05   0
       102     66.7511    735.0475 299.9667089 +22.6224370     412.6315     72.27514      1.515     3.09      5.06666     20.38063     51.87404         7     0.950     0.671  14.11   0
       103    857.4067    733.0867 300.2135324 +22.8588824     548.1148     72.16471      1.825     3.41     4.662197     20.38063     53.39987         7     1.002     0.559  -1.61   0
       104    231.5294    730.4694 300.0194328 +22.6705483     548.3246     72.27514      1.469     3.07     5.053272     20.38063      57.3484         7     0.897     0.544  60.95   0
       105    554.2290    720.5714 300.1230975 +22.7644517     518.6462     72.20154      1.725     3.98     4.963013     20.38063     47.98169         7     1.045     0.750  68.58   0
       106    523.7399    718.8485 300.1141607 +22.7548191      794.075     72.29353      1.802     4.90     4.953788     20.38063     59.22119        16     1.236     1.084 -68.14   0
       107    433.3242    718.1210 300.0862422 +22.7275087     323.6125     72.34866      1.473     5.08     4.951189     20.38063     40.10654         8     0.978     0.746   3.27   0
       108    940.2100    715.3804 300.2451179 +22.8785922     4596.676     72.21995      1.850     3.94     5.060858     20.38063     322.6475        43     1.508     1.368  45.34   0
       109    545.6461    716.0115 300.1219056 +22.7605698     1407.261     72.23835      1.610     3.78     4.955221     20.38063     125.7688        22     1.255     1.031  59.45   0
       110    465.3817    715.3532 300.0971227 +22.7363235      325.131     72.27514      1.321     5.16     4.951923     20.38063     54.89185         8     1.509     0.498  42.32   0
       111    928.6307    706.8878 300.2442644 +22.8726835     1688.453     72.21995      1.796     4.18     5.092824     20.38063     117.3521        23     1.257     1.162  54.75   0
       112    308.2537    701.7245 300.0526415 +22.6853050     266.6518     72.27514      1.580     4.16     4.979486     20.38063     35.11907         5     1.093     0.485  33.26   0
       113    291.7516    700.3381 300.0479573 +22.6799590     870.5479     72.29353      1.609     3.57     4.964575     20.38063     73.45338        14     1.021     0.945  56.70   0
       114    755.0289    697.8744 300.1930482 +22.8180974     2560.359     72.25674      1.707     3.39     5.041475     20.38063     188.5933        30     1.415     1.164  10.17   0
       115    959.6785    696.8245 300.2572220 +22.8790880     1643.244     72.21995      1.807     4.50     5.137029     20.38063     120.6824        27     1.395     1.241  80.35   0
       116    140.8538    684.4800 300.0061741 +22.6301559     598.7979     72.27514      1.800     3.77       5.1409     20.38063     58.41088         8     0.948     0.851  54.40   0
       117    837.3985    683.5150 300.2233987 +22.8386433     707.1186     72.16471      1.893     5.70     5.099917     20.38063     50.57928        14     1.155     1.062  23.64   0
       118    873.4713    674.9487 300.2374332 +22.8469847     148929.2     72.23835      1.751     3.64     5.234612     20.38063     11033.58       170     1.618     1.552 -87.08   0
       119   1020.2613    676.8882 300.2826067 +22.8914955      1038.56     71.03228      1.723     5.57      5.16176     20.38063     79.85551        23     1.410     1.161  67.42  16
       120    725.9388    675.3539 300.1912959 +22.8029121     749.9932     72.25674      1.537     3.85     5.100758     20.38063     68.14994        15     1.178     0.928  73.35   0
       121    905.8773    668.0337 300.2497890 +22.8547014     455.4531     72.23835      1.561     4.76     5.262815     20.38063     39.86586         9     0.816     0.789 -50.12   0
       122    559.7244    663.6429 300.1433043 +22.7497476     1725.014     72.21995      1.599     3.36     4.988735     20.38063     169.9838        19     1.093     1.028  87.92   0
       123    740.9561    661.0108 300.2006369 +22.8032892     9415.614     72.23835      1.581     3.16     5.166247     20.38063     779.7722        43     1.325     1.262 -79.44   0
       124    222.8117    662.1799 300.0389061 +22.6483344      382.962     72.21995      1.723     5.07     4.890736     20.38063      29.5721         8     0.983     0.740  18.86   0
       125    242.4399    655.8477 300.0470684 +22.6524024     5024.589     72.27514      1.722     3.30     4.883156     20.38063     519.2397        39     1.369     1.322   8.99   0
       126    324.4107    654.0581 300.0731534 +22.6764651     1154.922     72.20154      1.579     4.13     4.921549     20.38063     111.0641        17     1.116     1.053  -5.70   0
       127    199.6949    652.1586 300.0349710 +22.6385261     418.5436     72.25674      1.641     5.14     5.008192     20.38063     59.94103         8     1.164     0.643  -7.34   0
       128    532.7709    649.6573 300.1394515 +22.7376535     688.2422     72.23835      1.623     3.40     5.023059     20.38063     78.40942        13     1.006     0.906  34.22   0
       129    524.4278    641.7803 300.1394115 +22.7328908     3373.633     72.23835      1.637     3.16     5.068734     20.38063     347.7792        34     1.282     1.221  40.57   0
       130    514.5549    635.5455 300.1383617 +22.7281414     1524.428     72.27514      1.653     3.18      5.11656     20.38063     166.3646        19     1.125     1.054 -20.98   0
       131    908.4717    633.4329 300.2618382 +22.8455317     509.1518     72.23835      1.757     5.79     5.327393     20.38063     40.81264        11     1.242     0.759 -50.54   0
       132    425.4280    632.9730 300.1114442 +22.7006916     338.4001     72.20154      1.552     3.94     5.060812     20.38063      35.5916         5     0.764     0.612  -4.25   0
       133    178.0658    631.5207 300.0349473 +22.6261167     610.5924     72.34866      1.591     4.32     5.156351     20.38063     56.67748        16     1.221     0.957 -52.83   0
       134    192.3124    629.7299 300.0399596 +22.6298748     710.3562     72.40376      1.687     3.39     5.077008     20.38063     77.85404        13     1.057     0.978  77.33   0
       135    961.3630    626.6406 300.2805477 +22.8594151      698.665     72.31191      2.115     4.96      5.29545     20.38063     52.70224        11     1.235     0.858  38.55   0
       136    248.6373    626.5328 300.0585176 +22.6458455     428.7119     72.21995      1.824     5.56     4.888198     20.38063      35.7524        11     1.204     0.934 -13.62   0
       137    217.8433    626.3159 300.0490091 +22.6365502     657.3775     72.20154      1.803     6.11     4.923956     20.38063     49.88757        16     1.231     1.053  74.40   0
       138    538.8314    625.7133 300.1491164 +22.7325918     516.1227     72.21995      1.713     4.51      5.07482     20.38063     48.06797        10     1.092     0.743 -17.74   0
       139    439.3749    625.1653 300.1183222 +22.7026295     1817.537     72.25674      1.531     3.10     5.135017     20.38063     183.4927        22     1.134     1.081  68.02   0
       140   1015.1785    622.6464 300.2986406 +22.8743775      741.567     72.27514      1.630     5.36     5.229326     20.38063      70.1286        17     1.306     1.039  65.20  16
       141     93.3295    619.9202 300.0123675 +22.5973759     19999.75     72.34866      1.875     3.72     5.290452     20.38063     1760.058        70     1.586     1.489  44.59   0
       142     14.7998    621.7424 299.9873672 +22.5743451     677.8309     72.16471      1.776     4.15     5.374578     20.38063     67.58941        12     1.197     0.978 -45.38   0
       143    524.3837    620.4337 300.1463311 +22.7267460     1133.962     72.21995      1.698     3.17     5.151035     20.38063     113.3427        20     1.292     1.003 -39.36   0
       144    559.8020    620.1684 300.1574496 +22.7372827     327.1974     72.20154      1.353     4.08     5.161257     20.38063     38.72287         8     0.918     0.647   2.20   0
       145    942.6418    606.9929 300.2810874 +22.8481611     1157.317     72.25674      1.727     4.55     5.354222     20.38063     76.24892        21     1.270     1.171  77.14   0
       146     39.3901    604.2205 300.0006995 +22.5766931     1545.289     72.21995      2.031     5.44     5.380067     20.38063     107.6044        30     1.661     1.299 -57.25   0
       147    809.1530    604.9419 300.2401128 +22.8076009     444.2857     72.29353      1.548     4.82     5.430755     20.38063      42.6517         8     1.017     0.744  75.89   0
       148    105.3434    604.7612 300.0210252 +22.5966285     450.4207     72.23835      1.970     5.11     5.320237     20.38063     32.38012         8     1.233     0.599  14.14   0
       149    487.7928    601.3766 300.1411244 +22.7103073     489.5779     72.21995      1.491     4.34     5.409268     20.38063     51.51332        10     0.993     0.789  24.94   0
       150    882.8983    599.6854 300.2648212 +22.8281727     881.4039     72.40376      2.175     3.13     5.376528     20.38063     65.41586        12     1.000     0.791  52.79   2
       151    626.9272    597.7739 300.1856359 +22.7509599     341.6796     72.23835      1.466     4.70     5.591515     20.38063      31.4694         7     1.148     0.545  57.75   0
       152    444.7935    593.4663 300.1303039 +22.6951494     718.8322     72.23835      1.442     3.14     5.339297     20.38063     101.3613        12     0.994     0.897  29.05   0
       153    592.5712    591.9917 300.1768091 +22.7390060      410.712     72.21995      1.408     4.26     5.544347     20.38063     44.39067        11     1.018     0.750  22.23   0
       154    639.6805    590.4417 300.1919912 +22.7526737     449.9172     72.21995      1.822     4.79     5.597071     20.38063      47.1827        10     1.192     0.690  54.18   0
       155    610.3230    590.3327 300.1828787 +22.7438476     550.5524     72.33029      1.515     4.02     5.671273     20.38063     55.65141         9     0.923     0.708   3.55   0
       156    488.6389    589.2379 300.1453299 +22.7070741     1065.059     72.31191      1.751     3.53     5.466432     20.38063     86.59368        15     1.075     0.951 -85.99   0
       157    922.6019    584.9620 300.2819895 +22.8358272     3352.833     72.25674      1.692     3.61     5.395918     20.38063     266.5686        34     1.376     1.241 -80.36   0
       158    454.1927    584.5920 300.1361123 +22.6954173     1749.054       72.091      1.608     3.13     5.427927     20.38063     172.6847        24     1.176     1.115  43.60   0
       159   1020.4611    582.8557 300.3132128 +22.8645164     557.5822     70.48753      1.596     5.11     5.447913     20.38063     70.67965        14     1.381     0.821 -27.81  16
       160    819.6550    582.2808 300.2507473 +22.8042321     448.0319     72.27514      1.612     3.31     5.421413     20.38063     45.74596         5     0.741     0.449 -74.57   0
       161     16.1570    578.0549 300.0019753 +22.5622165     5156.507     72.23835      1.957     3.66     5.260925     20.38063     423.5912        48     1.576     1.463  85.69   0
       162    430.5036    579.6625 300.1303373 +22.6869023     179.9906     72.33029      1.358     3.96     5.384822     20.38063     38.64474         5     0.986     0.767  89.34   0
       163    483.3156    575.2761 300.1482059 +22.7014685     224.4462     72.34866      1.482     4.43     5.566209     20.38063     36.44773         5     0.765     0.730  45.31   0
       164    317.6605    571.3276 300.0979202 +22.6506878     9289.757     72.27514      1.652     3.05     5.195804     20.38063     985.3289        43     1.360     1.255  69.00   0
       165    440.0442    568.4342 300.1369537 +22.6865364     9158.532     72.29353      1.530     2.97     5.502502     20.38063     941.7078        46     1.296     1.246  66.99   0
       166     83.9946    564.2491 300.0275429 +22.5785994     301.1587     72.21995      1.583     5.41     5.347455     20.38063     28.34937         8     1.273     0.648  59.07   0
       167    851.8857    562.6952 300.2671599 +22.8082527     1748.089     72.42211      1.569     3.42     5.388752     20.38063      160.143        27     1.318     1.149  75.36   0
       168    936.4328    560.0869 300.2943829 +22.8328154     12753.85     72.20154      1.696     3.36     5.443128     20.38063     1033.207        56     1.437     1.358 -81.57   0
       169    500.6827    558.0665 300.1592024 +22.7017287     11760.06     72.34866      1.515     2.94     5.573424     20.38063     1194.216        47     1.301     1.208  80.37   0
       170    228.0273    553.3824 300.0758599 +22.6186661     1429.647     72.23835      1.654     3.74     5.483474     20.38063      144.804        24     1.273     1.118  44.67   0
       171    670.0081    553.8575 300.2133222 +22.7512453     587.4061     72.21995      1.411     3.54     5.670533     20.38063     50.05337        10     0.897     0.754  73.78   0
       172    386.0529    553.1939 300.1250939 +22.6659789      378.385     72.20154      1.594     4.39     5.452056     20.38063     36.74096         6     0.827     0.664 -12.46   0
       173    475.3699    551.3904 300.1534873 +22.6922263     306.4886     72.23835      1.330     3.49     5.687279     20.38063     39.29012         5     1.009     0.348 -21.15   0
       174    432.3808    546.2523 300.1417700 +22.6778686     4440.236     72.21995      1.546     2.82     5.652204     20.38063     473.2527        34     1.257     1.169  66.11   0
       175    775.3383    546.4944 300.2485483 +22.7806744     805.0185     72.33029      1.426     3.17     5.518985     20.38063     78.13176        13     0.975     0.838  23.92   0
       176    410.6272    544.6776 300.1355088 +22.6708975     1345.803     72.23835      1.588     3.09     5.614758     20.38063     158.2695        18     1.096     1.013  29.00   0
       177    164.9198    543.8859 300.0593154 +22.5970198     744.0635     72.40376      1.652     3.52     5.577728     20.38063     70.96435        11     0.964     0.800  43.27   0
       178    852.1188    541.9658 300.2739635 +22.8023629     1523.926     72.20154      1.558     3.44     5.391665     20.38063     154.0083        21     1.168     1.125 -39.89   0
       179     99.0636    541.9194 300.0394771 +22.5767091     428.9734     72.34866      1.943     5.03     5.416217     20.38063     36.18764         7     1.220     0.923 -16.54   0
       180    549.0068    533.8331 300.1821219 +22.7092448     207176.3     72.23835      1.500     3.01     5.510411     20.38063     21719.26       204     1.538     1.475 -16.72   0
       181    372.5493    540.0060 300.1251724 +22.6581443     329.1519     72.21995      1.449     2.83     5.460588     20.38063     59.11504         6     1.072     0.420 -15.33   0
       182    732.5375    538.9867 300.2376416 +22.7656990     773.9907     72.21995      1.385     2.72     5.619118     20.38063       117.75        15     1.149     0.784   9.18   0
       183    235.0839    533.6439 300.0844632 +22.6151143     3515.194     72.20154      1.625     3.12     5.518614     20.38063      393.101        32     1.266     1.256 -37.31   0
       184    801.3810    530.2657 300.2619383 +22.7838075     680.4237     72.20154      2.317     5.01     5.443244     20.38063     47.88482        10     1.054     0.878 -69.76   0
       185    439.5366    514.3380 300.1543590 +22.6708455     2779.545     72.27514      1.583     2.87     5.671102     20.38063      310.468        34     1.514     1.152 -78.67   0
       186    284.2762    516.2874 300.1054019 +22.6248761     387.1556     72.36703      1.436     2.81     5.387546     20.38063     54.78347         7     0.837     0.592 -62.46   0
       187    888.9968    513.9646 300.2945584 +22.8053526     205.4987     72.23835      1.275     4.07     5.465714     20.38063       37.467         7     0.948     0.500 -43.30   0
       188    669.6734    509.3875 300.2276559 +22.7383646     272.7952     72.25674      1.289     4.15     5.814638     20.38063     35.37624         6     0.909     0.541  42.00   0
       189    757.2784    503.2280 300.2569643 +22.7628290     477.5513     72.25674      1.924     4.11     5.484465     20.38063     54.35983         9     0.973     0.755  44.72   0
       190    836.6431    500.5836 300.2825719 +22.7858317     1770.322     72.25674      1.545     2.98     5.430546     20.38063     178.7122        21     1.163     1.021 -12.07   0
       191    723.2028    500.3728 300.2472677 +22.7518044     228.0628     72.18313      1.429     4.39      5.57041     20.38063     35.55171         7     0.853     0.643 -26.45   0
       192    707.8412    498.0959 300.2432182 +22.7465497     2454.411     72.23835      1.416     2.84     5.650293     20.38063     280.1222        24     1.131     1.036  40.38   0
       193    950.8186    492.0838 300.3209507 +22.8175660     1085.695     72.18313      2.686     5.72     5.725165     20.38063     65.40139        19     1.718     0.944  70.80   2
       194    917.7991    495.0512 300.3096844 +22.8085358     263.7172     72.20154      1.373     2.82     5.596932     20.38063     48.30057         5     0.879     0.610 -61.13   0
       195    612.6705    494.9267 300.2145866 +22.7171357     489.7947     72.31191      1.567     3.56     5.904169     20.38063      67.3088        11     1.034     0.754  34.92   0
       196    965.3362    492.2772 300.3254183 +22.8219669     1231.274     72.31191      1.536     3.26     5.777513     20.38063      120.402        20     1.151     1.052  83.66   0
       197    837.0760    490.5666 300.2859587 +22.7830811     2233.535     72.23835      1.845     4.45     5.436243     20.38063     192.4771        33     1.619     1.161  77.37   0
       198    590.0795    488.8829 300.2095097 +22.7086323     660.0089     72.36703      1.563     2.96     5.821762     20.38063     75.66918        10     0.885     0.772  51.01   0
       199    376.0628    488.1736 300.1430922 +22.6443099     234.2162     72.23835      1.356     4.01     5.472759     20.38063     35.01514         5     1.010     0.538  32.97   0
       200    875.0478    485.6198 300.2994087 +22.7930263     4414.164     72.25674      1.575     3.01     5.474613     20.38063     462.3529        34     1.298     1.164 -71.87   0
       201    428.9410    487.5272 300.1597632 +22.6599688     305.9612     72.27514      1.243     3.37     5.655797     20.38063     38.23708         6     0.785     0.498  -3.04   0
       202    495.2386    493.7741 300.1783796 +22.6816270     670.5034     72.25674      1.490     3.17     5.700372     20.38063     80.97238        15     1.130     0.848  23.18   0
       203    535.7607    481.4980 300.1949853 +22.6902392     397.6748     72.23835      1.662     2.61     5.651622     20.38063     45.42921         5     0.713     0.449 -23.49   0
       204    966.7067    476.2989 300.3310328 +22.8177815     741.1577     72.42211      1.561     3.83      5.82712     20.38063     67.31539        13     1.109     0.914  -0.73   0
       205    106.9227    475.5421 300.0634667 +22.5600117     962.9576     72.27514      1.699     4.29     5.513926     20.38063      110.579        21     1.330     1.087  68.27   0
       206    768.1046    469.9790 300.2711329 +22.7565121     363.1554     72.14629      1.448     2.95      5.43022     20.38063     47.06196         7     0.834     0.670  38.16   0
       207    373.4255    469.1666 300.1484406 +22.6380599     281.3122     72.25674      1.388     4.35     5.518222     20.38063     34.68886         5     1.122     0.481  32.09   0
       208    154.9640    468.2288 300.0807780 +22.5723146     39.98471     72.25674      1.083     3.73     5.535688     20.38063     30.84592         5     0.816     0.490 -56.37   0
       209     99.8024    465.8482 300.0643992 +22.5550940     453.9995     72.23835      1.364     3.13     5.521877     20.38063     58.62423         9     0.940     0.732  48.95   0
       210    963.2417    465.6581 300.3334055 +22.8136840     304.8662     72.23835      1.175     2.36     5.807906     20.38063     44.74561         5     0.687     0.465 -10.53   0
       211    848.0396    462.5320 300.2984783 +22.7783022     1671.642     72.20154      0.940     3.48     5.414475     20.38063     426.0069         7     0.821     0.426  21.69   0
       212    707.5776    459.9713 300.2555112 +22.7355117     567.8071     72.23835      1.750     5.68     5.613306     20.38063     46.48304        12     1.195     0.824  -9.30   0
       213    596.2083    457.8784 300.2214828 +22.7015577     449.7708     72.20154      1.890     4.96     5.846036     20.38063     33.97791         8     1.105     0.629  -7.80   0
       214    315.7381    458.4918 300.1339514 +22.6177069     343.5462     72.33029      1.712     4.35     5.414817     20.38063     27.81443         6     1.118     0.481   7.68   0
       215    648.5260    456.0756 300.2383704 +22.7167083     746.2751     72.33029      1.380     3.23     5.849973     20.38063     92.55133        12     0.997     0.831   8.86   0
       216    963.4966    448.6597 300.3390024 +22.8088710     666.0517     72.31191      1.858     4.44     5.801561     20.38063     65.36583        12     1.236     0.883 -16.06   0
       217    709.2282    448.3335 300.2598030 +22.7326604     826.3785     72.21995      1.509     3.57     5.588706     20.38063     81.57964        16     1.173     0.956  38.05   0
       218    866.2375    444.6307 300.3099650 +22.7786020     1050.724     72.25674      1.660     3.50     5.386909     20.38063     103.1958        18     1.226     0.959  72.94   0
       219    850.7320    441.0028 300.3063058 +22.7729173     606.9893     72.21995      1.446     3.32     5.378887     20.38063     70.23357        12     0.970     0.852 -11.65   0
       220    831.2872    441.0999 300.3002094 +22.7671244     201.3727     72.40376      1.240     3.38     5.383371     20.38063     40.27405         7     0.752     0.664 -79.12   0
       221    595.1196    438.7755 300.2273435 +22.6957415     3151.178     72.21995      1.440     2.70     5.834133     20.38063      394.784        27     1.165     1.064 -80.70   0
       222    955.7336    438.1641 300.3399863 +22.8035289     441.5623     72.23835      1.390     2.77     5.767054     20.38063     54.76967         8     0.794     0.672  46.61   0
       223    434.8470    425.8275 300.1816269 +22.6440123     384.0835     72.25674      1.404     3.23     5.698431     20.38063     60.82547        10     1.112     0.795  -0.80   0
       224    366.8825    425.4246 300.1605999 +22.6235340     263.6613     72.20154      1.493     4.60     5.734138     20.38063     33.81891         5     1.158     0.520  55.94   0
       225   1006.5463    418.1597 300.3623369 +22.8129803     1261.169     72.20154      1.680     3.42     5.992034     20.38063     130.0053        23     1.291     1.104 -39.29   0
       226    878.2798    417.2593 300.3226047 +22.7743348     741.8795     72.29353      1.949     6.10     5.395025     20.38063     60.96418        15     1.589     0.914  89.13   0
       227    965.0273    416.8045 300.3498186 +22.8001661     985.3698     72.20154      1.555     3.40     5.798826     20.38063     89.86473        18     1.129     0.986  -0.29   0
       228    705.6281    412.9076 300.2701776 +22.7213981     1168.479     72.20154      1.520     2.63     5.550261     20.38063     126.9079        16     1.028     0.919 -69.16   0
       229    501.2180    413.0829 300.2064303 +22.6602325     540.6317     72.18313      1.674     4.35     5.680481     20.38063     55.36853        10     1.093     0.711 -17.79   0
       230    209.5738    410.5542 300.1164783 +22.5721223     666.4473     72.25674      1.621     4.27     5.536997     20.38063     60.51653        14     1.113     0.994 -85.94   0
       231    272.0417    406.5024 300.1372260 +22.5896797     3813.639     72.23835      1.547     2.91     5.321577     20.38063     408.5768        31     1.266     1.141  75.07   0
       232   1005.2505    405.3194 300.3660994 +22.8088986     4291.255     72.25674      1.653     3.30     5.889654     20.38063      440.086        36     1.300     1.278 -72.35   0
       233    219.1366    401.1860 300.1224925 +22.5722979     7504.988     72.20154      1.567     3.14     5.530725     20.38063     778.4549        40     1.325     1.221  43.57   0
       234    723.1456    402.0203 300.2791713 +22.7235128      211.103     72.21995      1.370     3.95     5.473366     20.38063     30.80955         5     0.845     0.528 -27.86   0
       235    985.1309    396.4020 300.3627135 +22.8003129     1842.407     72.20154      1.626     3.31     5.752594     20.38063     183.1685        22     1.197     1.090  37.18   0
       236    360.0453    395.4872 300.1681861 +22.6128850     4829.043     72.21995      1.489     2.80     5.806491     20.38063     538.2827        32     1.273     1.084  66.35   0
       237    604.2509    392.3445 300.2452557 +22.6851306     18750.09     72.27514      1.467     2.65      5.86691     20.38063     2068.368        55     1.293     1.255  68.16   0
       238    622.2226    392.4482 300.2508220 +22.6905421      884.254     72.23835      2.062     6.57     5.836734     20.38063     59.22792        16     1.658     0.730 -43.34   0
       239    231.3947    390.5933 300.1297425 +22.5729293     118.6535       72.091      1.436     5.48     5.502112     20.38063     23.61342         5     1.240     0.683  44.89   0
       240    800.9571    383.0416 300.3095910 +22.7413497     385.2485     72.34866      1.470     3.74     5.361161     20.38063       41.241         7     0.896     0.517  41.64   0
       241    224.2378    379.1074 300.1312427 +22.5674856     325.5469     72.23835      1.285     5.56      5.52846     20.38063      36.0079         7     1.185     0.735  10.55   0
       242    937.5927    375.0725 300.3547994 +22.7799516     721.2339     72.20154      1.446     3.28     5.515543     20.38063     76.58549        14     1.076     0.858  57.41   0
       243    475.0677    374.3199 300.2108638 +22.6412602     368.6038     72.34866      1.302     3.05     5.766415     20.38063     43.80468         7     0.840     0.584 -29.31   0
       244    158.9827    372.2801 300.1131619 +22.5459680     2165.929     72.23835      1.645     3.23     5.515827     20.38063     221.0739        24     1.240     1.125  60.80   0
       245    958.3846    362.4554 300.3653813 +22.7825437     1212.979     72.21995      1.646     3.66     5.492854     20.38063      114.637        18     1.217     0.927  35.27   0
       246    544.9222    361.7104 300.2367115 +22.6585579     6504.305     72.36703      1.454     2.84     5.690814     20.38063     800.8035        34     1.208     1.103  76.64   0
       247    259.9944    361.2557 300.1481578 +22.5730731     562.5373     72.21995      1.461     3.89     5.374416     20.38063     67.45287        10     1.096     0.749  40.56   0
       248    804.9264    354.1501 300.3202028 +22.7342291     330.6717     72.23835      1.380     5.47      5.36073     20.38063     36.26229         7     1.183     0.713 -81.29   0
       249    117.4245    354.3248 300.1060641 +22.5283558     619.4253     72.25674      1.841     3.59     5.517612     20.38063     74.29987        13     1.174     0.915  -5.40   0
       250    749.1014    351.0863 300.3037894 +22.7166377     1138.967     72.40376      1.501     3.47     5.419083     20.38063     106.9787        19     1.201     1.007 -78.13   0
       251    658.5110    351.6501 300.2753676 +22.6896792     467.9941     72.23835      1.600     4.39     5.633094     20.38063     61.21667        11     1.157     0.823  74.35   0
       252    451.6026    348.0014 300.2120953 +22.6266685     6111.444     72.01721      1.486     2.76     5.802852     20.38063     689.9893        38     1.235     1.169  84.16   0
       253    940.9500    343.0403 300.3662397 +22.7717413     496.0374     72.25674      1.386     3.05     5.424203     20.38063     62.33422         9     0.805     0.748 -14.15   0
       254    843.6122    342.6708 300.3359924 +22.7425062     1407.983     72.25674      1.538     2.56     5.355372     20.38063     184.4656        18     1.046     0.978 -55.26   0
       255    436.1772    336.9610 300.2108738 +22.6188753     405.0019     72.27514      1.285     2.56      5.81352     20.38063     64.32025         9     0.858     0.685 -76.55   0
       256    518.9203    334.8604 300.2373227 +22.6430535     406.6135     72.29353      1.426     3.50     5.769512     20.38063     50.58118         9     1.030     0.677  77.17   0
       257    816.2930    330.1674 300.3315280 +22.7307335     569.2557     72.18313      1.469     3.34     5.352243     20.38063     62.57205        10     0.949     0.765  -6.91   0
       258    339.1693    327.1427 300.1838609 +22.5869949     2594.647     72.25674      1.510     2.86     5.806608     20.38063     261.2621        25     1.194     1.059  86.49   0
       259     57.5575    324.1787 300.0972310 +22.5017549     1107.468     72.27514      1.953     5.27     5.866895     20.38063     108.2634        20     1.506     1.168  59.89   0
       260    308.4428    316.5010 300.1777504 +22.5747322     30086.33     72.23835      1.561     2.74     5.711484     20.38063     3838.735        70     1.408     1.272  71.47   0
       261    843.1307    314.3560 300.3450275 +22.7342177     1431.593     72.20154      1.443     2.96     5.351233     20.38063      170.862        18     1.129     0.891  57.69   0
       262    798.5854    312.7469 300.3316567 +22.7204233     403.0485     72.25674      1.825     3.46     5.355061     20.38063     34.14853         5     0.753     0.459  72.55   0
       263      4.6818    304.1707 300.0872861 +22.4801603      4930.29     70.84491      1.825     3.56     5.833029     20.38063     425.2012        43     1.472     1.382  53.40  24
       264    758.4352    303.1031 300.3222650 +22.7056325     428.8962     72.23835      1.246     3.33     5.616889     20.38063     59.24784        10     0.931     0.773  23.98   0
       265    406.9225    301.9894 300.2131093 +22.6000627     499.6888     72.21995      1.506     4.40     5.851445     20.38063     49.54717        12     1.087     0.888 -76.19   0
       266    182.9558    302.3129 300.1433131 +22.5330572     514.5789     72.21995      1.717     3.33      5.84655     20.38063      57.7725         8     0.956     0.771  -0.17   0
       267    718.9490    296.4544 300.3121109 +22.6919014     2016.298     72.27514      1.496     2.95     5.732193     20.38063     241.1052        24     1.209     1.050  72.43   0
       268    527.3176    291.1093 300.2541294 +22.6329921     274.6952     72.34866      1.043     3.39     5.823442     20.38063     44.17451         7     0.736     0.666  64.86   0
       269    934.2298    289.3679 300.3815533 +22.7542888      595.465     72.23835      1.659     4.24     5.360106     20.38063     61.65339        10     1.050     0.723 -52.07   0
       270    380.7371    281.0068 300.2117629 +22.5861896     2169.862     72.18313      1.604     3.51     5.907281     20.38063     218.7198        25     1.309     1.078  75.23   0
       271    593.0825    280.0347 300.2782089 +22.6494998      350.502     72.20154      1.383     3.69     5.781632     20.38063     44.40945         7     0.882     0.616 -30.80   0
       272    820.0547    273.9541 300.3509347 +22.7156903     574.9086     72.27514      1.397     3.28      5.43304     20.38063     74.80075        13     1.032     0.897 -16.59   0
       273    702.2318    271.9517 300.3148466 +22.6798508     392.5603     72.27514      1.277     3.07     5.648221     20.38063     55.39068         8     0.819     0.665  50.17   0
       274    670.3812    270.6278 300.3053481 +22.6699361     256.4535     72.23835      1.728     3.40     5.490393     20.38063     35.44848         5     1.021     0.327  21.59   0
       275    264.0812    260.9241 300.1819714 +22.5454740     355.9214     72.34866      1.367     4.89     5.972178     20.38063      38.5498         8     0.967     0.701 -81.62   0
       276    456.4236    260.3794 300.2420164 +22.6029291     1234.314     72.23835      1.458     2.54     5.893999     20.38063     155.1289        19     1.099     0.970  19.82   0
       277     29.4339    260.7180 300.1090702 +22.4751022     359.6064     72.20154      1.366     4.91     5.713692     20.38063     35.66871         6     0.933     0.732 -53.74   0
       278    968.4008    256.3829 300.4029147 +22.7550208     320.0516     72.14629      1.527     5.73     5.411818     20.38063     50.96619         9     1.107     0.836 -82.91   0
       279    701.4375    252.3016 300.3209716 +22.6739619     2216.686     72.23835      1.510     2.61     5.591318     20.38063     257.9739        26     1.228     1.097  73.23   0
       280    962.8317    246.8336 300.4042735 +22.7506069     3291.586     72.25674      1.605     3.12     5.413799     20.38063       303.73        33     1.330     1.206  78.74   0
       281   1023.4910    242.0182 300.4247679 +22.7673662     256.3566      57.1356      1.198     3.83      5.43396     20.38063     38.10725         6     0.840     0.500 -88.48  24
       282    409.7532    236.2540 300.2353083 +22.5820181     681.5445     72.27514      1.504     3.62     5.907469     20.38063     73.39693        15     1.096     1.024 -69.91   0
       283    115.3259    230.3668 300.1456126 +22.4921259     646.4308     72.21995      1.594     4.31      5.92262     20.38063      63.6961        12     1.195     0.893 -43.88   0
       284     84.7886    230.0781 300.1362119 +22.4828921     1451.855     72.21995      1.822     4.21      5.86225     20.38063     120.7966        24     1.365     1.135 -38.06   0
       285    978.7217    227.6753 300.4154452 +22.7498469      598.628     72.34866      1.743     3.56     5.424448     20.38063     58.57389        10     1.171     0.716 -32.23   0
       286    832.5983    227.7836 300.3698196 +22.7061617     205.3832     72.12786      1.423     4.40     5.646144     20.38063     25.74433         5     1.142     0.483  32.39   0
       287    822.1060    223.7500 300.3678550 +22.7018617     413.3107     72.29353      1.756     4.21     5.717626     20.38063     33.79398         6     0.787     0.643  58.52   0
       288    168.7408    222.2443 300.1648562 +22.5057975     486.9539     72.25674      1.520     2.68     6.013324     20.38063      66.5781         7     0.916     0.650  36.99   0
       289    963.4593    219.8717 300.4132124 +22.7430357     384.7086     72.27514      1.628     5.18     5.442897     20.38063     40.13446         9     1.336     0.949  62.75   0
       290     24.2842    219.0693 300.1209736 +22.4615982     443.5022     72.34866      2.044     4.39     5.722397     20.38063      36.1915         6     1.291     0.425  17.86   0
       291    844.8240    216.6139 300.3772547 +22.7066062     431.4464     72.23835      1.429     3.45     5.558978     20.38063     46.41869         5     0.722     0.475  11.26   0
       292    773.0690    213.7152 300.3558164 +22.6843013     711.1647     72.33029      1.698     4.64     5.746241     20.38063      75.3894        15     1.374     0.852 -52.69   0
       293    363.8460    213.4623 300.2284074 +22.5617188     308.1313     72.25674      1.101     1.61     5.994433     20.38063     57.21162         5     0.628     0.470 -23.39   0
       294    863.6345    207.0090 300.3862366 +22.7094707     357.2503     72.21995      1.254     4.31      5.44635     20.38063     51.65987         7     0.850     0.623  69.06   0
       295    871.4116    202.9405 300.3899818 +22.7106268     2144.473     72.20154      1.559     3.11      5.43573     20.38063     206.9444        26     1.269     1.092  81.05   0
       296    367.6777    195.2238 300.2355132 +22.5576243     1052.614     72.23835      1.574     3.31     5.992005     20.38063     112.4836        20     1.220     0.999 -17.74   0
       297    769.7209    194.6581 300.3609512 +22.6778172      725.538     72.27514      1.503     3.51     5.575385     20.38063      70.4653        15     1.066     0.972  -6.11   0
       298    289.7862    199.9289 300.2097464 +22.5356476     2171.197     72.23835      1.519     3.18     5.997068     20.38063     226.1371        27     1.258     1.110 -86.98   0
       299    302.5898    187.6540 300.2177099 +22.5359550     352.2732     72.23835      1.622     4.98     5.992235     20.38063      33.3616         7     1.344     0.521 -67.87   0
       300    184.5214    187.0606 300.1811706 +22.5004172     742.5522     72.29353      1.535     3.70     6.017227     20.38063     79.97587        15     1.135     1.018  45.25   0
       301    787.1974    184.1860 300.3697960 +22.6800340     643.6302     72.07256      1.494     3.96     5.476468     20.38063     59.81652        13     1.156     0.822  30.95   0
       302    722.4633    184.1489 300.3496241 +22.6606523     1844.419     72.29353      1.492     3.07     5.424327     20.38063     204.2671        23     1.215     1.069  89.56   0
       303    206.0574    180.2418 300.1900796 +22.5049097      614.324     72.21995      1.685     3.55     6.022348     20.38063     61.03576         8     0.888     0.821  62.19   0
       304    993.7992    176.9487 300.4365982 +22.7397572     808.9409     72.20154      1.542     3.08     5.715161     20.38063     81.32658        17     1.068     0.984 -34.68   0
       305    726.3320    175.6868 300.3535735 +22.6593758     749.5451     72.34866      1.509     3.32     5.378092     20.38063     88.88828        14     1.163     0.799  67.65   0
       306    646.8871    175.0840 300.3290055 +22.6354264     1218.902     72.36703      1.422     3.06     5.250266     20.38063     136.4361        16     1.121     0.886  89.05   0
       307    468.0292    170.9798 300.2746161 +22.5807046     453.4599     72.23835      1.574     5.41     5.915063     20.38063     42.56129         9     1.050     0.786  58.52   0
       308    854.4473    165.9409 300.3966852 +22.6949052     844.4832     72.29353      1.475     3.13     5.356053     20.38063     103.4387        14     1.092     0.827  34.73   0
       309    842.3938    166.4614 300.3927567 +22.6914489     1473.621     72.20154      1.526     2.87     5.346669     20.38063     187.0326        19     1.256     0.946  82.97   0
       310    573.2000    166.6987 300.3087627 +22.6109588     980.3937     72.10944      1.349     2.87     5.417952     20.38063     116.8363        13     0.995     0.777  70.19   0
       311    901.2366    164.6752 300.4116921 +22.7085381     366.1093     72.18313      1.554     5.07     5.425092     20.38063     49.06379         7     0.999     0.727 -37.02   0
       312   1015.3868    156.5603 300.4499460 +22.7403449     1619.526     72.25674      1.641     3.65     5.914773     20.38063     151.8764        25     1.310     1.130 -66.97  16
       313    970.8990    156.0741 300.4362181 +22.7268997     1063.438     72.36703      1.594     3.96     5.703234     20.38063     98.77093        20     1.257     1.091  45.13   0
       314    204.8719    148.9006 300.1998699 +22.4955490     628.8035     72.40376      1.528     4.15     6.023283     20.38063     85.74854        12     1.056     0.969  66.98   0
       315     67.0838    143.1858 300.1588754 +22.4526276     2235.468     72.20154      1.835     3.73     5.889131     20.38063     248.1349        33     1.602     1.256  64.86   0
       316    890.1902    140.4676 300.4160929 +22.6982673     715.0775     72.23835      1.695     4.72     5.444952     20.38063     78.90531        16     1.257     1.067  73.22   0
       317     17.3182    140.2029 300.1443733 +22.4368591     330.3021     72.14629      1.418     3.88     5.824973     20.38063     59.28793         6     0.849     0.647  66.21   0
       318    224.4274    136.7634 300.2098868 +22.4979188     5587.241     72.23835      1.628     2.99     6.030113     20.38063     660.0903        39     1.390     1.216  66.60   0
       319    205.8901    138.1551 300.2036694 +22.4927662      336.293     72.21995      1.409     4.33     6.024658     20.38063     35.34503         6     1.098     0.485 -27.19   0
       320      8.7326    131.1266 300.1446466 +22.4316794     1279.001     72.31191      1.743     4.47     5.869826     20.38063     105.1366        21     1.404     1.099 -84.93  16
       321   1022.9139    124.7014 300.4626227 +22.7334247     14481.16     60.52465      1.469     4.18     5.891998     20.38063     1704.961        39     1.540     0.935  83.02  24
       322    207.9332    127.6722 300.2077024 +22.4903658     687.9426     72.27514      1.559     3.96     6.026298     20.38063     67.25575        14     1.044     0.992  81.25   0
       323    868.6509    118.6610 300.4164414 +22.6855486      3601.29     72.29353      1.578     2.81     5.376285     20.38063     393.7154        30     1.257     1.135 -89.14   0
       324    972.3500    117.4683 300.4491847 +22.7162213     2668.812     72.23835      1.666     3.23     5.782731     20.38063     268.1549        30     1.315     1.209  83.68   0
       325    418.0758    113.9811 300.2775365 +22.5493610     717.9421     72.23835      1.649     3.35     5.999613     20.38063      70.2074        10     0.977     0.745 -53.73   0
       326    171.1278    114.4851 300.2005284 +22.4755517      345.514     72.34866      1.408     3.38     6.014861     20.38063     40.45318         6     0.784     0.497   4.74   0
       327    346.4595    104.2403 300.2583993 +22.5251175     468.5446     72.23835      2.041     5.49     6.080805     20.38063     42.81183        10     1.214     0.850  -4.76   2
       328    342.3853    105.4664 300.2567339 +22.5242500     511.7069     72.21995      1.436     2.61     6.080544     20.38063     61.83116         7     0.775     0.649 -65.92   2
       329    397.6274    102.2770 300.2749633 +22.5398738     540.4324     72.23835      1.656     4.75     6.032754     20.38063     61.59274         9     1.237     0.691  59.76   0
       330    108.7778    102.3865 300.1850602 +22.4533978     675.3519     72.21995      1.815     3.62      6.00491     20.38063     59.04818        10     1.048     0.683  86.92   0
       331    469.2837    100.9883 300.2976923 +22.5609559     1609.195     72.20154      1.446     2.91      5.90277     20.38063     179.7095        21     1.251     0.996  77.43   0
       332      6.5395    101.2759 300.1536386 +22.4224478     348.4096     72.29353      1.402     3.43     6.059885     20.38063     36.41771         5     0.730     0.467 -71.91   0
       333    530.8737    100.5805 300.3170071 +22.5792751     498.2939     72.23835      1.571     2.79     5.597671     20.38063     45.58869         5     0.738     0.429  24.03   0
       334    213.3383     96.4564 300.2194999 +22.4830140     393.2939     72.31191      1.275     3.64     6.032416     20.38063     51.72037         7     0.954     0.476 -10.33   0
       335    758.2375     90.4271 300.3911560 +22.6443933     457.1878     72.25674      1.609     3.93     5.829786     20.38063     47.76451         6     0.890     0.498 -42.44   0
       336    904.0254     85.2504 300.4383056 +22.6865135     417.8751     72.25674      1.586     4.15     5.685331     20.38063     45.06952         9     1.035     0.667 -70.54   0
       337    243.4592     80.5566 300.2340224 +22.4874655     6069.384     72.23835      1.668     3.16     6.066759     20.38063     683.5496        41     1.423     1.226  68.19   0
       338    872.4167     78.3270 300.4306878 +22.6750668     342.5737     72.23835      1.266     3.70     5.558698     20.38063       41.438         7     0.912     0.559  32.19   0
       339     94.6317     80.2258 300.1878428 +22.4427928     950.3498     72.23835      2.122     5.84     6.026583     20.38063     65.44621        11     1.245     0.771  -7.49   0
       340    489.5570     66.0766 300.3153190 +22.5569852     6413.623     72.21995      1.532     2.84     5.845987     20.38063     698.3948        39     1.397     1.141  70.79   0
       341    374.9757     66.1979 300.2796029 +22.5227189     545.0472     72.18313      1.435     3.32      6.07472     20.38063     62.50225         9     0.930     0.658 -13.32   0
       342    683.6666     57.8408 300.3784675 +22.6127065     306.7944     72.20154      1.319     3.38     6.078204     20.38063     40.83008         5     0.772     0.428  72.17   0
       343    742.0729     56.0693 300.3972494 +22.6296711     878.7043     72.31191      1.876     3.39      6.07118     20.38063     80.51178        11     1.038     0.845  28.05   0
       344    182.3640     50.3212 300.2248141 +22.4604781     430.1925     72.18313      1.358     3.45     6.081732     20.38063     58.06917         9     1.048     0.603 -43.31   0
       345    540.7089     49.0114 300.3367811 +22.5673872     453.9944     72.18313      1.406     3.39     5.755043     20.38063     63.40048         9     1.015     0.704 -20.09   0
       346    617.9431     46.1902 300.3617588 +22.5896888     6293.124     72.20154      1.519     3.04     5.805713     20.38063     726.3049        37     1.335     1.166 -87.18   0
       347    392.7021     45.2365 300.2919128 +22.5219990      1319.38     72.23835      1.437     2.76     6.078948     20.38063     170.6061        20     1.119     1.033  40.74   0
       348    834.2219     54.8967 300.4263659 +22.6568990     441.1909     72.16471      1.554     2.54     5.800905     20.38063     46.72711         8     0.797     0.651  38.15   0
       349    659.0937     43.6976 300.3753909 +22.6012850     874.1606     72.42211      1.530     3.28     6.087454     20.38063     94.45551        16     1.042     0.996 -24.10   0
       350    674.8617     40.0281 300.3814944 +22.6049470     694.9216     72.23835      1.929     3.92     6.205139     20.38063     66.66553        10     1.063     0.826 -86.71   0
       351    945.1965     37.9785 300.4664701 +22.6852184     427.9134     72.20154      1.185     2.46     5.893015     20.38063     68.41737         8     0.884     0.578 -24.96   0
       352    141.4578     37.7920 300.2161514 +22.4446257     809.9033     72.21995      2.050     4.00     6.091001     20.38063     63.29594        13     1.101     0.891 -13.62   0
       353    984.2407     37.3616 300.4788551 +22.6967157     378.0098     72.31191      1.436     4.03     5.840504     20.38063     36.34091         6     0.926     0.503 -38.50   0
       354    713.4612     35.4140 300.3950217 +22.6151678     481.3705     72.20154      1.542     3.99     6.239879     20.38063     59.74468         7     0.953     0.632   3.12   0
       355    662.1411     31.1724 300.3803987 +22.5985932     2760.833     72.23835      1.512     2.88     6.204047     20.38063     289.2062        27     1.223     1.075  69.99   0
       356    303.0145     32.4040 300.2681546 +22.4914577     362.1136       72.091      1.295     2.82     6.107398     20.38063     48.83049         6     0.801     0.490  -1.58   0
       357    677.2216     30.0592 300.3854598 +22.6027849     1019.109     72.21995      1.863     4.40     6.275212     20.38063     89.93154        17     1.311     0.901  44.89   0
       358    748.7171     22.9668 300.4100462 +22.6221331     1424.198     72.20154      1.469     3.50     6.254928     20.38063     158.5081        22     1.231     1.075  53.67   0
       359    908.9240     21.4632 300.4605025 +22.6696171     212.4871     72.29353      1.122     4.51     5.972237     20.38063     32.41807         7     1.216     0.475   7.73   0
       360    729.3614    987.2568 300.0909693 +22.8935264     683.1301     72.23835      1.872     5.40     3.850584     20.38063     55.11947        17     1.457     1.241  -5.34   0
       361     22.3084   1012.1032 299.8628281 +22.6885528     983.2343     72.42211      5.576     7.66    -1.088459     20.38063     42.89326        13     2.715     0.604  56.82  17
       362     65.3547     15.3076 300.1997729 +22.4153694     534.6591     72.25674      1.726     3.43     6.071491     20.38063     57.50235         7     0.854     0.828 -12.06   0
       363    291.5529   1011.5838 299.9467139 +22.7692092     1346.628     72.27514      2.654     6.00     6.800316     20.38063     68.97236        28     1.543     1.484 -50.61   0
       364     73.7456    916.6128 299.9098689 +22.6766130      4437.35     72.23835     28.392    68.91     8.897828     20.38063      82.1495      1540    17.199     7.660 -23.75  19
       365    124.8247   1008.7102 299.8957957 +22.7183520     1074.927     72.18313      2.826     9.31     93.54301     20.38063     50.43377        20     2.053     1.554 -66.17   2
