#   1 NUMBER                 Running object number                                     
#   2 X_IMAGE                Object position along x                                    [pixel]
#   3 Y_IMAGE                Object position along y                                    [pixel]
#   4 ALPHA_J2000            Right ascension of barycenter (J2000)                      [deg]
#   5 DELTA_J2000            Declination of barycenter (J2000)                          [deg]
#   6 FLUX_APER              Flux vector within fixed circular aperture(s)              [count]
#   7 FLUXERR_APER           RMS error vector for aperture flux(es)                     [count]
#   8 FLUX_RADIUS            Fraction-of-light radii                                    [pixel]
#   9 FWHM_IMAGE             FWHM assuming a gaussian core                              [pixel]
#  10 BACKGROUND             Background at centroid position                            [count]
#  11 THRESHOLD              Detection threshold above background                       [count]
#  12 FLUX_MAX               Peak flux above background                                 [count]
#  13 ISOAREA_IMAGE          Isophotal area above Analysis threshold                    [pixel**2]
#  14 A_IMAGE                Profile RMS along major axis                               [pixel]
#  15 B_IMAGE                Profile RMS along minor axis                               [pixel]
#  16 THETA_IMAGE            Position angle (CCW/x)                                     [deg]
#  17 FLAGS                  Extraction flags                                          
         1    197.7920      7.2261 300.2353945 +22.4425020     3743.158     72.47433      1.589     2.91     6.353773     20.44721     397.2043        36     1.337     1.202  53.83  16
         2    765.7570      7.8120 300.4120174 +22.6127138     516.2493     72.47433      1.437     3.49     6.136416     20.44721       59.415        12     1.066     0.845  55.67   0
         3    620.4127      4.5375 300.3677897 +22.5682760     518.5708     70.62314      2.029     3.28     5.793724     20.44721     49.76324         8     0.897     0.687  48.62  16
         4    523.5814      4.7706 300.3375579 +22.5393580     246.1871     71.24555      1.319     3.37     5.809383     20.44721     33.45087         5     0.746     0.442  68.55  16
         5    573.2001    995.1487 300.0315212 +22.8385979     2232.663     72.41893      1.903     5.32      4.14705     20.44721     130.7047        27     1.460     1.204   2.17   0
         6    274.6097   1018.4880 299.9310163 +22.7556968     2834.076     72.40045      5.951    25.69     32.92611     20.44721     66.77061       174     5.409     3.388 -70.10  27
         7    226.7055    990.0592 299.9253684 +22.7331700     4695.358     72.54813      8.681    30.71     64.87118     20.44721     96.20967       371     7.133     4.489  88.15  19
         8    266.4806   1001.4014 299.9340465 +22.7483594     3419.542     72.36349      9.608    49.34     36.86126     20.44721     102.5349       544    18.429     3.666 -13.51  19
         9    246.5161    988.3586 299.9320809 +22.7386288     6169.823      72.4374     10.369    31.78     47.16287     20.44721     101.7255       571     7.206     6.069 -53.31  19
        10    115.5428   1012.0256 299.8836714 +22.7060937     3174.263     72.47433     13.991    78.43     89.21973     20.44721     137.0051      1465    18.995     8.986  44.58  27
        11    103.8908    953.5758 299.8990605 +22.6858473     5372.336     72.41893     21.676    89.12     35.11259     20.44721     1153.331      2624    16.591    13.283 -14.89  19
        12    659.8512    990.2610 300.0600975 +22.8631849     8884.595     72.52969      1.987     4.64     4.072307     20.44721     504.7047        44     1.513     1.418  24.98   3
        13    665.3898    987.9971 300.0625592 +22.8641965     9450.243      72.2895      1.973     4.85     4.066107     20.44721     502.1998        49     1.556     1.451  14.11   3
        14    759.9371    990.6473 300.0911551 +22.8933085     613.1558     72.49279      1.849     6.53     4.060027     20.44721     46.44733        14     1.221     0.979 -13.72   0
        15    381.1683   1001.8841 299.9695613 +22.7829167     568.1722     72.45587      1.855     6.24     5.017744     20.44721     39.22993        11     1.552     0.706 -13.81   0
        16    191.0241    971.3434 299.9203629 +22.7170956     701.9429     72.47433      2.971     8.47     56.78951     20.44721     36.28602        11     2.327     0.862  78.11   3
        17    193.0723    978.2645 299.9187486 +22.7196940      1125.89     72.51125      2.702     7.65      62.2342     20.44721     44.37257        16     1.650     0.993 -33.93   3
        18    212.9584    980.1579 299.9243149 +22.7262058     314.7379     72.58501      1.764     3.43     60.16141     20.44721     34.74308         5     1.599     0.213  27.34   1
        19    524.4830    978.9049 300.0216371 +22.8193255     349.4862      72.6587      1.756     4.33      4.14705     20.44721     32.40598         6     1.099     0.487 -83.40   0
        20    952.9377    974.7221 300.1565063 +22.9465944     683.1776     72.54813      1.781     4.34     4.161532     20.44721     56.81255        13     1.174     1.022  15.38   0
        21    680.7396    975.3703 300.0714480 +22.8651771     244.8159     72.51125      1.904     4.44     4.071265     20.44721     25.39065         5     1.181     0.476   4.46   0
        22    265.0939    977.8870 299.9412634 +22.7412032     9336.228      72.6587     11.225    32.46     28.82134     20.44721     180.8727       828    11.465     5.112  60.42  19
        23    101.6099    921.8917 299.9086545 +22.6760830     4423.861     72.41893     18.116    58.53     11.26012     20.44721     82.39753      1137    14.065     6.759 -36.24   3
        24    170.9770    959.2101 299.9180774 +22.7076007     1391.427     72.47433      3.512    12.85     50.90268     20.44721     46.08577        40     2.388     1.923  74.58   0
        25    156.8936    959.0648 299.9137473 +22.7033315     1244.692     72.58501      4.823     5.36     52.01475     20.44721     49.96529        13     1.241     1.060  78.18   3
        26      2.8085    998.5330 299.8530368 +22.6683776       1934.7     64.19252      6.208    16.62    -23.60257     20.44721     63.63493        62     3.197     2.403  75.24  27
        27    678.1642    957.3864 300.0764950 +22.8592451     6956.023     72.47433      1.894     4.48     4.084949     20.44721     440.9333        48     1.523     1.431  19.87   0
        28    201.8624   1002.2892 299.9136671 +22.7292178     1966.299     72.56657      5.183    13.51     80.72006     20.44721     59.79485        42     2.634     2.046  14.07   3
        29    557.8686    952.2491 300.0407007 +22.8216943     521.7653     72.47433      2.166     6.03      4.14705     20.44721     33.49592        10     1.160     0.881  -6.14   0
        30    269.0589    951.5403 299.9510649 +22.7348409     645.2894     72.54813      2.115     6.25     17.13673     20.44721     54.30223        10     1.381     0.794 -25.24   0
        31      6.1242    951.4772 299.8693699 +22.6558927     723.7792     72.56657      4.813     5.24    -4.359676     20.44721     32.26289         5     1.012     0.765  88.72  24
        32    586.4400    948.1779 300.0509214 +22.8290958     1741.305     72.51125      1.938     4.70      4.14705     20.44721     103.9352        29     1.438     1.323  11.80   0
        33    480.1488    944.4482 300.0190431 +22.7961441     1122.584     72.51125      1.955     5.54     4.150807     20.44721     73.12831        23     1.433     1.192  45.79   0
        34    411.0900    942.4730 299.9981939 +22.7748599     6616.362     72.64028      1.845     4.02     4.441889     20.44721     531.5552        43     1.461     1.367  11.65   0
        35    194.0137    982.7444 299.9175843 +22.7212605     1371.783     72.47433      3.610     8.98     66.21677     20.44721      50.2671        27     1.752     1.497 -77.02   2
        36    196.6606    999.8880 299.9128311 +22.7269682     2429.287     72.54813      4.442    16.59     79.88863     20.44721      62.0826        75     3.596     2.127 -61.09   3
        37    443.6429    929.3336 300.0125966 +22.7808580     404.2566     72.45587      1.629     5.37     4.286078     20.44721     47.42131        10     1.085     0.833 -10.29   0
        38     21.3981    996.5667 299.8594503 +22.6733966      1180.95      72.4374      6.637    10.50    -4.540284     20.44721     43.11298        19     2.245     1.369 -12.88   3
        39      3.0734    982.5568 299.8583151 +22.6638805     1617.029     65.30828     17.749    23.27    -17.57324     20.44721     47.27043        89     5.469     2.750  74.32  27
        40    957.4102    921.4435 300.1752299 +22.9326390     2139.379     72.47433      1.959     4.80     4.354195     20.44721      112.708        35     1.529     1.364   0.31   0
        41      8.0862    976.4975 299.8618427 +22.6636499     1943.652     72.64028     11.890    17.38     -11.2927     20.44721     56.96521        66     3.295     2.546  52.31  19
        42    607.9110    918.4956 300.0672605 +22.8270198     383.1327      72.6587      2.123     6.00     4.199887     20.44721     35.80613         8     1.022     0.992   5.60   0
        43    455.8136    917.1995 300.0203301 +22.7810291     287.5625       72.308      1.709     4.80     4.259651     20.44721     28.44546         5     1.228     0.531 -26.14   0
        44    746.0543    910.1333 300.1130148 +22.8660415      742.891     72.52969      1.829     5.30     4.365673     20.44721     61.58736        15     1.205     0.989  10.86   0
        45    237.0894    905.9879 299.9559366 +22.7121883     849.7227     72.41893      6.098     6.79      10.5726     20.44721     35.15873         8     1.474     0.878 -43.14   0
        46    781.0805    904.7209 300.1256905 +22.8749885     1153.991     72.60344      1.914     5.03      4.38699     20.44721     69.04651        21     1.304     1.112  16.29   0
        47      4.8400   1015.6537 299.8480991 +22.6738921     3296.586     71.43309     12.104    46.52    -27.45221     20.44721     68.78881       441    10.080     5.958 -71.61  27
        48    803.3407    898.1567 300.1347631 +22.8797772      11549.8     72.47433      1.829     4.08     4.412044     20.44721     804.8066        51     1.485     1.389  -5.31   0
        49    994.8472    898.5972 300.1943372 +22.9372972     432.8236     72.47433      1.625     4.25     4.442816     20.44721     41.80858         5     1.154     0.447 -10.95   0
        50    848.4725    898.5939 300.1486899 +22.8934305     346.7208     72.41893      1.599     5.55     4.400962     20.44721     38.03981         7     1.335     0.661  14.26   0
        51    235.2235    897.1444 299.9582318 +22.7090931     906.8353     72.51125      7.418     7.91     9.864741     20.44721     30.06696        13     1.666     1.052   7.35   0
        52    115.9527    890.0816 299.9234540 +22.6712719     1223.919     72.47433      4.023     5.75     10.04818     20.44721     59.90761        14     1.486     0.837  57.91   2
        53    508.5210    886.3455 300.0467680 +22.7879890     579.0338     72.51125      1.808     5.66     4.267811     20.44721     42.81991        12     1.369     0.763  -6.56   0
        54    854.9355    886.1151 300.1547624 +22.8917854     424.0925     72.56657      1.739     5.69     4.431247     20.44721     31.64961         9     1.150     0.793  -7.39   0
        55     85.0139    883.0532 299.9161251 +22.6599706      668.938     72.51125      4.579     5.81     6.413843     20.44721      32.6549         7     1.289     0.737  86.59   0
        56    105.0870    880.9727 299.9230388 +22.6653997     614.4453     72.47433      3.448     5.92     7.464695     20.44721     40.67097        10     1.271     0.776  80.84   0
        57    811.8637    880.2261 300.1432500 +22.8771852     1422.009     72.45587      1.722     3.90     4.457393     20.44721     115.6535        25     1.299     1.197  51.11   0
        58    995.0522    879.4107 300.2006400 +22.9318492     542.7593     72.47433      1.766     6.46     4.441115     20.44721     35.23144        13     1.189     0.986  -5.59   0
        59    663.5667    877.5127 300.0979214 +22.8319495     424.8726      72.4374      1.660     5.00     4.374152     20.44721     42.78081         8     1.175     0.789   6.33   0
        60    850.1901    873.5392 300.1573720 +22.8867529     865.4702      72.4374      2.314     5.83     4.461885     20.44721     57.27573        18     1.394     1.149 -46.02   0
        61    201.8079   1008.2208 299.9117208 +22.7309014     1273.915      72.4374      2.962    15.49     85.76602     20.44721     52.62756        40     3.698     1.803  -5.59  19
        62    898.0812    865.2980 300.1749838 +22.8987396     565.4519     72.60344      1.866     5.16     4.458828     20.44721     51.26099         9     1.090     0.690  21.74   0
        63    749.4493    863.9952 300.1290745 +22.8538175     612.2385     72.45587      1.523     5.59      4.45297     20.44721       56.908        14     1.152     0.912  42.94   0
        64      9.6739    862.5470 299.8993858 +22.6314775     315.0831     72.49279      1.384     3.99     4.751259     20.44721     56.42761         6     1.001     0.737 -46.68   0
        65    760.9335    861.5185 300.1334586 +22.8565491     666.0158     72.58501      1.664     3.80        4.463     20.44721      53.1389        14     1.139     0.851  -0.72   0
        66    462.2989    860.1904 300.0408840 +22.7666229     4144.602     72.36349      1.684     3.41     4.329256     20.44721     385.9889        31     1.320     1.204  14.70   0
        67    242.0217    849.4330 299.9758563 +22.6974545     264.5908     72.47433      1.509     4.30     6.217181     20.44721     31.31372         5     1.153     0.457  62.95   0
        68    124.4135    848.0339 299.9397522 +22.6617595     302.3225     72.45587      1.361     4.86     6.280304     20.44721     34.62293         8     1.382     0.484  86.03   0
        69    506.6521    848.5576 300.0584713 +22.7765884     291.0543     72.47433      1.518     4.81     4.358455     20.44721     34.20317         6     0.970     0.676 -19.82   0
        70    187.6674    845.7676 299.9601492 +22.6800931     723.2454     72.47433      1.918     4.79     7.119124     20.44721     47.55593        12     1.102     0.991  38.83   0
        71     96.5929    844.0522 299.9324011 +22.6522682     501.3597     72.45587      1.967     5.15     5.218493     20.44721     40.71092         8     1.131     0.741 -47.81   0
        72    164.6358    842.8688 299.9539323 +22.6723503     1451.752     72.47433      1.772     3.90     7.382242     20.44721     124.7609        28     1.388     1.234 -18.86   0
        73     40.3610    832.6558 299.9186344 +22.6321233     487.6921     72.47433      1.367     2.21      4.79854     20.44721     51.90096         5     0.690     0.452 -71.81   0
        74    990.7682    830.8224 300.2151005 +22.9166122     2187.181     72.47433      1.891     4.60     4.426002     20.44721     127.5771        32     1.464     1.357  17.92   0
        75    696.1506    830.8044 300.1232572 +22.8283138     456.8334     72.45587      1.913     5.35      4.44226     20.44721     37.08313         6     1.229     0.657  -5.18   0
        76    196.9291    824.6001 299.9699087 +22.6768039     366.3724     72.34499      1.652     6.02      6.07892     20.44721     37.30945         9     1.380     0.739  52.83   0
        77    774.1735    824.5009 300.1496189 +22.8498920     651.7618     72.41893      1.697     4.75      4.45484     20.44721     52.81544        11     1.088     0.780  58.14   0
        78    480.7942    821.6332 300.0591743 +22.7611094     218.0572     72.47433      1.874     5.19     4.379986     20.44721     25.39571         5     1.028     0.742  80.70   0
        79    642.3544    818.3685 300.1105410 +22.8086171     4801.534     72.52969      1.630     3.37     4.448171     20.44721     456.5848        34     1.303     1.190 -21.91   0
        80    132.1258    818.5295 299.9517390 +22.6556166     307.0973     72.54813      1.487     4.88     5.699581     20.44721     39.48071         7     1.301     0.518  39.83   0
        81    444.5998    815.4095 300.0499322 +22.7484689       550.36      72.2895      1.497     3.43     4.532171     20.44721     69.35455        11     0.994     0.783  -3.19   0
        82    192.3610    811.9833 299.9725893 +22.6718158     1199.047     72.49279      1.853     5.28     5.566944     20.44721     112.6366        24     1.468     1.258  66.90   0
        83    662.6871    810.8659 300.1193133 +22.8125595     680.2334     72.56657      1.577     4.75     4.444167     20.44721     67.78432        14     1.168     0.841  32.67   0
        84    212.1076    809.6285 299.9794935 +22.6770659      294.306     72.41893      1.252     3.51      5.37716     20.44721     36.24662         5     0.783     0.453 -15.18   0
        85    579.9935    801.5153 300.0965971 +22.7850839     281.6733     72.40045      1.319     4.53     4.476721     20.44721     38.75293         8     1.168     0.498  61.66   0
        86    818.4041    798.2881 300.1719258 +22.8556228     4289.197     72.38197      1.764     3.60     4.457217     20.44721     312.1389        35     1.337     1.257   6.71   0
        87    535.4743    790.7413 300.0862369 +22.7686436     632.7014     72.52969      1.510     3.57     4.544813     20.44721     68.71602        14     1.075     0.949  34.95   0
        88    226.7970    792.1276 299.9897482 +22.6764553     525.5793     72.41893      1.716     5.33     5.039721     20.44721     43.47787        11     1.158     0.876 -14.43   0
        89    181.9387    788.4793 299.9769881 +22.6619496     1012.946     72.54813      1.789     4.23     5.096253     20.44721     89.08074        20     1.323     1.071  25.44   0
        90    331.3959    780.6288 300.0260142 +22.7045376     54033.75      72.4374      1.684     3.41     4.938814     20.44721     5589.437        89     1.451     1.389  35.06   0
        91    596.9811    784.0362 300.1075682 +22.7851611     489.4173     72.47433      1.562     4.70     4.571797     20.44721     58.38252        11     1.106     0.700  -1.81   0
        92    589.2130    779.8055 300.1065240 +22.7816181     1672.631     72.34499      1.554     3.27     4.601395     20.44721     173.7379        21     1.150     1.037  16.23   0
        93   1002.0232    779.2493 300.2353756 +22.9051714     936.2903     72.47433      1.797     4.75     4.409533     20.44721     65.12379        17     1.256     1.016  16.87   0
        94    259.5019    778.8283 300.0042395 +22.6824539     661.9576     72.41893      2.089     6.05     5.056034     20.44721       41.457        11     1.299     0.792 -22.11   0
        95    618.3317    775.7609 300.1169070 +22.7891871     912.3397      72.4374      1.540     3.80      4.60211     20.44721     98.67213        16     1.185     0.901   3.43   0
        96     17.3821    774.8998 299.9302661 +22.6086726     964.3766     72.38197      2.154     5.69     4.496145     20.44721     73.69315        19     1.318     1.123   8.99   0
        97    629.3688    774.2466 300.1208367 +22.7920613     616.7171     72.51125      1.441     3.97     4.594693     20.44721     62.32856        11     1.009     0.755   8.17   0
        98    949.3214    771.8959 300.2213257 +22.8872714     338.8182     72.58501      1.469     5.79     4.440686     20.44721     35.01031         9     1.068     0.884  20.42   0
        99    734.9349    770.5567 300.1549241 +22.8226457     420.5085     72.45587      1.568     4.44     4.525557     20.44721     47.30685        12     1.123     0.795  -0.19   0
       100    529.0431    768.1911 300.0915632 +22.7602447     271.1573     72.49279      1.294     4.36     4.633412     20.44721     43.47752         6     0.863     0.628  -3.66   0
       101    772.2483    760.8121 300.1697192 +22.8310310     786.3297     72.49279      1.551     3.28     4.512419     20.44721     79.40522        16     1.078     0.955  -9.30   0
       102    381.1055    757.8781 300.0488718 +22.7129220     31411.48     72.60344      1.590     3.25     4.884668     20.44721     3359.146        68     1.379     1.320  10.03   0
       103    395.3856    758.3112 300.0531742 +22.7173291     2042.543     72.41893      1.630     3.16     4.871248     20.44721     221.7184        25     1.224     1.103   1.56   0
       104    904.3298    753.9238 300.2131348 +22.8686306     2647.263     72.54813      1.664     3.59     4.551973     20.44721     197.6449        28     1.289     1.175   1.24   0
       105    934.1002    752.6454 300.2228345 +22.8771825     183.2126     72.49279      1.388     3.67     4.473573     20.44721     37.55454         5     0.876     0.475   4.29   0
       106    392.3857    752.3494 300.0541780 +22.7147191     639.8584     72.49279      1.751     3.10     4.893357     20.44721     60.79927         9     0.885     0.723  -0.40   0
       107    662.2012    749.9858 300.1389479 +22.7949399     962.5801       72.308      1.520     3.32     4.618582     20.44721     97.84083        19     1.116     1.041 -15.35   0
       108    498.6978    749.9320 300.0880499 +22.7459065     539.5029     72.56657      1.533     3.22     4.550518     20.44721     54.11096         9     0.918     0.652 -17.65   0
       109    263.4683    749.9138 300.0148687 +22.6753516     743.6088     72.56657      1.565     4.77     5.092422     20.44721     83.12234        14     1.228     0.839 -11.77   0
       110     69.0286    745.1337 299.9559828 +22.6156406     442.2466     72.47433      1.421     4.33     4.790104     20.44721     49.31442         8     1.251     0.777  78.39   0
       111    509.2075    744.7153 300.0930167 +22.7475608     764.0126     72.40045      1.393     3.70     4.616389     20.44721     89.31533        15     1.161     0.849  34.69   0
       112    910.0229    741.7920 300.2188526 +22.8668520     555.8976     72.47433      1.620     4.17     4.559828     20.44721     47.67921        10     1.116     0.672  10.42   0
       113    411.3255    741.6235 300.0635566 +22.7173222      381.991     72.51125      1.932     5.63     4.921075     20.44721     33.37888         8     1.233     0.725 -26.23   0
       114    455.4286    739.5966 300.0779402 +22.7299663     461.2551      72.4374      1.477     3.46        4.647     20.44721     58.35518         8     0.987     0.638  33.42   0
       115    663.9542    739.0588 300.1430446 +22.7923288     303.1751     72.51125      1.275     4.18     4.648568     20.44721     41.53458         7     0.881     0.565 -45.79   0
       116     97.0181    738.8317 299.9667274 +22.6222332     628.0773     72.45587      1.711     6.09     4.910384     20.44721     49.31616        13     1.491     0.793 -26.56   0
       117    887.7548    736.4922 300.2136307 +22.8586585     340.0706     72.47433      1.405     3.77     4.656037     20.44721     47.43852        10     0.896     0.843   7.83   0
       118    261.4259    734.1983 300.0193399 +22.6702318     593.1877     72.41893      1.667     4.82      5.10215     20.44721     43.45114        11     1.124     0.876  49.35   0
       119    584.3361    724.6893 300.1229156 +22.7643380     480.9958     72.58501      1.491     2.97     4.889198     20.44721     56.57117        10     0.887     0.770  36.80   0
       120    592.1682    723.4106 300.1257701 +22.7663189     208.2925     72.47433      1.328     3.94     4.885297     20.44721     35.56915         5     0.903     0.492   1.47   0
       121    554.2845    722.8887 300.1141429 +22.7548121     805.9125     72.60344      1.687     3.05      4.91877     20.44721     90.24267        11     0.882     0.856  45.87   0
       122    463.4131    722.3903 300.0860159 +22.7274236     360.3802     72.36349      1.466     4.10     4.679829     20.44721     36.70238         7     1.043     0.460  -9.93   0
       123    970.7675    719.2729 300.2451160 +22.8785809     4513.507     72.47433      1.725     3.54     4.600851     20.44721     370.1269        38     1.381     1.292  -5.00   0
       124    576.1236    720.2321 300.1218064 +22.7605968     1203.921     72.47433      1.334     3.04     4.905621     20.44721     163.1991        18     1.030     0.954  12.62   0
       125    495.6178    719.9758 300.0968247 +22.7363871     349.6346     72.47433      1.605     5.12       4.6747     20.44721      44.3857         8     1.122     0.660  -0.21   0
       126    657.8151    715.6210 300.1487478 +22.7837608     228.7264     72.45587      1.246     3.44     4.703154     20.44721     29.85703         5     0.745     0.460  15.29   0
       127    959.0942    710.6788 300.2442672 +22.8726156     1741.259     72.62186      1.728     3.54     4.680433     20.44721     148.7783        21     1.187     1.057  51.81   0
       128    322.0816    704.4805 300.0478595 +22.6799016     801.3522     72.62186      1.392     3.11     4.975786     20.44721     108.2427        13     0.992     0.863  -9.25   0
       129    188.3922    704.9614 300.0061310 +22.6399375     189.1672     72.49279      1.367     4.01      5.03256     20.44721     43.34134         6     1.137     0.405  75.15   0
       130    785.6309    702.0350 300.1929891 +22.8181648     2653.115     72.49279      1.595     3.26     4.639966     20.44721     233.2636        32     1.443     1.074  -1.16   0
       131    990.3475    700.9521 300.2571768 +22.8791827     1636.863     72.51125      1.667     3.84     4.746982     20.44721     132.3762        21     1.201     1.082  32.18   0
       132      7.6921    691.9475 299.9542066 +22.5819865     811.7483     72.52969      1.674     4.90     5.012267     20.44721     82.44496        16     1.148     1.074  88.77  16
       133    171.0180    688.1501 300.0061912 +22.6299041     653.3007     72.47433      1.503     4.02     5.011757     20.44721     61.77907        13     1.074     1.058 -80.85   0
       134    867.8784    687.7957 300.2232554 +22.8387180     643.0688     72.38197      1.639     4.49     4.836277     20.44721     57.02053        10     1.095     0.788  28.60   0
       135    903.9878    678.8532 300.2374204 +22.8469667     149566.9     72.49279      1.598     3.35     4.915181     20.44721     12876.74       153     1.494     1.469 -53.30   0
       136    666.1931    682.5853 300.1620906 +22.7767881     271.5952     72.38197      1.252     4.24     4.720675     20.44721     43.12456         8     1.055     0.564 -23.76   0
       137    756.2438    679.3119 300.1912125 +22.8028342     771.8535     72.47433      1.722     2.75     4.710307     20.44721     77.65298        11     0.939     0.751  48.26   0
       138    936.9905    672.2033 300.2498734 +22.8549423     510.8228      72.2895      1.648     2.95     5.003356     20.44721     50.36919         6     0.818     0.593  -9.70   0
       139    590.2686    667.5859 300.1433148 +22.7497259     1598.189     72.49279      1.343     2.67     4.963767     20.44721     195.1743        18     1.048     0.969  15.03   0
       140    771.4237    664.9902 300.2005960 +22.8032701     9568.746     72.47433      1.499     3.01      4.73979     20.44721     940.2599        44     1.258     1.208   0.77   0
       141    272.8748    659.9236 300.0470291 +22.6523618     5041.842     72.56657      1.537     3.19     4.956353     20.44721     502.0684        35     1.284     1.184   8.68   0
       142    355.0234    658.1864 300.0731453 +22.6764999     1186.946     72.45587      1.507     3.21     4.916519     20.44721     129.1293        18     1.094     0.995  16.72   0
       143    230.8428    655.8423 300.0352844 +22.6385841     459.0782     72.58501      1.575     4.49     5.021607     20.44721     52.21964         8     1.213     0.536  50.92   0
       144    563.3098    653.4754 300.1395032 +22.7375947     729.0407     72.62186      1.417     3.40     5.105106     20.44721     93.07912        14     1.032     0.929  61.11   0
       145    554.8902    645.7770 300.1393821 +22.7328612     3292.255     72.40045      1.455     2.87     5.147387     20.44721      387.622        26     1.137     1.071  37.50   0
       146    545.1265    639.4753 300.1383888 +22.7281257     1421.593     72.54813      1.383     2.88     5.191659     20.44721     153.9548        18     1.077     0.989  83.34   0
       147    938.7419    637.7541 300.2616102 +22.8455704     425.9567     72.51125      1.441     3.58     5.014343     20.44721     46.80233         7     0.958     0.563  18.44   0
       148    456.2770    636.5821 300.1116696 +22.7006603     151.9831     72.47433      1.166     3.42     4.971823     20.44721     35.13012         5     0.781     0.433 -21.34   0
       149    208.2861    635.8026 300.0347799 +22.6260702     589.4327     72.40045      1.558     3.05      5.07152     20.44721     97.04617         9     1.057     0.796  -2.98   0
       150    222.9824    634.0483 300.0399189 +22.6299751     628.8057     72.51125      1.460     2.67     5.068285     20.44721      77.5365         9     0.803     0.729  36.24   0
       151    991.8375    630.9679 300.2803768 +22.8595222     325.8394     72.49279      1.258     3.76     5.015658     20.44721     45.17165         9     0.929     0.702  74.73   0
       152    279.8261    630.8484 300.0586343 +22.6461058     262.1166     72.49279      1.282     4.37      4.93834     20.44721     43.45288         7     0.889     0.613 -37.27   0
       153    248.2787    631.0292 300.0487650 +22.6366962     479.5397     72.47433      1.378     3.55     5.016294     20.44721      89.4706        12     1.201     0.716   0.30   0
       154    568.9993    629.9575 300.1489136 +22.7325492     542.3845     72.49279      1.443     2.73     5.146616     20.44721     51.77501         9     0.786     0.734 -14.54   0
       155    469.9683    629.1843 300.1183337 +22.7026418     1836.488     72.45587      1.453     3.04     4.989501     20.44721     182.7937        20     1.073     0.997  13.44   0
       156    503.6709    628.4642 300.1290586 +22.7125384     142.9889     72.51125      1.307     5.04     5.077958     20.44721     32.41743         6     1.172     0.614 -40.80   0
       157    123.8352    623.9498 300.0123781 +22.5973379     20004.07     72.49279      1.673     3.40     5.149676     20.44721     1930.689        59     1.443     1.348  22.79   0
       158     44.8727    625.4483 299.9873551 +22.5740777     727.6351     72.47433      2.150     6.60     5.216708     20.44721     53.55125        13     1.410     0.885 -12.30   0
       159    554.9492    624.5315 300.1463009 +22.7267804     897.7225     72.45587      1.308     3.00     5.193755     20.44721     120.8566        16     1.082     0.886  40.07   0
       160    308.3757    616.0509 300.0723194 +22.6504222     299.1203     72.49279      1.313     2.66      4.90403     20.44721     41.95532         6     0.802     0.708  83.85   0
       161    972.8361    610.9535 300.2809498 +22.8480812     1118.172     72.51125      1.461     3.65     5.022172     20.44721      105.422        18     1.188     0.955  26.48   0
       162    638.3263    612.4440 300.1761930 +22.7482988     274.8038     72.45587      1.462     3.99     5.100552     20.44721     36.63622         5     0.943     0.496   2.21   0
       163     69.8648    608.2055 300.0007195 +22.5766316     1599.035     72.45587      2.036     4.80     5.183856     20.44721     107.1649        30     1.504     1.312  82.93   0
       164    839.8146    608.8729 300.2401421 +22.8076420      445.737     72.47433      1.534     4.14     4.933526     20.44721     59.49968        13     1.294     0.800  12.01   0
       165    135.9597    608.7754 300.0210741 +22.5966231     396.5758     72.51125      1.984     5.57      5.15739     20.44721     52.16562         7     1.473     0.593  24.00   0
       166    518.5092    605.0759 300.1412738 +22.7102730     575.0612     72.62186      1.589     3.44     5.152206     20.44721     52.90603         8     0.856     0.680  37.19   0
       167    913.1452    603.6166 300.2647147 +22.8280966     801.9937     72.45587      1.841     3.11     5.018237     20.44721     70.62151        12     0.971     0.840  17.90   2
       168    310.9903    604.4398 300.0769033 +22.6478749     280.6605     72.47433      1.087     3.73     4.899051     20.44721      38.6111         6     0.805     0.496  -0.24   0
       169    657.6307    602.2891 300.1855043 +22.7511680     349.1249     72.45587      1.295     3.95     5.109324     20.44721     36.04404         6     0.871     0.512  48.87   0
       170    622.7395    596.1267 300.1766372 +22.7389428     511.2681     72.51125      1.562     4.09     5.126144     20.44721     59.56725        11     1.011     0.863  -5.71   0
       171    474.9100    597.1469 300.1302763 +22.6949280      624.793     72.51125      1.397     4.18     5.003763     20.44721     75.24931        11     0.962     0.862 -40.29   0
       172    669.9139    594.5925 300.1918303 +22.7526386     540.3685     72.40045      1.470     3.54     5.107265     20.44721     56.28101        10     1.042     0.748 -14.84   0
       173    640.7841    594.1981 300.1828841 +22.7437965     640.9702     72.34499      1.393     3.51     5.119485     20.44721     62.84169        11     1.001     0.783 -81.54   0
       174    519.2851    593.1972 300.1453728 +22.7070958     905.4102     72.40045      1.471     3.54     5.152206     20.44721     99.42754        15     1.171     0.895  10.36   0
       175    953.0358    588.9347 300.2819244 +22.8358249     3307.125     72.47433      1.540     3.01      5.03442     20.44721     326.2841        30     1.290     1.136 -41.98   0
       176    484.7072    588.6605 300.1360817 +22.6954290     1740.147     72.54813      1.411     2.56     5.027206     20.44721     233.1072        18     1.023     0.928  35.33   0
       177    849.5179    586.3837 300.2504709 +22.8040884     357.4508      72.4374      1.424     3.89     4.905992     20.44721     34.03343         6     0.895     0.486  -1.61   0
       178    822.2233    585.1589 300.2423592 +22.7955608     258.3585     72.51125      1.400     3.89     4.839897     20.44721      33.3462         5     0.945     0.460  43.33   0
       179     46.6362    582.1052 300.0019774 +22.5621781     5364.289     72.47433      1.771     3.73     5.118783     20.44721     442.8639        45     1.453     1.403  55.19   0
       180    513.8600    579.5585 300.1481127 +22.7015546     396.3307     72.45587      1.249     3.72     5.133824     20.44721     58.01922         8     0.945     0.618  13.17   0
       181    992.6157    578.6892 300.2975985 +22.8447333     348.2432     72.40045      1.168     3.03      5.08296     20.44721     49.16334         5     0.885     0.452  76.33   0
       182    348.1555    575.3796 300.0979008 +22.6506803     9172.218     72.52969      1.436     2.68     4.892926     20.44721      1035.47        39     1.198     1.175  31.77   0
       183    470.5725    572.4739 300.1369380 +22.6865459     9206.635     72.47433      1.406     2.57     4.996737     20.44721     1166.088        37     1.164     1.118  29.80   0
       184    716.7586    568.8976 300.2147695 +22.7592956     330.5545     72.45587      1.317     3.97     5.003303     20.44721     38.59809         6     0.775     0.582  54.52   0
       185    235.7191    569.6151 300.0648024 +22.6153111      277.248     72.45587      1.588     4.27     5.018846     20.44721     34.01315         6     1.129     0.461  -8.71   0
       186    882.3441    566.6188 300.2671244 +22.8082422     1921.071     72.45587      1.525     2.84     4.908727     20.44721      208.583        24     1.226     1.041  50.87   0
       187    966.9618    563.9996 300.2943657 +22.8328303     12545.65     72.47433      1.537     3.10     5.071041     20.44721     1116.943        46     1.289     1.275 -16.86   0
       188    531.1836    562.1076 300.1591726 +22.7017372     11611.61     72.40045      1.364     2.67     5.196323     20.44721     1279.266        40     1.190     1.087  44.79   0
       189    258.5284    557.5231 300.0758212 +22.6186819     1483.104     72.58501      1.479     2.91     4.955474     20.44721      178.986        19     1.113     0.976  50.09   0
       190    700.7227    557.9898 300.2133147 +22.7513585     603.1591      72.4374      1.479     2.76     5.058804     20.44721     68.65519        10     0.902     0.711   0.86   0
       191    416.6671    557.3914 300.1250583 +22.6660578     377.0348     72.47433      1.511     3.85     4.906999     20.44721     42.58335         6     0.904     0.470 -87.65   0
       192    505.6738    555.0329 300.1535276 +22.6920605     447.4214     72.45587      1.392     1.93     5.104412     20.44721     56.33646         7     0.663     0.638  35.05   0
       193    462.8670    550.2544 300.1417541 +22.6778582      4538.53     72.51125      1.364     2.61     4.982223     20.44721     521.8226        27     1.122     1.030  47.32   0
       194    805.7671    550.5094 300.2484806 +22.7806781     657.9336      72.4374      1.303     2.90     4.794101     20.44721     89.87406        12     0.974     0.808  51.76   0
       195    441.1240    548.5325 300.1355458 +22.6708464     1412.684     72.56657      1.386     2.71     4.945024     20.44721     174.7315        21     1.096     1.057  -8.14   0
       196    882.7521    546.0192 300.2739404 +22.8024460     1454.653     72.51125      1.484     3.50     4.854336     20.44721     141.4383        19     1.142     1.017 -17.18   0
       197    129.4030    545.6979 300.0395168 +22.5765642     366.4762     72.38197      1.671     4.86     5.050968     20.44721     31.81802         7     1.128     0.593 -60.84   0
       198    579.4954    537.8327 300.1820975 +22.7092462     203552.3     72.45587      1.396     2.48     5.194263     20.44721     28332.47       199     1.437     1.386  -3.01   0
       199    763.1261    542.8287 300.2376836 +22.7656989     779.7834     72.49279      1.331     2.85     4.921612     20.44721     109.4954        12     0.979     0.785  46.61   0
       200    403.5042    543.4576 300.1254862 +22.6581127      290.676     72.54813      1.184     3.97      4.90069     20.44721     57.92102         6     1.031     0.438 -37.77   0
       201    856.4445    541.6622 300.2671522 +22.7933153     183.3253     72.49279      1.200     3.80     4.801831     20.44721     36.14071         5     0.975     0.426 -13.58   0
       202    265.5364    537.7354 300.0844248 +22.6151058     3538.767     72.51125      1.502     2.76     4.930685     20.44721     467.6217        27     1.176     1.113 -40.29   0
       203    195.2079    548.1089 300.0591893 +22.5969921     642.8488     72.38197      1.583     3.35     5.050366     20.44721     96.20627        15     1.183     0.873  23.16   0
       204    831.3488    534.2399 300.2617379 +22.7836666      604.653     72.47433      1.407     4.31     4.820253     20.44721     64.18379        10     1.243     0.575 -31.34   0
       205    849.7635    532.5941 300.2680134 +22.7887090     317.6735     72.51125      1.569     3.54     4.828351     20.44721     35.39767         5     0.815     0.444  17.91   0
       206    470.0817    518.3330 300.1543631 +22.6708572     2838.521     72.58501      1.450     2.59     4.992485     20.44721     338.0822        28     1.426     0.999 -85.95   0
       207    314.8473    520.6364 300.1053125 +22.6249842      386.588     72.51125      1.371     3.44     4.892531     20.44721     41.35195         5     0.749     0.456  14.98   0
       208    881.9134    514.9891 300.2837535 +22.7932791     378.7767     72.41893      1.608     5.08     4.925025     20.44721     33.40462         8     1.231     0.592  22.05   0
       209    700.6517    513.6635 300.2276839 +22.7386064     282.4634     72.52969      1.452     4.37     5.080502     20.44721      38.1796         9     1.011     0.816  36.22   0
       210    787.2772    507.0024 300.2568423 +22.7626415     450.9049     72.38197      1.342     3.17     4.892886     20.44721     57.03748        10     0.938     0.699   5.45   0
       211    867.1617    504.4430 300.2825774 +22.7858312     1787.596     72.56657      1.452     2.54      4.93293     20.44721     229.6193        22     1.227     0.964  24.08   0
       212    753.7028    504.6425 300.2471440 +22.7519071      403.013     72.47433      1.209     2.56     4.969523     20.44721     43.31142         5     0.720     0.444  18.62   0
       213    738.4626    502.0082 300.2432497 +22.7465853      2527.74     72.41893      1.409     2.80     5.005402     20.44721     312.2992        25     1.185     1.017  -3.54   0
       214    947.7821    499.2289 300.3094124 +22.8084741     449.0413     72.45587      1.842     3.97     5.057779     20.44721     37.97538         7     0.866     0.591  34.55   0
       215    643.2946    498.8003 300.2146397 +22.7171539      474.267     72.34499      1.339     1.98     5.144192     20.44721     77.64599         6     0.675     0.589  19.79   0
       216    525.8391    497.9193 300.1783473 +22.6817068     726.0119      72.4374      1.288     2.68     5.177941     20.44721     105.9729        12     0.962     0.778 -17.31   0
       217    995.7279    496.1648 300.3253638 +22.8219484     1125.594     72.47433      1.469     3.69      5.15799     20.44721     114.4926        17     1.118     1.006 -70.33   0
       218    867.4700    494.3546 300.2859484 +22.7830248      2388.68     72.45587      1.743     3.41     4.965599     20.44721      246.398        29     1.609     1.013  76.23   0
       219    981.4173    495.2139 300.3212080 +22.8173907     889.1461      72.4374      1.556     3.66     5.126952     20.44721     80.31245        12     1.111     0.834 -14.83   0
       220    620.6514    492.9823 300.2094752 +22.7086990     655.5797     72.47433      1.538     2.73     5.146362     20.44721     82.55743         9     0.832     0.730 -49.35   0
       221    905.5771    489.5362 300.2993956 +22.7930513     4385.636     72.45587      1.497     2.77     5.005322     20.44721     526.9655        33     1.193     1.150 -68.71   0
       222    459.3337    491.1361 300.1598461 +22.6598282     336.3311     72.52969      1.251     2.82     4.969974     20.44721      52.0444         7     0.729     0.655  80.11   0
       223    546.2198    489.2937 300.1874929 +22.6853375     267.8746     72.40045      1.199     3.87      5.24622     20.44721     42.78939         7     0.945     0.662   5.86   0
       224    406.6356    492.0091 300.1431621 +22.6442839      331.027     72.47433      1.308     4.34     4.889598     20.44721     41.03213         7     0.795     0.674 -81.20   0
       225    643.3833    486.2986 300.2187255 +22.7135900     398.3477     72.38197      1.481     3.84     5.146241     20.44721     45.15372         6     1.043     0.451  -4.84   0
       226    565.9375    485.7859 300.1947713 +22.6902386     469.0709      72.4374      1.631     4.70     5.214731     20.44721     47.79721         7     1.124     0.612  -7.58   0
       227    997.3358    480.1265 300.3310717 +22.8178200     593.9561     72.51125      1.319     3.44     5.153264     20.44721     66.02762        12     1.010     0.847  10.11   0
       228    137.5760    479.6179 300.0635068 +22.5600593     955.4995     72.45587      1.644     3.13     5.027822     20.44721     113.2556        17     1.127     1.008  32.63   0
       229    798.1356    473.8996 300.2709724 +22.7563834     288.4773     72.56657      1.531     5.24     4.901986     20.44721     39.97101         8     1.077     0.893  19.00   0
       230    130.1325    470.0363 300.0643030 +22.5550782     399.1721     72.47433      1.328     4.25     5.019772     20.44721     52.77896         8     0.990     0.690 -16.20   0
       231    784.4296    464.6056 300.2697168 +22.7496083     189.3897     72.47433      1.541     3.42     4.910312     20.44721     27.26721         5     1.064     0.318  21.46   0
       232    737.6986    463.6470 300.2554635 +22.7353366     435.0122     72.51125      1.407     4.97     4.979458     20.44721     68.48119         9     1.206     0.730 -77.24   0
       233    347.0203    462.4045 300.1342221 +22.6179164     141.8585      72.4374      1.209     3.46     5.009807     20.44721     33.34584         5     0.866     0.490  -1.48   0
       234    626.7593    461.6292 300.2215544 +22.7015244     371.8704     72.49279      1.253     3.26     5.098711     20.44721     46.16848         5     0.735     0.452  17.08   0
       235    679.0452    459.9253 300.2383955 +22.7166984     850.4077     72.45587      1.341     2.86     5.059668     20.44721     105.7667        12     0.950     0.791  51.04   0
       236    993.4783    452.7831 300.3387436 +22.8088057     484.7571     72.47433      1.250     2.53     4.973471     20.44721     72.23368        10     0.890     0.702  34.26   0
       237    739.9932    451.9634 300.2599707 +22.7326673     833.5255     72.47433      1.329     3.65     4.957695     20.44721     99.39228        12     0.956     0.867 -65.43   0
       238    896.8964    448.6563 300.3099576 +22.7787041     1056.014     72.56657      1.390     2.73     4.897455     20.44721     125.7244        14     0.962     0.858 -48.08   0
       239    881.2065    445.0105 300.3062482 +22.7729585     531.6738     72.34499      1.232     2.22     4.890686     20.44721     93.77863         9     0.769     0.713  14.59   0
       240    861.6680    445.1676 300.3001047 +22.7671533     334.0697     72.47433      1.465     2.98     4.896656     20.44721     45.19675         7     0.812     0.622  66.03   0
       241    625.5609    442.7566 300.2273062 +22.6957448     3285.823     72.56657      1.307     2.40     5.051384     20.44721     465.0286        22     1.086     0.947  85.53   0
       242    985.9869    441.8578 300.3399524 +22.8034227     468.2662      72.4374      1.380     3.50     4.897965     20.44721     58.80014        10     0.942     0.738  56.96   0
       243    101.5640    434.1804 300.0670602 +22.5362240     348.6447     72.49279      1.354     4.18     4.980313     20.44721     50.56997         7     1.090     0.457 -43.79   0
       244    465.2777    429.6399 300.1816549 +22.6439536     382.8328     72.45587      1.320     3.10      5.16503     20.44721     60.45666         7     0.978     0.680  60.21   0
       245    397.1536    429.9089 300.1603661 +22.6236149     335.2677     72.45587      1.569     4.44     5.180733     20.44721     37.44473         5     0.793     0.705  79.89   0
       246    908.5798    421.7098 300.3223464 +22.7744578     523.5352     72.41893      1.384     3.37     4.785798     20.44721     66.87973         9     0.880     0.769 -18.63   0
       247    995.3624    420.8285 300.3497022 +22.8001841     928.9832     72.49279      1.481     3.07      4.76995     20.44721     110.1017        17     1.157     0.888  10.05   0
       248    645.2903    418.7425 300.2412449 +22.6947574     202.8559     72.52969      1.170     2.83      4.96028     20.44721     53.55079         6     0.743     0.619  40.60   0
       249    531.7765    417.4183 300.2063226 +22.6603700     396.7161     72.47433      1.248     2.81     5.047473     20.44721      66.0742         9     0.942     0.651  35.21   0
       250    736.3098    416.7311 300.2702568 +22.7214420     1111.572     72.62186      1.310     2.28      4.90756     20.44721     168.0586        16     1.033     0.875 -36.40   0
       251    240.2407    414.8669 300.1164368 +22.5722626     562.2551      72.4374      1.385     3.38     5.101593     20.44721     91.68845        11     1.031     0.737  24.99   0
       252     80.1440    413.1505 300.0672275 +22.5237670     370.5451     72.51125      1.340     5.20     4.928414     20.44721     36.88495         8     1.236     0.618 -65.53   0
       253    302.4362    410.4095 300.1372261 +22.5896277      3787.18     72.47433      1.447     2.60     5.155051     20.44721     517.8938        28     1.204     1.052  44.65   0
       254    249.6730    405.2166 300.1225012 +22.5723206     7743.202     72.47433      1.477     2.84     5.130836     20.44721     865.4678        37     1.230     1.162  43.56   0
       255   1015.7180    400.3746 300.3626906 +22.8003970     1894.547     72.45587      1.517     2.91     4.744229     20.44721     221.6647        23     1.170     1.062 -59.61   0
       256    390.5218    399.4868 300.1681740 +22.6128933     4876.286     72.62186      1.316     2.32     5.277964     20.44721     724.3716        29     1.092     1.050  38.44   0
       257    634.6728    396.3133 300.2452156 +22.6851341     18710.96     72.60344      1.327     2.44     4.993087     20.44721     2554.774        51     1.228     1.137  30.78   0
       258    651.5190    397.3996 300.2501108 +22.6904922     489.8582     72.34499      1.155     2.93     4.938428     20.44721      73.5589         9     0.926     0.711  -5.97   3
       259    653.0392    395.3494 300.2512497 +22.6903586     603.1239     72.49279      1.567     3.70     4.934711     20.44721      51.9115         8     0.929     0.677  12.55   3
       260    481.7711    397.5768 300.1971930 +22.6396891     292.0301     72.47433      1.638     3.36     5.238085     20.44721     32.25814         5     0.763     0.429  22.88   0
       261    261.8250    394.5242 300.1297494 +22.5728945     200.9581     72.49279      1.071     2.22     5.160079     20.44721      44.4849         5     0.697     0.456  22.73   0
       262    494.0169    393.5449 300.2023133 +22.6422005     319.4389     72.45587      2.025     4.67     5.213774     20.44721     31.67986         6     1.362     0.454  -9.14   0
       263    831.4012    386.9047 300.3095751 +22.7413472     350.1001     72.38197      1.279     2.74     4.809165     20.44721     51.51687         7     0.845     0.570 -10.20   0
       264    254.9055    383.2885 300.1312430 +22.5675954      413.271      72.6587      1.479     4.12      5.19517     20.44721     48.75522         7     0.781     0.642   6.76   0
       265    968.3601    379.1060 300.3548171 +22.7801074     742.2576     72.49279      1.500     3.53     4.744229     20.44721     80.08887        13     1.098     0.924 -87.97   0
       266    505.1766    378.4013 300.2107009 +22.6411952     216.0098     72.41893      1.037     2.80     5.221803     20.44721      35.2494         5     0.721     0.455  19.03   0
       267    678.0571    377.4498 300.2648514 +22.6927097      224.389     72.52969      1.205     3.30      4.83782     20.44721     48.87066         6     0.814     0.646  33.45   0
       268    189.3800    376.2884 300.1131396 +22.5459431     2229.362     72.41893      1.547     2.74     5.176849     20.44721     259.5481        26     1.201     1.086  10.31   0
       269    989.0584    366.2428 300.3654478 +22.7826047     1265.032     72.45587      1.467     3.01     4.744229     20.44721     153.3289        19     1.084     0.973  21.16   0
       270    575.3660    365.6986 300.2366770 +22.6585746     6519.449     72.45587      1.317     2.31     5.165821     20.44721     908.7797        34     1.145     1.059  58.91   0
       271    290.4200    364.9471 300.1482386 +22.5729759     622.2094     72.45587      1.275     3.01     5.248738     20.44721     77.63027         9     0.811     0.769  26.59   0
       272    148.0025    358.0984 300.1061778 +22.5283177     505.3038     72.38197      1.469     4.89     5.145283     20.44721     59.52057        10     1.251     0.714  45.81   0
       273    836.2755    356.8692 300.3208397 +22.7341744     403.1651     72.54813      1.808     6.47     4.805719     20.44721     42.91643         9     1.617     0.726 -46.69   0
       274    689.2229    355.9591 300.2753027 +22.6898794     568.2158     72.51125      1.227     3.34     4.804417     20.44721     81.28502        12     1.061     0.820 -70.05   0
       275    779.5732    354.8536 300.3038176 +22.7166178     1129.709     72.49279      1.356     2.47     4.802246     20.44721     164.7953        16     0.993     0.895  66.40   0
       276    482.0190    351.9649 300.2120684 +22.6266647     6278.021     72.49279      1.354     2.51     5.321616     20.44721     842.4161        33     1.153     1.062  75.74   0
       277    971.6329    346.7435 300.3663379 +22.7717831     636.5274     72.49279      1.417     2.69     4.754247     20.44721      89.0592        11     0.873     0.809 -57.18   0
       278    466.7936    340.6970 300.2109842 +22.6188671     454.1054     72.38197      1.246     2.51     5.312579     20.44721     67.06184         9     0.864     0.639 -72.87   0
       279    549.3943    338.8281 300.2373064 +22.6430762     428.5483     72.47433      1.300     2.56     5.206783     20.44721     65.52687         7     0.804     0.589  51.24   0
       280    529.8203    336.4370 300.2319873 +22.6365257     380.8573     72.49279      1.994     3.30     5.228474     20.44721     36.24949         5     0.735     0.456 -19.78   0
       281    846.8715    334.1669 300.3315083 +22.7308216     503.7978     72.47433      1.495     3.62     4.776426     20.44721     58.54693        12     1.022     0.872 -49.35   0
       282    874.0196    346.5328 300.3359616 +22.7425033     1410.548      72.4374      1.333     2.50     4.791363     20.44721     210.7444        19     1.194     0.863  39.23   0
       283    369.5590    331.2224 300.1837976 +22.5870113     2439.048     72.51125      1.304     2.44     5.310642     20.44721     331.3092        21     1.039     0.959  70.81   0
       284     87.9386    328.5538 300.0970935 +22.5018312     1140.982     72.49279      1.720     3.40     5.201294     20.44721     118.4751        17     1.149     0.954  40.97   0
       285    338.8786    320.5536 300.1777128 +22.5747541     30145.12     72.47433      1.421     2.58     5.304993     20.44721     4131.441        61     1.279     1.168  56.02   0
       286    873.5988    318.2793 300.3449958 +22.7342559     1329.163     72.36349      1.350     2.42      4.72918     20.44721     175.6055        16     0.981     0.845  46.17   0
       287    828.9816    316.2812 300.3317325 +22.7203249     437.8376     72.45587      1.563     2.42     4.764962     20.44721     43.64177         5     0.767     0.469 -58.51   0
       288     35.1651    308.3192 300.0872584 +22.4802016      5038.47     72.41893      1.642     3.05     5.315117     20.44721     592.1747        36     1.354     1.225  29.36   0
       289    832.4125    307.3352 300.3357040 +22.7187806     147.6259     72.41893      1.051     3.33     4.751554     20.44721     38.38076         5     0.791     0.693 -42.29   0
       290    788.8265    307.1510 300.3221762 +22.7056789     549.5244     72.49279      1.182     2.63     4.864459     20.44721     83.52621         8     0.850     0.645  27.69   0
       291    212.8000    306.8692 300.1429390 +22.5330389      602.122     72.41893      1.659     3.73     5.366879     20.44721     58.30603        11     1.021     0.826  20.86   0
       292    437.7856    306.0813 300.2131835 +22.6002347     480.7763     72.45587      1.135     2.86     5.298438     20.44721     99.95039         8     1.065     0.495 -32.89   0
       293    749.4913    300.3327 300.3121276 +22.6919422     2082.546     72.60344      1.429     2.69     5.141587     20.44721     248.6989        22     1.128     1.062 -78.95   0
       294    557.8345    295.1201 300.2541118 +22.6330489     352.1743     72.41893      1.215     3.09     5.223977     20.44721     47.01004         6     0.767     0.545 -40.05   0
       295    964.5401    293.4254 300.3814209 +22.7543305     657.1243     72.47433      1.353     3.30     4.819503     20.44721     83.24506        13     1.080     0.849 -61.79   0
       296    411.0419    284.8491 300.2117466 +22.5861245     2228.483     72.49279      1.566     3.74     5.310539     20.44721     226.9305        28     1.457     0.985  56.23   0
       297    623.6646    283.9371 300.2782411 +22.6495524      250.081     72.51125      1.269     3.43     5.302708     20.44721     36.54935         5     0.982     0.346 -45.16   0
       298    842.5918    279.1517 300.3480187 +22.7137265     347.6466     72.49279      1.429     2.94     4.818351     20.44721     56.81364         6     0.891     0.626 -10.94   0
       299    850.6033    277.8496 300.3509390 +22.7157503     786.6255     72.47433      1.537     3.35     4.815474     20.44721     86.24389        15     1.036     0.974  16.95   0
       300    749.6694    275.7248 300.3201642 +22.6849232     260.1454     72.54813      1.346     2.86     5.246253     20.44721     38.45411         5     0.721     0.455  77.87   0
       301    732.9065    275.6118 300.3149768 +22.6798719     347.5267     72.41893      1.174     4.12     5.327577     20.44721     62.84313         7     1.078     0.586 -48.23   0
       302    700.7501    274.9597 300.3051678 +22.6700563     345.1953     72.49279      1.320     2.82     5.316995     20.44721     49.24029         6     0.855     0.525  -1.27   0
       303    524.4180    269.6436 300.2519691 +22.6157210     118.8344     72.49279      0.895     3.49     5.210839     20.44721     29.71653         5     1.046     0.336  68.65   0
       304    486.9230    264.4538 300.2419788 +22.6029989     1059.519     72.51125      1.265     2.66     5.240907     20.44721     153.7825        15     0.956     0.873  15.80   0
       305    227.4939    259.3763 300.1629098 +22.5238092      280.477     72.40045      1.256     3.37     5.401662     20.44721     46.50525         5     0.740     0.453  68.74   0
       306    731.8790    256.3693 300.3208969 +22.6740339     2223.057     72.47433      1.323     2.46     5.359405     20.44721     306.0939        20     1.011     0.956  59.17   0
       307    993.2050    250.7324 300.4042097 +22.7506321     3186.912     72.45587      1.491     2.74     5.191915     20.44721      419.611        30     1.191     1.138 -26.35   0
       308    440.3206    239.9578 300.2354161 +22.5820026     663.9004     72.45587      1.366     2.57     5.294245     20.44721      93.0489        11     0.891     0.785 -50.78   0
       309    114.9857    234.1830 300.1361025 +22.4828556     1354.551     72.41893      1.740     3.71     5.450535     20.44721     115.9748        22     1.253     1.180  89.52   0
       310    145.4814    234.1705 300.1455852 +22.4919928      581.364     72.49279      1.464     3.56     5.429845     20.44721     63.18998        11     1.012     0.723  21.07   0
       311   1009.1809    231.3087 300.4154928 +22.7498264     471.9822     72.40045      1.412     5.52     5.335046     20.44721     59.33109        10     1.439     0.645  39.75   0
       312    863.4239    231.3893 300.3700031 +22.7062310     175.6741     72.47433      1.172     3.35     5.337416     20.44721     34.82595         5     1.051     0.309 -22.06   0
       313    198.7148    226.1080 300.1647483 +22.5056331     552.1511     72.64028      1.590     5.21     5.409853     20.44721     63.42746        11     1.122     0.814  55.47   0
       314    579.6028    225.9650 300.2833168 +22.6196999     718.4232     72.47433      0.623     0.73     5.210451     20.44721     400.3019         5     0.492     0.342  -7.72   0
       315    994.0961    223.9019 300.4131881 +22.7431826     391.7504      72.6587      1.414     4.08     5.372791     20.44721     52.62083         6     1.155     0.435  51.79   0
       316    875.2109    220.4343 300.3772308 +22.7066090     315.5934     72.45587      1.232     4.10      5.40224     20.44721     52.73696         7     0.992     0.543 -27.19   0
       317    803.4806    217.8582 300.3557018 +22.6843989     653.4769     72.51125      1.356     2.37     5.424315     20.44721     91.77158        10     0.869     0.724  13.65   0
       318    393.7307    217.3524 300.2282462 +22.5615528     402.7096     72.45587      1.413     3.16     5.319273     20.44721     53.62468         5     0.795     0.486 -47.27   0
       319    901.6857    206.8012 300.3899073 +22.7106122     2063.481     72.38197      1.414     2.71     5.395489     20.44721     276.4416        20     1.070     1.001 -85.70   0
       320    320.1176    203.8855 300.2097090 +22.5356310     2154.614     72.62186      1.395     2.58     5.347256     20.44721     260.9807        26     1.174     1.064  68.17   0
       321    398.0544    199.0158 300.2355365 +22.5575812     1121.747      72.4374      1.468     3.29     5.304657     20.44721     114.2147        16     1.021     0.976  79.66   0
       322    800.0146    198.5214 300.3608908 +22.6778025     618.8931     72.49279      1.222     2.51     5.436162     20.44721     81.22154         8     0.718     0.712  23.18   0
       323    150.2223    199.4000 300.1583316 +22.4834323     245.7608     72.38197      1.212     3.55     5.483512     20.44721     43.75884         5     0.843     0.432  18.62   0
       324    907.2808    195.5470 300.3953011 +22.7090504     356.4148     72.49279      1.376     4.23     5.399989     20.44721     46.94178         8     0.993     0.667 -34.06   0
       325    445.5438    195.9043 300.2513248 +22.5709127     244.3405     72.54813      1.381     4.32     5.255486     20.44721     35.10997         5     0.797     0.666  16.37   0
       326    214.8821    191.3295 300.1810502 +22.5004930     804.9503     72.58501      1.383     2.68     5.413009     20.44721     100.6012        12     0.890     0.839 -34.87   0
       327    332.7675    190.6524 300.2179343 +22.5356205     273.2397     72.49279      1.243     3.39     5.347118     20.44721     32.46145         5     0.757     0.440  17.13   0
       328    752.7834    188.1760 300.3495229 +22.6606907     1604.563     72.47433      1.350     2.58     5.444149     20.44721     211.3174        21     1.094     0.978  77.86   0
       329     67.5816    189.2290 300.1359444 +22.4557428     222.6173     72.45587      1.564     5.23     5.951998     20.44721     38.92648         5     1.089     0.711 -35.73   0
       330    817.4996    187.7007 300.3698497 +22.6799250     629.0588     72.71392      1.407     3.67     5.435672     20.44721     96.18644         9     1.138     0.684  76.66   0
       331    236.5584    184.4921 300.1900070 +22.5050251     555.6896     72.47433      1.441     3.95     5.403382     20.44721     64.81389        10     1.014     0.816 -66.41   0
       332   1023.5885    180.7319 300.4363869 +22.7395901     526.1903      56.9241      1.159     3.25     5.496565     20.44721     114.6506         8     1.004     0.472  80.99  24
       333    526.1824    180.9653 300.2812711 +22.5907723     412.0376     72.47433      1.241     2.92     5.180373     20.44721     53.80233         5     0.940     0.391 -25.74   0
       334    757.1691    179.8347 300.3535939 +22.6596056     861.8821     72.49279      1.441     3.00     5.449473     20.44721     128.2584        12     1.104     0.690  -0.54   0
       335    677.3732    178.9547 300.3290133 +22.6354652     1185.117     72.49279      1.326     2.55     5.403892     20.44721      163.489        16     1.037     0.852 -49.71   0
       336    498.6877    175.6491 300.2744342 +22.5810107      300.524     72.47433      1.134     3.46     5.187308     20.44721     57.75568         7     0.905     0.668   9.42   0
       337    872.8503    170.4753 300.3926919 +22.6915375      1436.45     72.47433      1.382     2.80     5.418025     20.44721     201.3947        20     1.102     0.990  53.27   0
       338    603.7471    170.7079 300.3087509 +22.6110513     967.6629     72.52969      1.341     2.34     5.287352     20.44721     150.0368        13     1.001     0.771 -63.05   0
       339    884.8765    169.5357 300.3967467 +22.6948661      785.701     72.54813      1.360     3.02     5.417085     20.44721     107.2708        13     1.047     0.784  88.27   0
       340    931.0323    168.5441 300.4114632 +22.7083924     298.1871     72.49279      1.173     3.71     5.416872     20.44721     40.75789         6     0.799     0.495   5.39   0
       341   1001.6467    159.9718 300.4362707 +22.7270543     1135.973     72.51125      1.476     2.72     5.528734     20.44721     129.4199        17     1.024     0.965  14.59   0
       342     25.5547    156.4840 300.1335001 +22.4337464      425.031     72.45587      1.313     2.65     6.143891     20.44721     58.42874         6     0.831     0.469 -14.48   0
       343    235.5193    152.7138 300.1999846 +22.4955886     748.4492     72.62186      1.544     2.81     5.459215     20.44721     82.62984        12     0.872     0.869  86.42   0
       344     97.4600    147.4401 300.1587746 +22.4527025     2071.595     72.47433      1.603     3.46     6.083871     20.44721     257.4937        28     1.296     1.139  59.57   0
       345    920.8085    144.8193 300.4159649 +22.6985101     635.2743      72.4374      1.281     2.81     5.525143     20.44721     110.1062        11     0.925     0.787  76.87   0
       346    254.8415    140.7856 300.2098595 +22.4979524     5703.886     72.49279      1.481     2.89      5.54561     20.44721     705.4607        39     1.310     1.145  72.01   0
       347     38.9169    135.0607 300.1445949 +22.4316023      1322.66     72.58501      1.696     4.16     6.133243     20.44721     120.3957        21     1.332     1.146  16.93   0
       348    238.1276    131.6827 300.2076120 +22.4903306     640.6285     72.60344      1.544     3.38     5.591558     20.44721     76.79585        14     1.057     0.920 -55.26   0
       349    899.1158    122.5055 300.4164319 +22.6856020     3716.502      72.6587      1.463     2.78     5.584251     20.44721     488.1902        27     1.220     1.086 -51.68   0
       350    448.3961    117.5924 300.2775965 +22.5492685     723.0086       72.308      1.466     3.94     5.295444     20.44721     80.37062        12     1.064     0.812  67.18   0
       351    201.3835    118.5532 300.2004415 +22.4755508     406.4559     72.51125      1.466     3.84     5.732053     20.44721     39.89697         7     0.987     0.488   6.24   0
       352    562.8413    115.6054 300.3138714 +22.5829676      276.858     72.49279      0.989     3.37     5.332243     20.44721     39.43441         5     0.753     0.436  21.17   0
       353    372.7157    109.6275 300.2566253 +22.5243139     695.3112     72.47433      1.422     4.46     5.564957     20.44721     87.85949        14     1.272     0.849 -54.84   3
       354    376.4397    107.9254 300.2583357 +22.5249403     644.8176      72.4374      1.794     3.87     5.557897     20.44721     60.00217        11     1.049     0.863 -62.21   3
       355   1002.6620    121.3903 300.4490933 +22.7162600     2898.341     72.40045      1.606     2.61     5.753081     20.44721     340.5202        31     1.297     1.190 -86.44   0
       356    138.5823    106.4615 300.1848362 +22.4532609     559.7142     72.41893      1.556     4.33     6.033217     20.44721     62.11152        10     1.104     0.808  16.23   0
       357    499.7775    105.0935 300.2976418 +22.5610638     1764.581     72.38197      1.356     2.45      5.30949     20.44721      240.541        22     1.111     0.972  34.30   0
       358    427.5711    105.2479 300.2751153 +22.5394850     532.2161     72.49279      1.647     3.84     5.327115     20.44721     81.06545         8     1.073     0.621  53.72   0
       359    243.0308    100.3824 300.2192803 +22.4828104     319.8586     72.45587      1.226     3.05     5.803211     20.44721     63.78801         7     0.865     0.588  31.44   0
       360    788.1855     94.1079 300.3910479 +22.6442413     246.2679     72.40045      1.336     4.56     5.514869     20.44721     36.42067         7     0.867     0.681  43.42   0
       361    933.6285     88.5265 300.4382084 +22.6861547     366.1325     72.49279      1.347     3.39      5.89701     20.44721     35.23623         5     1.085     0.307  69.00   0
       362    273.8148     84.6443 300.2339540 +22.4875124     5910.872     72.49279      1.509     2.77     5.913752     20.44721     772.3582        39     1.311     1.164  56.29   0
       363    780.4925     85.3884 300.3914756 +22.6394318     331.0117     72.41893      1.106     3.10     5.597384     20.44721     54.89582         5     0.748     0.435 -66.17   0
       364    125.3058     84.1632 300.1879349 +22.4428799     616.0403     72.45587      1.289     3.10     6.190288     20.44721     75.00756        11     0.993     0.766 -78.83   0
       365    903.5455     82.4020 300.4308103 +22.6753930     455.1989     72.40045      1.848     3.70       5.7801     20.44721     41.25946         7     0.858     0.661 -25.21   0
       366    578.1754     79.9324 300.3302071 +22.5773058     1454.485     72.45587      0.474     1.86     5.490276     20.44721     1055.822         5     0.416     0.264 -31.51   0
       367    245.7474     78.8315 300.2271084 +22.4774347     334.7059     72.49279      1.272     2.43       5.8802     20.44721     54.30003         7     0.823     0.576 -62.13   0
       368    288.9397     76.3395 300.2413493 +22.4896577     267.4591     72.51125      1.332     4.23     5.952855     20.44721      52.5691         5     1.117     0.458   6.86   0
       369     35.5353     75.6568 300.1627938 +22.4135358     510.9823     72.52969      1.745     3.91     6.045593     20.44721     43.90128         7     1.006     0.656  -7.30   0
       370    519.9464     70.0651 300.3152721 +22.5570365     6218.805     72.51125      1.395     2.88     5.469649     20.44721     754.2545        32     1.217     1.075  70.33   0
       371    405.3124     69.7585 300.2796881 +22.5226222     748.7035     72.47433      1.510     3.62      5.58356     20.44721     85.31318        13     1.103     0.948 -87.79   0
       372    577.4567     64.9361 300.3348425 +22.5727803     371.7281     72.52969      1.476     2.79     5.543909     20.44721     60.60894         5     0.850     0.492 -41.02   0
       373    772.3919     60.4378 300.3970355 +22.6298330     912.5299     72.49279      1.821     4.56     5.788247     20.44721     83.23216        15     1.354     0.892 -78.40   0
       374    864.9490     58.9905 300.4263602 +22.6571117     481.4327     72.47433      1.441     2.89     5.756664     20.44721     88.09897         8     1.040     0.658  36.78   0
       375     83.7850     56.4217 300.1840187 +22.4224726      363.558     72.45587      1.349     4.11     6.290027     20.44721     32.02778         7     1.014     0.475   8.63   0
       376    212.9524     53.7849 300.2250255 +22.4604163     513.1138     72.51125      1.411     1.99     6.016949     20.44721     77.88213         7     0.736     0.581  15.33   0
       377    571.4637     52.8593 300.3368891 +22.5675148     399.1945     72.51125      1.352     3.53     5.582942     20.44721     58.99545        11     1.128     0.660  33.79   0
       378    648.3236     50.1765 300.3616987 +22.5897510     6222.402     72.49279      1.405     2.56     5.749501     20.44721     801.1317        35     1.285     1.078  88.87   0
       379    423.2104     49.1507 300.2919352 +22.5220606     1409.822     72.49279      1.375     3.06     5.648161     20.44721     168.0769        19     1.069     0.985  72.99   0
       380    689.3643     47.6279 300.3753111 +22.6013020     1001.972     72.49279      1.358     2.55     5.805466     20.44721     135.6934        16     1.144     0.835  51.82   0
       381    759.4534     45.7291 300.3977685 +22.6217315     387.5276     72.47433      1.475     2.60     5.825724     20.44721      45.9168         5     0.711     0.441 -65.61   0
       382    705.4503     43.7316 300.3815858 +22.6049960     548.8288     72.47433      1.244     2.70     5.788935     20.44721     91.66562        11     0.988     0.697  29.57   0
       383    975.0574     41.3785 300.4664094 +22.6849846      482.128     72.49279      1.335     3.53     5.904639     20.44721     80.94915         9     1.015     0.691  78.63   0
       384    743.7750     39.5373 300.3948881 +22.6152593      634.819     72.45587      1.577     3.92     5.768115     20.44721     60.38451        11     1.012     0.843 -81.06   0
       385    171.9183     41.2413 300.2163312 +22.4445204     715.0562      72.4374      1.749     4.30     6.377933     20.44721     78.07511        14     1.336     0.847  15.24   0
       386    692.5560     35.1432 300.3803505 +22.5986676     2832.135     72.47433      1.403     2.66     5.869302     20.44721     349.7478        29     1.214     1.089  83.40   0
       387    333.3068     35.8852 300.2682578 +22.4913253     400.6262      72.6587      1.201     2.54     6.001013     20.44721     66.57965         7     0.788     0.707  10.39   0
       388    707.3972     33.9615 300.3853579 +22.6027694     821.5969     72.51125      1.695     4.60     5.833576     20.44721     80.50233        15     1.394     0.747  40.90   0
       389    779.0767     26.7189 300.4100441 +22.6221367     1779.311     72.58501      1.553     2.63     6.104179     20.44721     219.4523        22     1.137     1.041 -34.40   0
       390    939.4611     25.5968 300.4604183 +22.6697968     209.5713     72.45587      1.334     3.89      5.94486     20.44721     33.00256         5     0.989     0.439 -14.34   0
       391    717.0688     20.1971 300.3928310 +22.6017059     713.3058      72.4374      1.317     2.32     5.866937     20.44721     103.4666        10     0.810     0.736  68.25   0
       392    522.8500     19.3924 300.3325935 +22.5433419     1100.157     72.47433      1.381     2.56     5.736209     20.44721     118.2966        18     1.079     0.870  -3.31   0
       393     95.6192     19.3581 300.1997036 +22.4153761     662.6888     72.49279      1.743     2.62      6.58577     20.44721     68.37083         9     0.923     0.623  -8.73   0
       394    426.4882     17.4922 300.3032117 +22.5139448     804.2132     72.64028      1.388     2.46     5.847175     20.44721     97.87627        12     0.857     0.820 -83.44   0
       395    808.6082     16.3655 300.4226041 +22.6279952     330.2995     72.47433      0.981     2.44     6.364074     20.44721     66.82938         6     0.808     0.481  -0.87   0
       396    321.7709   1015.6131 299.9466185 +22.7690274     1429.699     72.47433      2.179     5.27     10.92389     20.44721     80.12836        27     1.437     1.327  61.90  16
       397    155.8064   1012.2520 299.8961107 +22.7182469     915.8727     72.47433      2.472     7.95     94.97085     20.44721      46.4231        14     1.786     0.990  75.03   3
       398    158.4005   1009.3573 299.8978585 +22.7181962     726.2802     72.47433     -0.360    14.04     92.82388     20.44721     40.16125        23     2.669     2.054 -58.79  19
