#   1 NUMBER                 Running object number                                     
#   2 X_IMAGE                Object position along x                                    [pixel]
#   3 Y_IMAGE                Object position along y                                    [pixel]
#   4 ALPHA_J2000            Right ascension of barycenter (J2000)                      [deg]
#   5 DELTA_J2000            Declination of barycenter (J2000)                          [deg]
#   6 FLUX_APER              Flux vector within fixed circular aperture(s)              [count]
#   7 FLUXERR_APER           RMS error vector for aperture flux(es)                     [count]
#   8 FLUX_RADIUS            Fraction-of-light radii                                    [pixel]
#   9 FWHM_IMAGE             FWHM assuming a gaussian core                              [pixel]
#  10 BACKGROUND             Background at centroid position                            [count]
#  11 THRESHOLD              Detection threshold above background                       [count]
#  12 FLUX_MAX               Peak flux above background                                 [count]
#  13 ISOAREA_IMAGE          Isophotal area above Analysis threshold                    [pixel**2]
#  14 A_IMAGE                Profile RMS along major axis                               [pixel]
#  15 B_IMAGE                Profile RMS along minor axis                               [pixel]
#  16 THETA_IMAGE            Position angle (CCW/x)                                     [deg]
#  17 FLAGS                  Extraction flags                                          
         1    385.5804     13.7455 300.3033920 +22.5139119     812.2101     72.52534      1.614     3.62     7.036174     20.46681     94.62548        15     1.137     0.906 -29.63   0
         2    156.6459      3.5376 300.2354513 +22.4424667     3845.693     67.35043      1.808     3.45     7.535772     20.46681      378.272        36     1.458     1.310  22.95  24
         3    724.7733      4.7145 300.4120103 +22.6127607     496.0254     71.20099      1.375     3.51      7.51258     20.46681     66.66934        10     1.032     0.728 -29.03  16
         4    280.6997   1011.8692 299.9466769 +22.7692596     625.8293     72.63615      1.819     6.33     16.19549     20.46681     59.49385        16     1.501     1.087  58.41   0
         5     71.3698   1011.0778 299.8818279 +22.7062457     5579.258     72.52534     16.532    76.03     72.51124     20.46681     174.7912      2126    17.354    11.439  40.37  27
         6     64.2574    952.7436 299.8985927 +22.6873803     5938.524     72.61769     28.575   127.80      33.2639     20.46681     1253.708      4745    23.012    19.693 -51.61  19
         7    130.6300   1004.6763 299.9023357 +22.7221867     230.6242     72.52534      1.737     5.02     87.01209     20.46681     35.96857         5     0.978     0.783 -83.02   0
         8    216.5040   1000.2100 299.9304973 +22.7466623     729.9875     72.46986      2.488     8.41     76.39781     20.46681     51.50597        13     1.728     1.143  -3.23   0
         9    337.8811    998.8958 299.9686930 +22.7826831     531.7766     72.69149      3.191     5.24     5.644562     20.46681     37.64819         7     1.262     0.616 -64.29   0
        10    531.9592    991.4219 300.0315566 +22.8387180     2448.512     72.58076      2.157     5.16       5.4078     20.46681     128.9574        37     1.576     1.461  10.42   0
        11    618.6995    987.1143 300.0599839 +22.8634762     8615.213     72.70992      2.256     6.04     5.222778     20.46681     381.3521        53     1.852     1.526  10.52   3
        12    624.1511    984.7203 300.0624617 +22.8644224     9611.167     72.54382      2.289     7.26     5.219034     20.46681     455.0945        60     1.982     1.638   8.61   3
        13    717.8916    987.9879 300.0906180 +22.8934481     581.1077     72.48836      1.990     6.49     5.363546     20.46681     34.49976        11     1.279     0.924  66.17   0
        14    149.1921    966.3721 299.9205686 +22.7167661     1069.273     72.54382      7.359     8.90     52.77577     20.46681     52.40903        17     1.957     1.129  27.91   3
        15    152.2857    978.5063 299.9175836 +22.7211751     2144.183     72.72836      5.050    15.36     64.18787     20.46681     49.59959        61     2.782     2.357  58.57   3
        16    150.6629    971.9037 299.9192267 +22.7187941     1395.316     72.63615      5.754    10.25     58.04289     20.46681     51.92532        23     1.915     1.530  72.61   3
        17    332.9413    973.4700 299.9754270 +22.7739050     377.1076     72.56229      1.983     4.16     5.577603     20.46681      38.4402         5     1.499     0.330  40.09   0
        18    913.4430    971.5425 300.1569614 +22.9472980     416.8423     72.50685      1.518     3.41     5.328336     20.46681     41.00127         5     1.094     0.308 -68.79   2
        19    910.1998    970.2554 300.1563681 +22.9459569     631.3344     72.45137      2.520     7.51      5.32624     20.46681     40.12665        12     1.606     0.983  75.76   2
        20    116.3249   1006.9594 299.8971448 +22.7185505     1488.039     72.52534      2.935    11.62      88.7678     20.46681     60.16711        41     2.863     1.316 -46.75  18
        21    119.9742   1008.7490 299.8976973 +22.7201585     483.1215     72.56229      1.700     3.85     90.52351     20.46681     35.37991         5     1.550     0.274 -49.60   3
        22    187.4517   1002.8152 299.9206128 +22.7386963     1942.769     72.54382      4.642    24.14     82.41701     20.46681     55.18763       110     4.758     3.402 -15.11  19
        23    133.7233   1008.3694 299.9020962 +22.7241740     558.6824     72.52534      1.729     5.55     89.64565     20.46681     37.42518         9     1.391     0.941 -37.51   0
        24    636.7606    953.8306 300.0764404 +22.8593296     6987.816     72.54382      2.169     5.25     5.162164     20.46681     332.4246        56     1.698     1.588  27.30   0
        25    161.7948   1006.6971 299.9113701 +22.7321145     1248.611     72.45137      3.298    12.88     88.66119     20.46681     44.09415        33     3.042     1.517   1.07  19
        26    157.3245    997.5571 299.9129533 +22.7281516     3261.994     72.52534      6.531    25.40     80.86711     20.46681     82.11359       199     5.002     4.246   0.92  19
        27    149.6025    950.0545 299.9260039 +22.7122077     1062.679     72.48836      6.392     7.93      38.7301     20.46681     35.34205        11     1.750     1.005 -58.95   0
        28    545.1743    944.4235 300.0509624 +22.8291838     1580.934     72.50685      1.960     4.98      5.08524     20.46681     91.35849        28     1.486     1.287  46.12   0
        29    229.1332    948.4482 299.9512641 +22.7355978    -215.3918     72.54382      0.953     3.42     26.34573     20.46681     39.26271         5     0.750     0.450  20.57   0
        30    438.9141    940.8157 300.0190399 +22.7963007      1041.76     72.50685      2.080     8.02      5.04943     20.46681     71.79203        23     1.428     1.282  80.28   0
        31    369.6029    938.8632 299.9980955 +22.7749634     6699.395     72.54382      2.102     4.79     5.060143     20.46681     399.1074        51     1.607     1.563  -2.65   0
        32    402.3428    926.2139 300.0124022 +22.7811467     607.7173     72.52534      1.985     6.94      4.92756     20.46681     32.79028        14     1.240     1.088  20.85   0
        33    917.3167    919.2885 300.1751685 +22.9334412     828.2911     72.65459      1.341     3.27     5.202426     20.46681     102.0354        11     0.980     0.749 -48.78   3
        34    915.1256    917.8727 300.1749453 +22.9323782     1572.818     72.59923      1.930     5.92     5.200221     20.46681     87.29144        23     1.784     1.085 -44.42   3
        35    566.9357    915.0296 300.0673028 +22.8272640     355.9821     72.56229      1.645     5.17     5.012112     20.46681     37.54609         6     1.172     0.644  38.90   0
        36    598.4489    911.9897 300.0781106 +22.8358335     289.8207     72.56229      1.805     4.79     5.050321     20.46681     26.22115         5     1.055     0.618   0.36   0
        37    705.2147    906.1869 300.1132750 +22.8661528     776.4608     72.46986      2.454     8.96     5.288708     20.46681     40.92048        19     1.879     1.193  75.34   0
        38    185.2625    986.1807 299.9253434 +22.7332674     4282.575     72.52534      7.625    21.19     67.44614     20.46681     93.23102       260     4.806     4.767  72.55   3
        39     55.0710    903.1476 299.9118666 +22.6703978     581.4495     72.52534      2.344     3.51       14.485     20.46681     41.03821         5     1.109     0.321  -8.15   1
        40    739.7974    900.7861 300.1258137 +22.8749603     914.8008     72.37733      1.865     5.52     5.364029     20.46681     59.99757        24     1.421     1.236  47.15   0
        41    203.1188    985.3665 299.9311625 +22.7383892     4774.019     72.50685      8.575    27.19     64.37589     20.46681     96.08717       394     6.694     4.805 -60.19  19
        42    761.9739    894.6825 300.1347139 +22.8798491     11306.06     72.52534      2.016     4.69     5.370942     20.46681     623.5555        59     1.631     1.510 -21.56   0
        43     73.0577    886.2980 299.9229374 +22.6709588     857.2637     72.63615      3.553     8.35     12.47261     20.46681     42.47237        17     1.740     1.120 -12.60   0
        44    466.4643    883.5679 300.0462379 +22.7881213      374.667     72.54382      1.843     4.97     5.011231     20.46681     30.12026         7     1.681     0.416  20.58   0
        45    770.4670    876.8621 300.1431577 +22.8772725     1397.845     72.59923      2.058     5.83     5.369551     20.46681     70.50182        27     1.495     1.259  20.06   0
        46    954.6197    875.6219 300.2010117 +22.9320592     486.6263     72.54382      2.167     3.48     5.135437     20.46681     27.38184         5     1.051     0.333 -69.23   0
        47    486.4243    875.3790 300.0551173 +22.7917514     232.6829     72.52534      1.042     3.47     4.998617     20.46681      26.8909         5     1.116     0.311 -69.02   0
        48    622.0681    873.8212 300.0978839 +22.8319470     514.8661     72.54382      2.450     5.99     5.109402     20.46681     29.03892         7     1.638     0.617  47.15   0
        49    808.5662    870.0916 300.1572416 +22.8867372     956.9218     72.50685      2.505     6.67     5.299779     20.46681     58.78484        18     1.575     1.029  34.94   0
        50    857.4178    861.7319 300.1751986 +22.8989636     686.4393     72.54382      2.332     7.22     5.224507     20.46681     39.43578        15     1.397     1.046   7.96   0
        51    708.4443    860.8273 300.1290331 +22.8540888     821.7002     72.56229      2.201     4.40     5.395132     20.46681     59.55231        15     1.164     0.979 -44.69   0
        52    420.9514    856.6104 300.0408310 +22.7667408     4263.235     72.56229      1.943     4.37        5.095     20.46681     310.3228        38     1.481     1.435 -22.57   0
        53    146.7378    842.2768 299.9601607 +22.6804236     693.7267     72.59923      1.744     4.17     8.788167     20.46681     77.94643        16     1.295     1.074  25.87   0
        54    124.0568    839.3613 299.9540553 +22.6727858     1448.005     72.54382      1.866     3.80     8.640226     20.46681     109.5497        21     1.276     1.066 -84.45   2
        55    222.7730    973.4337 299.9411582 +22.7408598     7063.089     72.56229      7.725    28.36     50.93841     20.46681     146.9529       639     9.568     4.882  63.57  18
        56    995.3163    828.6222 300.2289976 +22.9307304     2170.286     72.50685      2.203     5.68     5.466997     20.46681     105.2543        35     1.580     1.534  -1.96   0
        57    949.4356    827.1642 300.2151511 +22.9165772     2143.958     72.61769      2.159     5.48     5.137091     20.46681     116.6754        34     1.593     1.396   4.65   0
        58    654.2084    827.4550 300.1229773 +22.8282553     445.5065     72.54382      1.803     4.28     5.409604     20.46681     35.48361         6     1.351     0.386 -14.08   0
        59    155.7173    821.1807 299.9698117 +22.6770619     361.6311     72.50685      1.753     5.69      7.42846     20.46681     35.22234         7     1.339     0.692 -40.23   0
        60    733.7416    821.7109 300.1496389 +22.8504262      626.019     72.61769      1.945     3.35     5.610928     20.46681     60.36362         8     0.902     0.815 -72.37   2
        61    601.0060    814.8370 300.1104988 +22.8086935     4848.824     72.58076      1.811     3.96     5.307987     20.46681     332.7536        40     1.424     1.362  -2.22   0
        62     91.2024    814.8648 299.9518030 +22.6559045     308.9374     72.54382      1.543     5.36     7.003507     20.46681     34.28655         8     1.272     0.637  82.87   0
        63    403.2803    812.2878 300.0497391 +22.7487181     584.5317     72.67304      1.811     6.27     5.526153     20.46681     48.38649        12     1.313     0.944  -7.02   0
        64    151.1403    808.1324 299.9726299 +22.6719448     1154.653     72.58076      1.871     5.75     6.600295     20.46681      95.1304        26     1.492     1.313  33.60   0
        65    621.6406    807.7092 300.1192464 +22.8128270     782.3972     72.54382      1.845     4.12     5.388748     20.46681     55.17157        14     1.024     0.939  16.11   0
        66    171.3712    805.8040 299.9796790 +22.6773422     422.8512     72.50685      1.645     3.34     6.418689     20.46681     45.80348         5     0.763     0.424 -68.67   0
        67    777.0645    794.6490 300.1719463 +22.8556231     4316.318     72.56229      1.906     4.19     5.716219     20.46681     268.6156        41     1.496     1.373  32.27   0
        68    994.1479    794.9067 300.2395946 +22.9206868       1105.2     72.61769      2.049     7.35     5.634066     20.46681     63.73158        24     1.485     1.390  34.24   0
        69    185.7138    788.6455 299.9897175 +22.6767174     408.0877     72.52534      1.741     4.95     6.132456     20.46681     37.52444        10     1.137     0.774  32.58   0
        70    494.3785    787.1879 300.0862675 +22.7688070     656.8707     72.52534      1.900     5.09     5.575315     20.46681     54.99879        12     1.238     0.936   6.75   0
        71    140.3305    784.6386 299.9769047 +22.6619610     988.2054     72.50685      1.987     6.19      6.13876     20.46681     67.87532        20     1.411     1.195  12.87   0
        72    555.8643    780.2368 300.1076809 +22.7852310     517.0339     72.54382      1.692     6.25     5.515269     20.46681     39.10381        12     1.205     0.912  19.38   0
        73    290.0079    776.9420 300.0259701 +22.7046211     54057.53     72.52534      1.903     3.85     6.019392     20.46681     4315.451        99     1.622     1.552  20.24   0
        74    547.8257    776.1399 300.1065082 +22.7816459     1625.637     72.54382      1.788     4.15     5.544992     20.46681     124.6141        26     1.398     1.164  42.28   0
        75    960.8943    775.5552 300.2355059 +22.9051695     983.2883     72.56229      2.037     7.93     5.591796     20.46681     53.29864        21     1.379     1.275  62.03   0
        76    218.9789    775.5668 300.0043165 +22.6829355     332.1013     72.54382      1.902     4.48     6.103007     20.46681     34.51587         5     1.026     0.556 -73.15   0
        77    576.7806    772.3365 300.1167659 +22.7892271     871.5752     72.52534      1.937     5.08     5.555613     20.46681     56.97317        15     1.217     0.990  41.56   0
        78    587.7310    770.1926 300.1208748 +22.7918913      641.121     72.52534      1.681     6.24      5.56133     20.46681     50.95362        14     1.092     1.003 -84.84   0
        79    693.6887    766.9667 300.1549480 +22.8226999     442.8475     72.50685      1.749     5.57     5.668231     20.46681     37.59507         9     1.027     0.961 -27.19   0
        80    731.1033    757.2587 300.1697684 +22.8311144     790.4817     72.61769      1.676     4.34     5.700433     20.46681     65.10135        13     1.022     0.965  61.75   0
        81    339.7555    754.1945 300.0488464 +22.7129994     32014.67     72.54382      1.822     3.81     5.922046     20.46681     2525.421        77     1.548     1.483  34.29   0
        82    351.4139    748.9790 300.0541705 +22.7149955     591.4127     72.50685      1.987     3.44     5.921996     20.46681     52.46952         7     0.928     0.678  87.33   3
        83    862.9282    750.4313 300.2131024 +22.8686211     2721.521     72.54382      1.848     4.17     6.002563     20.46681     178.6466        31     1.406     1.261  -4.40   0
        84    457.3799    747.0162 300.0878014 +22.7461836     579.2174     72.52534      2.299     5.65     5.855727     20.46681     39.54035         9     1.029     0.873 -53.64   0
        85    620.7785    746.4473 300.1388913 +22.7949676     1046.362     72.58076      1.634     4.22     5.681645     20.46681     102.0573        18     1.206     1.060  71.08   0
        86    222.4703    746.2200 300.0149407 +22.6755575     656.2444     72.54382      1.624     4.65     6.076943     20.46681      65.1609        13     1.351     0.813  -4.08   0
        87    467.7127    740.7914 300.0930424 +22.7474913     873.3887     72.46986      1.685     5.35     5.873014     20.46681     67.36536        17     1.189     1.141  57.38   0
        88     26.9778    741.7044 299.9556154 +22.6156520     497.9564     72.45137      1.867     4.25     6.041282     20.46681     54.15646         6     1.070     0.640  10.84   0
        89    869.1844    738.0161 300.2190895 +22.8669248     442.9075     72.50685      1.641     5.41      6.07734     20.46681     45.40911        10     0.990     0.834 -65.24   0
        90    370.8072    737.4421 300.0639569 +22.7174939     320.6596     72.56229      1.312     2.85     5.975907     20.46681      50.0004         5     0.949     0.374 -81.78   0
        91    414.6150    735.8456 300.0781149 +22.7301620     336.9485     72.56229      1.373     3.42     5.976063     20.46681     40.75025         5     0.730     0.465  75.10   0
        92    354.0750    754.7701 300.0531167 +22.7174559     2085.857     72.56229      1.918     3.97     5.889374     20.46681      175.989        28     1.330     1.236  18.75   2
        93    157.5184    991.8253 299.9148782 +22.7265655     1801.774     72.52534      6.793     9.53     75.59998     20.46681     69.00522        27     1.980     1.573  66.43   3
        94    846.4538    733.0232 300.2136209 +22.8586848     412.7892     72.56229      1.916     5.77     6.049844     20.46681     28.23293         7     1.051     0.892  86.09   0
        95    220.4217    730.4741 300.0194204 +22.6704231     544.3071     72.54382      1.574     3.65     6.053211     20.46681     55.00801        10     0.908     0.811 -73.04   0
        96    543.0822    720.8988 300.1229844 +22.7643552     393.9825     72.70992      1.811     5.57     5.853626     20.46681      33.7771         8     1.167     0.830  11.95   0
        97    513.2170    719.1555 300.1142471 +22.7549083     608.9819     72.56229      1.665     5.67     5.880502     20.46681     47.99617        11     1.260     0.719 -33.10   0
        98    929.3707    715.7106 300.2451189 +22.8785269     4654.652     72.52534      1.965     4.19     6.200406     20.46681     279.1796        43     1.540     1.399  35.14   0
        99    534.9666    716.5873 300.1218571 +22.7606856     1318.014     72.52534      1.682     3.68     5.870043     20.46681     107.5802        21     1.208     1.090   2.51   0
       100    454.5457    715.8983 300.0970315 +22.7363962     456.8627     72.63615      2.400     5.87      5.93698     20.46681     39.40712         7     1.407     0.689 -20.02   0
       101    917.9377    707.2315 300.2443066 +22.8726668     1491.984     72.56229      1.735     4.23     6.247048     20.46681     100.1014        23     1.275     1.165  38.23   0
       102    280.8397    700.9016 300.0478288 +22.6800402     901.7913     72.54382      1.804     4.88      6.02607     20.46681     82.20569        16     1.369     0.953 -27.90   0
       103    744.2809    698.3338 300.1930276 +22.8181241     2499.494     72.65459      1.772     3.75     5.824916     20.46681     188.0385        31     1.442     1.205   5.33   0
       104    949.1588    697.3571 300.2572589 +22.8791715     1579.672     72.63615      1.840     4.84     6.271561     20.46681     105.3741        27     1.432     1.285  19.82   0
       105    826.8604    684.3679 300.2233205 +22.8388315     570.5914     72.58076      1.824     6.22     6.143813     20.46681     45.07229        14     1.259     1.095 -81.60   0
       106    129.1505    684.7050 300.0059030 +22.6299251     670.3914     72.59923      2.046     7.44     6.139288     20.46681     45.50009        14     1.515     1.022  23.49   0
       107    862.6974    675.3668 300.2374250 +22.8469707       148399     72.52534      1.814     3.83     6.377119     20.46681     11082.01       151     1.604     1.567 -56.27   0
       108    624.9804    679.1500 300.1620703 +22.7768879     445.7154     72.52534      1.570     3.93     5.859692     20.46681     35.65596         6     0.952     0.464  34.77   0
       109   1009.6893    677.4630 300.2826178 +22.8915639     1188.101     72.63615      1.928     4.62      6.22693     20.46681     77.19808        22     1.422     1.086   3.66   0
       110    715.3416    675.9526 300.1912768 +22.8030264     928.6346     72.59923      2.329     4.82     5.862917     20.46681     68.45845        17     1.334     0.951  29.90   0
       111    548.8574    663.9590 300.1432854 +22.7497251     1636.216     72.52534      1.611     3.51     5.995449     20.46681     137.7509        22     1.206     1.069  29.49   0
       112    730.1371    661.4567 300.2005998 +22.8032893     9365.036     72.59923      1.699     3.38     5.870779     20.46681      758.902        48     1.386     1.338 -28.67   0
       113    231.5880    656.2078 300.0470247 +22.6524465     4908.339     72.43286      1.770     3.92     5.889026     20.46681     425.8473        37     1.415     1.314  48.36   0
       114    313.5982    654.5440 300.0730852 +22.6765441     1141.742     72.46986      1.732     4.57      5.98182     20.46681     91.94542        20     1.260     1.122  12.65   0
       115    189.6418    652.2663 300.0352559 +22.6387436      448.373     72.52534      1.409     3.43     5.992747     20.46681     47.64236         5     0.742     0.458 -75.96   0
       116    521.9004    649.9452 300.1394401 +22.7376246     813.7715     72.63615      1.565     3.87     6.043208     20.46681     68.52332        14     1.043     0.942 -16.24   0
       117    513.5513    642.1406 300.1393747 +22.7328815     3229.493     72.59923      1.674     3.44      6.07213     20.46681     282.1535        31     1.303     1.225  17.76   0
       118    503.8215    635.9642 300.1383503 +22.7281927     1402.878     72.56229      1.602     3.63     6.101693     20.46681     118.8546        20     1.208     1.035 -41.53   0
       119    897.3102    633.6475 300.2617792 +22.8453335      588.681     72.50685      1.955     6.76      6.31049     20.46681      39.0005        12     1.218     1.053 -85.77   0
       120    167.0069    632.0148 300.0347939 +22.6261451      617.895     72.45136      1.636     4.56     6.017062     20.46681     73.64092        15     1.271     0.947  -4.47   0
       121    181.7463    630.8491 300.0397572 +22.6302279     495.4174     72.58076      1.575     4.84     5.976293     20.46681     62.30296         8     1.370     0.762 -19.46   0
       122    950.5729    627.5883 300.2803694 +22.8595297     422.5331     72.54382      1.668     4.75     6.484432     20.46681     32.96534         8     1.036     0.681  34.16   0
       123    238.2475    627.9466 300.0582773 +22.6463268     538.4648     72.58076      2.254     3.89     5.878495     20.46681     37.00707         5     0.852     0.508 -30.31   0
       124    207.0054    627.3788 300.0487419 +22.6368014     636.7437     72.52534      1.938     7.07     5.908483     20.46681     63.49092        13     1.750     0.832 -14.87   0
       125    428.7462    625.5571 300.1183491 +22.7027153       1767.9     72.54382      1.636     3.25     6.020813     20.46681     183.4883        24     1.249     1.085 -18.53   0
       126    528.0948    625.9799 300.1491553 +22.7325936     390.9234     72.45137      1.683     5.21     6.097147     20.46681     41.21481         8     1.150     0.671  37.96   0
       127   1004.2956    623.3593 300.2985124 +22.8743879     806.3708     72.54382      1.767     4.41     6.708257     20.46681     69.08493        16     1.137     1.039 -85.66   0
       128     82.5090    620.2684 300.0123321 +22.5974462     20140.31     72.67304      1.961     3.96     6.090455     20.46681     1530.924        73     1.670     1.534  25.82   0
       129    513.6123    620.9519 300.1462769 +22.7268114     1222.087     72.56229      1.707     3.88     6.133706     20.46681     99.74886        18     1.117     1.092  29.98   0
       130      4.2434    621.7753 299.9875123 +22.5744167     639.7074      69.8899      2.007     4.99     6.247325     20.46681      58.7306         9     1.064     0.663  67.29  16
       131    548.4348    619.8638 300.1574788 +22.7369276     263.4676     72.54382      1.543     5.05     6.076227     20.46681     30.21161         5     1.041     0.691  24.21   0
       132    884.6477    616.7828 300.2633069 +22.8366941     297.1645     72.58076      1.554     3.73     6.210833     20.46681     27.46179         5     0.991     0.403  -5.38   0
       133    266.7256    612.0711 300.0722951 +22.6503012     201.8254     72.61769      1.125     4.24     5.879348     20.46681     31.33186         5     1.065     0.481  24.72   0
       134    931.6898    607.3389 300.2810542 +22.8480553     1030.393     72.63615      1.726     4.33     6.417087     20.46681     94.15073        23     1.322     1.235 -20.55   0
       135    798.3672    605.4757 300.2400639 +22.8076198      440.987     72.54382      1.524     4.60     5.932655     20.46681     47.25687        11     0.965     0.862 -70.54   0
       136     94.5065    605.5871 300.0208310 +22.5968276     420.2174     72.46986      1.775     4.21     6.056876     20.46681     50.24684         7     1.008     0.501 -29.60   0
       137     28.6138    604.4175 300.0007252 +22.5767402     1519.737     72.50685      2.204     5.30     6.271005     20.46681     101.9825        31     1.625     1.346 -82.91   0
       138    477.2758    601.4691 300.1412870 +22.7103304     476.8594     72.61769      1.564     5.04     6.291056     20.46681     38.76868        10     1.042     0.768  36.84   0
       139    872.0750    600.1474 300.2647879 +22.8281474     848.6063     72.54382      3.089     4.76      6.14322     20.46681     55.87969        11     1.235     0.690  -9.41   2
       140    433.7935    593.8600 300.1302166 +22.6951205     738.9996     72.50685      1.586     3.96     6.131743     20.46681     73.92558        15     1.263     0.829  25.35   0
       141    581.5735    592.5593 300.1766733 +22.7390041     549.4028     72.59923      1.891     2.77      6.27528     20.46681     52.51233         9     0.873     0.761  18.90   0
       142    628.8203    591.1935 300.1918408 +22.7527583     548.2905     72.50685      1.722     2.92     6.142879     20.46681     54.64455         8     0.839     0.662  34.66   0
       143    599.4161    590.7526 300.1828202 +22.7438275     589.1703     72.58076      1.634     2.76     6.252629     20.46681      72.3205        10     0.899     0.747  34.83   0
       144    477.8607    589.6101 300.1453210 +22.7070980     998.9484     72.50685      1.771     3.84     6.386972     20.46681     88.95295        17     1.245     0.929  21.44   0
       145    911.7723    585.4077 300.2819623 +22.8357876     3234.169     72.54382      1.705     3.53      6.34528     20.46681     272.1469        33     1.358     1.238 -40.03   0
       146   1009.4166    584.1541 300.3128465 +22.8646420     583.9825     72.56229      1.898     4.49     6.860738     20.46681     67.39384        11     1.506     0.491  58.88   0
       147    443.4898    585.1178 300.1360755 +22.6955130     1637.504     72.65459      1.584     3.40      6.22958     20.46681      155.905        24     1.228     1.082  20.98   0
       148      5.3617    578.3908 300.0019502 +22.5622989     5115.605     72.43286      2.019     4.14     6.545133     20.46681     398.4592        47     1.591     1.509  -4.44  16
       149    951.1808    575.5659 300.2974577 +22.8447483     320.8876     72.56229      1.503     4.37       6.5403     20.46681     34.12606         7     1.209     0.450  67.56   0
       150    306.8233    571.6943 300.0978873 +22.6507178     9164.819     72.43286      1.660     3.40      5.94742     20.46681     840.9811        47     1.356     1.337 -66.37   0
       151    429.2594    568.8384 300.1369311 +22.6865732     9078.795     72.56229      1.616     3.18     6.227338     20.46681     907.0801        46     1.327     1.298  43.25   0
       152    675.6752    565.3047 300.2148539 +22.7593439     331.4755     72.69149      1.449     2.99     6.110981     20.46681     40.75738         5     0.731     0.454 -78.64   0
       153    841.0260    563.0839 300.2671395 +22.8081967     1914.579     72.52534      1.678     3.47     6.189837     20.46681     157.0106        26     1.280     1.174 -14.95   0
       154    925.7318    560.5065 300.2944063 +22.8328021     12617.85     72.69149      1.765     3.50     6.419347     20.46681     1038.174        54     1.471     1.382 -28.80   0
       155    489.8574    558.4486 300.1591780 +22.7017363     11762.98     72.59923      1.607     3.10     6.721283     20.46681     1158.866        47     1.335     1.280  28.15   0
       156    659.4054    554.5914 300.2132615 +22.7513934      445.486     72.39584      1.528     5.42     6.278074     20.46681     47.33105        10     1.102     0.752  31.48   0
       157    217.2805    553.6887 300.0758713 +22.6187183     1353.611     72.67304      1.684     4.10     5.880835     20.46681     134.4722        23     1.343     1.078  63.30   0
       158    376.0226    552.8566 300.1255452 +22.6660357     408.5811     72.56229      1.682     4.24     6.205543     20.46681     46.58149         7     1.159     0.441 -61.35   0
       159    464.5128    551.6205 300.1535014 +22.6921841     404.5268     72.46986      1.478     3.06      6.59831     20.46681     48.25423         9     0.890     0.742 -18.01   0
       160    421.5367    546.5850 300.1417530 +22.6778661     4351.631     72.50685      1.649     3.11     6.275023     20.46681     469.2561        32     1.258     1.215  61.75   0
       161    764.5846    546.8345 300.2485739 +22.7806466     862.8096     72.54382      1.561     3.34     6.209858     20.46681     81.72453        14     1.033     0.878  30.12   0
       162    399.9015    545.0996 300.1354987 +22.6709593     1280.313     72.78363      1.565     3.29     6.241104     20.46681     111.5567        18     1.135     0.967 -26.52   0
       163    154.1830    544.3655 300.0592711 +22.5971339     833.8582     72.54382      1.809     4.52     5.931992     20.46681     65.98921        15     1.152     0.960  35.67   0
       164    841.4506    542.3715 300.2739986 +22.8023669     1723.139     72.56229      1.799     3.76     6.258173     20.46681     124.2571        25     1.316     1.128 -14.43   0
       165    538.2195    534.2231 300.1821105 +22.7092560     206792.2     72.54382      1.579     2.97     7.193381     20.46681     20590.17       196     1.568     1.483 -16.54   0
       166    361.9154    540.3099 300.1252276 +22.6582053     277.6581     72.69149      1.451     5.25     6.258169     20.46681     28.63959         7     1.249     0.623  46.06   0
       167    721.7421    539.0880 300.2377301 +22.7655961     780.3641     72.61769      1.655     3.90     6.243253     20.46681      86.5095        15     1.080     0.997   2.25   0
       168    498.6933    534.6927 300.1696446 +22.6975553     280.6025     72.70992      1.674     5.42      6.96415     20.46681     32.57551         5     1.267     0.655  71.72   0
       169    224.2077    533.9905 300.0844228 +22.6151362     3542.587     72.41435      1.718     3.62     6.022388     20.46681     328.1436        36     1.398     1.255   7.02   0
       170    789.9003    530.5927 300.2617436 +22.7835526     540.1414     72.45137      1.807     4.64     6.248217     20.46681     41.90153         8     0.851     0.717  86.49   0
       171    428.7927    514.7032 300.1543648 +22.6708779      2832.02     72.43286      1.700     4.56     6.536376     20.46681     255.0011        31     1.464     1.127 -87.94   0
       172    273.0496    516.9783 300.1051439 +22.6248823      519.181     72.54382      1.572     4.16     6.123532     20.46681     46.11645         8     0.950     0.646  -5.93   0
       173    745.8133    502.9893 300.2569575 +22.7624204     421.9905     72.45137      1.507     5.59     6.311823     20.46681     47.64439        10     1.083     0.827  66.87   0
       174    825.8623    500.9488 300.2825865 +22.7857886     1842.536     72.59923      1.611     3.28     6.295073     20.46681     164.5233        23     1.156     1.152 -83.22   0
       175    697.0073    498.4881 300.2432013 +22.7465187     2580.072     72.45137      1.521     2.96     6.528658     20.46681     249.2401        26     1.202     1.112  19.00   0
       176    906.5449    495.9381 300.3093862 +22.8084878     321.4473     72.61769      1.473     3.30     6.242586     20.46681     43.85419         5     0.777     0.577   7.21   0
       177    601.7609    495.0412 300.2146317 +22.7170171     446.8608     72.63615      1.484     3.26     6.907115     20.46681     59.69736         9     0.971     0.702 -12.30   0
       178    484.4935    494.3239 300.1783289 +22.6817012     666.7498     72.67304      1.580     3.10     7.160521     20.46681     72.32684        12     0.950     0.819 -29.92   0
       179    954.4969    492.6850 300.3254075 +22.8218973     1224.166     72.70992      1.685     3.52     6.358256     20.46681     120.3921        17     1.117     1.001  -8.49   0
       180    939.9345    492.1092 300.3210494 +22.8173753     1013.649     72.67304      2.275     4.04     6.271667     20.46681     61.97119        15     1.176     0.930   4.64   0
       181    826.1506    491.0089 300.2859037 +22.7830159     2255.849     72.54382      1.841     3.90     6.307012     20.46681     198.0077        29     1.497     1.119  70.64   0
       182    579.4186    488.8916 300.2096659 +22.7085606     801.0792     72.46986      2.171     5.01     7.048529     20.46681     60.50296        13     1.174     1.014  58.15   2
       183    417.9543    487.6500 300.1597731 +22.6598579     385.1838     72.56229      1.448     3.13     6.606527     20.46681     42.96088         7     0.860     0.720 -85.35   0
       184    864.3387    486.0640 300.2994227 +22.7930199     4441.846     72.58076      1.640     3.23     6.278363     20.46681     397.7201        34     1.269     1.246 -61.07   0
       185    524.6710    482.4077 300.1947131 +22.6903060     255.6679     72.52534      1.249     3.85      7.24812     20.46681     32.66484         5     1.012     0.421 -16.03   0
       186    955.9905    476.6505 300.3310797 +22.8177307     742.1038     72.54382      1.468     3.71     6.302105     20.46681     74.18856        12     1.065     0.805  84.56   0
       187     96.3051    476.1129 300.0634308 +22.5601899     1017.723     72.72836      1.968     5.30      6.63756     20.46681     74.22253        17     1.277     0.993   8.85   0
       188     89.9769    465.7845 300.0648157 +22.5553276     397.8097     72.54382      1.478     2.35     6.659589     20.46681     57.54516         5     0.775     0.536  86.68   0
       189    952.6894    465.5300 300.3336597 +22.8135437     378.1441     72.70992      1.643     3.29     6.231284     20.46681     53.25286         7     0.953     0.699  -2.98   0
       190    696.7864    460.6765 300.2554080 +22.7355797     485.5497     72.56229      1.350     3.94     6.648754     20.46681     50.99465         8     0.942     0.586 -10.14   0
       191    585.6401    458.2933 300.2215380 +22.7016265     216.4151     72.56229      1.086     4.10     6.988915     20.46681     46.90981         6     0.716     0.672 -12.45   0
       192    637.7316    456.6666 300.2383006 +22.7167515     722.0618     72.59923      1.472     2.66     6.828441     20.46681     90.05273        11     0.899     0.772 -14.64   0
       193    952.5734    449.4673 300.3388380 +22.8088873     637.5663     72.52534      1.498     3.47     6.149277     20.46681     61.53917        10     0.947     0.749  -9.63   0
       194    698.4219    448.6718 300.2598149 +22.7326170     813.1786     72.56229      1.427     2.95     6.647991     20.46681     117.5984        17     1.154     0.952  60.93   0
       195    855.5916    444.9304 300.3100474 +22.7785701     924.0364     72.52534      1.624     3.43     6.321263     20.46681     83.04576        14     1.023     0.928 -12.26   0
       196    840.0104    441.3680 300.3063429 +22.7728837     577.2971     72.54382      1.433     3.08     6.334048     20.46681     73.70416        11     0.997     0.810  -2.25   0
       197    584.3643    439.2250 300.2273301 +22.6957624     3362.408     72.56229      1.529     2.82      6.97964     20.46681     322.9279        32     1.214     1.166  -1.23   0
       198    945.0210    438.2925 300.3401083 +22.8034128     619.5964     72.46986      1.765     4.76     6.058352     20.46681     51.34821        13     1.192     0.890 -29.09   0
       199     60.8295    430.5742 300.0671814 +22.5364818     390.2539     72.54382      1.826     2.60     6.650366     20.46681     35.68069         5     0.711     0.460  19.57   0
       200    424.4159    426.3887 300.1816711 +22.6441866     350.2178     72.48836      1.371     4.71     6.825974     20.46681     39.98861         9     1.219     0.516  39.09   0
       201    355.9641    427.2378 300.1600827 +22.6239329       317.98     72.61769      1.452     3.77     6.379889     20.46681     28.66272         5     0.823     0.495 -55.52   0
       202    995.8993    418.5512 300.3623975 +22.8129495     1367.448     72.58076      1.761     3.59      6.18321     20.46681     137.8247        20     1.210     1.118  85.13   0
       203    867.7877    418.8022 300.3223337 +22.7747019     508.4405      72.3588      1.688     4.99     6.322865     20.46681     56.07619        11     1.327     0.833  28.92   0
       204    953.8742    417.3591 300.3496664 +22.8000374     928.9709     72.52534      1.628     3.87     5.999004     20.46681     95.11816        17     1.137     1.085  23.21   0
       205    694.8972    413.3440 300.2701830 +22.7214024     1146.246     72.63615      1.508     3.03     6.659822     20.46681     112.8256        16     1.085     0.897 -49.82   0
       206    491.0142    413.7338 300.2065202 +22.6604887     493.8926     72.50685      1.605     4.00     6.959696     20.46681     55.95837         9     1.043     0.599 -55.50   0
       207    198.7070    411.6188 300.1162132 +22.5723450     533.0752     72.46986      1.570     5.72     6.809971     20.46681     59.89058        12     1.099     0.838 -34.96   0
       208    994.4509    405.7040 300.3661153 +22.8088191     4417.146     72.61769      1.760     3.63     6.117209     20.46681     346.5143        41     1.472     1.325  87.59   0
       209    261.2198    406.7943 300.1372290 +22.5896834     3750.436     72.50685      1.626     3.38     6.500152     20.46681     393.3871        32     1.265     1.245 -85.19   0
       210    208.4158    401.4973 300.1225183 +22.5723454     7711.437     72.45137      1.723     3.35      6.76745     20.46681     824.6265        46     1.401     1.329  39.27   0
       211    587.1689    401.5632 300.2404279 +22.6857732      269.831     72.58076      1.707     4.17     6.920442     20.46681     32.95959         5     1.039     0.640  65.10   0
       212    974.3297    396.8271 300.3627153 +22.8002468      1864.13     72.54382      1.648     3.44     6.016849     20.46681     159.5162        25     1.245     1.156  58.00   0
       213    349.2245    395.8175 300.1681818 +22.6128850     4964.125     72.54382      1.592     3.10     6.327019     20.46681     499.3159        36     1.333     1.191  25.73   0
       214    593.4799    392.7104 300.2452676 +22.6851166     18716.95     72.67304      1.558     2.93     6.879508     20.46681     2107.167        58     1.347     1.277  67.70   0
       215    611.0951    392.8065 300.2507261 +22.6904165     774.2042     72.43286      2.063     4.60     6.792424     20.46681     76.05825        13     1.414     0.705 -60.53   0
       216    790.3539    383.5713 300.3096123 +22.7414009     395.3395     72.58076      1.585     4.25       6.4303     20.46681     47.47264         8     1.115     0.545  40.46   0
       217    927.2468    375.5687 300.3549190 +22.7800476     937.5677     72.58076      1.528     3.84     5.862378     20.46681     94.22872        15     1.128     0.965 -75.73   0
       218    148.0831    372.5821 300.1131337 +22.5459658     2055.053     72.50685      1.716     3.13     6.801722     20.46681     262.3633        28     1.385     1.151  32.02   0
       219    947.8769    362.7715 300.3655105 +22.7825349     1264.705     72.52534      1.599     3.24     5.867483     20.46681     114.6612        21     1.208     1.042  19.92   0
       220    534.1776    362.0851 300.2367275 +22.6585607     6606.491     72.48836      1.514     2.88     7.022614     20.46681     636.7726        38     1.293     1.174  56.25   0
       221    248.7962    361.5010 300.1480607 +22.5729481     690.8878     72.43286      1.681     5.11     6.470362     20.46681     73.47592        13     1.311     0.818  -1.75   0
       222    106.8524    354.8446 300.1060661 +22.5285192     431.7571     72.56229      1.707     4.14     6.597255     20.46681     33.70743         7     0.950     0.576 -13.91   0
       223    738.3740    351.3614 300.3038537 +22.7165835     1186.071     72.56229      1.616     3.29     6.475932     20.46681     107.7388        20     1.220     0.971 -89.89   0
       224    647.9701    352.3916 300.2753342 +22.6898294     311.1536     72.54382      1.266     4.52     6.525277     20.46681     49.28601        10     0.952     0.765  87.97   0
       225    440.7800    348.2966 300.2121091 +22.6266385     6118.054     72.45137      1.538     2.90     6.877166     20.46681     698.5389        37     1.274     1.206  78.80   0
       226    832.7386    343.1730 300.3359426 +22.7424577     1463.997     72.54382      1.489     2.92     6.297882     20.46681      138.367        19     1.147     0.900  41.49   0
       227    930.2039    343.4252 300.3662725 +22.7716819     592.7753     72.50685      1.483     3.60     5.838798     20.46681     75.15198         9     1.032     0.674 -40.46   0
       228    508.0834    334.9858 300.2373910 +22.6429585     375.5406     72.50685      1.333     4.86       6.9422     20.46681     53.21238        10     1.103     0.868 -27.98   0
       229    785.9249    334.1851 300.3242564 +22.7258680     202.9386     72.54382      1.145     3.88     6.475932     20.46681     37.73693         6     0.919     0.471 -36.31   0
       230    488.4709    333.0680 300.2319038 +22.6365365      144.983     72.58076      1.495     4.63     6.924503     20.46681     29.41529         5     1.057     0.577  15.05   0
       231    805.6743    330.7842 300.3315198 +22.7307974     586.9268     72.54382      1.625     4.63     6.450711     20.46681     58.76195        12     1.152     0.782 -25.36   0
       232    328.3232    327.4983 300.1838433 +22.5869910     2492.151     72.69149      1.554     2.96     6.398425     20.46681     293.1364        23     1.200     1.081  56.29   0
       233     46.6795    324.8329 300.0970930 +22.5018717     1059.813     72.52534      1.775     3.81     6.523647     20.46681     112.2052        16     1.227     0.894  23.13   0
       234    297.6639    316.8928 300.1777410 +22.5747626     30494.88     72.65459      1.630     3.24     6.362378     20.46681     3055.715        73     1.457     1.365  63.77   0
       235    832.4225    314.7936 300.3450518 +22.7341973     1525.296     72.52534      1.655     2.75     6.341058     20.46681     159.3932        16     1.051     0.928  52.80   0
       236    788.2205    312.5929 300.3319778 +22.7203423     227.1186     72.50685      1.275     4.15     6.475932     20.46681     40.00261         6     0.890     0.551  38.19   0
       237    871.4552    304.4440 300.3605872 +22.7428936     356.5992     72.54382      1.540     3.93     6.195395     20.46681     27.78951         5     1.066     0.416  16.08   0
       238    747.7780    303.7783 300.3222245 +22.7057081     453.9387     72.54382      1.325     3.55     6.475932     20.46681     76.75482         9     1.075     0.708  53.95   0
       239    172.0787    302.9722 300.1431810 +22.5331537      406.908     72.56229      1.369     4.57      6.81252     20.46681     48.89177         9     0.984     0.816 -47.81   0
       240    396.2738    302.2743 300.2131808 +22.6000844     441.1942     72.59923      1.375     3.06     6.766271     20.46681     54.51941         8     0.783     0.696 -37.15   0
       241    708.1895    296.9534 300.3120941 +22.6919012     2003.738     72.56229      1.531     2.88      6.39125     20.46681       185.91        26     1.170     1.129  31.52   0
       242    516.6873    291.6203 300.2541399 +22.6330640     262.4671     72.46986      1.242     2.85     6.886934     20.46681     50.66343         5     0.938     0.342 -68.99   0
       243    923.1810    290.0183 300.3814081 +22.7542109     731.8932     72.54382      1.697     4.30     5.930374     20.46681     55.90584        13     1.005     0.978 -20.05   0
       244    369.7860    281.3659 300.2117161 +22.5861441     2084.072     72.52534      1.746     3.75     6.742517     20.46681     202.9566        27     1.450     1.106  34.30   0
       245    582.2419    280.5630 300.2781521 +22.6495022     287.3597     72.63615      1.486     3.21     6.790655     20.46681     52.04332         7     0.872     0.811 -51.79   0
       246    809.1516    274.4654 300.3508753 +22.7156324     592.8806     72.56229      1.375     2.74      6.53705     20.46681     78.99983        11     0.949     0.764 -11.47   0
       247    691.4420    272.1398 300.3149217 +22.6797524      429.106     72.52534      1.364     4.20     6.456804     20.46681     49.85739         8     0.933     0.689  12.75   0
       248    252.8207    261.8011 300.1816558 +22.5455012     318.1344     72.46986      1.588     4.09     6.660882     20.46681     37.14172         6     1.127     0.424 -30.52   0
       249    445.6041    260.7954 300.2419970 +22.6029252     1153.081     72.37733      1.459     2.84     6.912509     20.46681     152.2906        16     1.071     0.925  28.50   0
       250    957.4307    257.8261 300.4025403 +22.7551859     443.8754     72.54382      1.611     2.77     6.349881     20.46681     45.66894         7     0.827     0.587  -7.71   0
       251    829.2429    254.2727 300.3636925 +22.7158305     284.1336     72.52534      1.106     3.69      6.61547     20.46681     40.11748         5     0.957     0.408  45.55   0
       252    690.7481    252.6023 300.3210425 +22.6739240     2264.753     72.54382      1.589     3.17     6.593944     20.46681     233.5491        27     1.295     1.119 -86.62   0
       253    952.0750    247.1340 300.4043367 +22.7505067     3109.732     72.61769      1.692     3.42     6.504422     20.46681     328.1067        32     1.391     1.222 -84.68   0
       254    398.6396    236.5781 300.2352261 +22.5819047     685.8441     72.58076      1.555     3.46     6.921668     20.46681     71.45549        13     1.013     0.923 -87.01   0
       255   1021.4872    235.4145 300.4298064 +22.7678847     1634.939     67.19102      1.669     3.19     6.789486     20.46681     161.0101        22     1.228     1.106 -70.37  24
       256     73.9189    230.5549 300.1361405 +22.4829467     1476.017     72.52534      1.923     4.60     6.781206     20.46681     117.1695        27     1.512     1.212 -19.54   0
       257    104.6821    230.6933 300.1456617 +22.4922001     521.9082     72.69149      1.322     3.01     6.877268     20.46681     68.50163         8     0.939     0.661 -50.51   0
       258    967.6114    228.3024 300.4152939 +22.7497306     619.6121     72.43286      1.673     3.96     6.808547     20.46681     53.61326        10     1.043     0.716  -2.10   0
       259    811.3326    224.5603 300.3677420 +22.7019232     313.7488     72.50685      1.470     4.05     6.819453     20.46681     42.49059         7     1.011     0.465  11.18   0
       260    157.9507    222.9555 300.1647382 +22.5059291     528.7811     72.58076      1.646     3.37     7.101237     20.46681     45.94724         7     0.868     0.623 -23.51   0
       261    952.9718    220.4712 300.4132641 +22.7430993     145.1602     72.54382      1.118     3.69     6.830668     20.46681     34.68766         6     0.788     0.498  -2.75   0
       262    833.9843    216.9816 300.3772660 +22.7065162     417.2793     72.52534      1.677     4.41     6.815952     20.46681     46.17733         6     0.789     0.700  11.34   0
       263    762.2675    214.3025 300.3557651 +22.6842970     529.8282     72.63615      1.540     3.73     6.844843     20.46681     54.63626         8     0.882     0.676  -2.26   0
       264    352.3687    213.9761 300.2281495 +22.5615561     507.0957     72.54382      1.775     3.59     6.939557     20.46681     39.89432         9     0.880     0.775  -8.48   0
       265    860.4589    203.4060 300.3899282 +22.7105256     1971.389     72.50685      1.539     2.75      6.84208     20.46681     210.6044        25     1.239     1.110  69.84   0
       266    278.9508    200.1572 300.2097780 +22.5356053     2101.984     72.58076      1.635     3.13     7.006748     20.46681     207.1797        27     1.272     1.185  71.10   0
       267    357.0485    195.5298 300.2355878 +22.5576532     1063.302     72.52534      1.579     3.16     6.921129     20.46681     121.8252        18     1.127     0.998 -25.49   0
       268    759.0585    195.1771 300.3609663 +22.6778335     453.5008     72.54382      1.371     3.10     6.842906     20.46681     53.33261         8     0.822     0.654 -30.83   0
       269    866.2708    192.3940 300.3953125 +22.7090938     321.4716     72.50685      1.222     3.37     6.873789     20.46681     35.65775         5     0.771     0.426  21.81   0
       270    173.7488    187.4458 300.1811664 +22.5004543     781.5988     72.56229      1.629     3.99     7.156363     20.46681     80.69016        16     1.177     1.079 -17.96   0
       271    711.6802    184.5871 300.3496260 +22.6606157     1689.099     72.52534      1.504     2.93     6.804895     20.46681     188.1879        22     1.237     0.993 -58.94   0
       272    776.1928    184.0594 300.3699151 +22.6797583      553.189     72.50685      1.512     5.00     6.843562     20.46681     62.89589        11     1.276     0.806 -67.32   0
       273    195.7377    180.8355 300.1901501 +22.5051382      560.459     72.56229      1.425     3.57     7.117206     20.46681     67.76917        10     1.121     0.572 -45.38   0
       274    983.1119    177.4978 300.4366077 +22.7397374     833.2562     72.72836      1.624     3.76     6.896454     20.46681     77.41673        16     1.150     0.932  18.73   0
       275    715.7286    176.2913 300.3535782 +22.6594393     732.5079     72.70992      1.581     5.00      6.80591     20.46681     70.93288        16     1.405     1.000  58.98   0
       276    484.9949    177.3309 300.2813323 +22.5907113     288.4821     72.50685      1.193     4.17     6.931015     20.46681     42.37282         7     0.780     0.636 -26.69   0
       277    636.5214    175.3703 300.3291835 +22.6354821      1168.55     72.54382      1.447     3.06     6.761023     20.46681     139.5851        21     1.179     1.050   2.50   0
       278    457.2970    171.7190 300.2745246 +22.5808089     421.7663     72.67304      1.553     5.17     6.934725     20.46681     43.58298         9     1.003     0.761 -39.32   0
       279    831.7706    166.9623 300.3927950 +22.6914574     1392.415     72.56229      1.550     3.33     6.899551     20.46681     134.9241        20     1.156     1.057 -80.79   0
       280    843.6297    166.1741 300.3967503 +22.6947765     803.8357     72.54382      1.606     3.63     6.918791     20.46681     82.97637        13     1.015     0.852 -14.13   0
       281    562.3149    166.8716 300.3088124 +22.6108374     898.4106     72.65459      1.538     4.01     6.832234     20.46681     94.31025        14     1.098     0.950  54.23   0
       282    890.5710    165.1822 300.4117182 +22.7085261     324.9226     72.52534      1.364     3.52     6.928543     20.46681     40.78271         5     0.843     0.423 -69.39   0
       283   1004.6645    156.8344 300.4500360 +22.7402299     1707.854     72.54382      1.788     3.78      6.90038     20.46681     142.9395        29     1.380     1.247  89.58   0
       284    960.4980    156.4473 300.4363740 +22.7269164     1128.621     72.58076      1.644     3.31     6.904191     20.46681     115.5239        20     1.233     1.060 -45.34   0
       285    194.3599    149.1897 300.1999810 +22.4956294     686.8705     72.54382      1.602     3.49     7.208971     20.46681     76.91718        13     1.097     0.859  -0.11   0
       286     56.2426    143.5929 300.1588394 +22.4526647     2415.769     72.56229      1.965     3.83     7.293791     20.46681     210.1031        35     1.509     1.404  53.91   0
       287    879.6210    141.4450 300.4159974 +22.6984188      606.837     72.59923      1.380     2.96     6.987699     20.46681     88.27695        13     0.971     0.834 -17.09   0
       288      6.5549    141.1705 300.1441776 +22.4370882     355.9944     72.58076      1.149     3.27     7.371666     20.46681     50.48576         5     0.778     0.400 -63.78   0
       289    213.7030    137.0806 300.2099244 +22.4979394     5795.771     72.67304      1.690     3.28     7.161202     20.46681     576.6204        41     1.443     1.281  62.39   0
       290    197.2185    127.9316 300.2077614 +22.4903743     582.5342     72.54382      1.859     5.30     7.235824     20.46681     54.50762        13     1.301     1.121 -22.53   0
       291   1012.7130    124.9769 300.4628771 +22.7334615     18693.61     72.48836      1.819     3.51     6.888354     20.46681     1733.589        65     1.597     1.429 -81.64   0
       292    857.8735    118.9301 300.4165107 +22.6854352     3571.632     72.61769      1.629     3.26     7.049694     20.46681     364.1795        34     1.341     1.248  79.36   0
       293    961.5838    117.8611 300.4492224 +22.7161303     2856.884     72.48836      1.742     3.62     6.925094     20.46681     239.3864        33     1.389     1.259  85.04   0
       294    407.2393    114.2048 300.2775802 +22.5492881     738.5569     72.56229      1.534     3.74     6.996358     20.46681     73.12955        12     1.086     0.740   6.66   0
       295    159.9760    114.4143 300.2005574 +22.4753390     385.5584     72.56229      1.608     3.93     7.442667     20.46681      37.3891         5     0.908     0.488  -5.14   0
       296    521.8724    111.7707 300.3140742 +22.5828867     282.3031     72.54382      1.387     4.31     6.919976     20.46681     42.14425         8     1.155     0.698  37.97   0
       297    331.6782    105.7274 300.2568025 +22.5242376     732.9147     72.65459      1.862     3.76     7.007126     20.46681     68.72703        12     1.155     0.788 -50.89   0
       298    335.8109    104.8672 300.2583678 +22.5252271     473.8398     72.54382      1.674     2.63     7.006591     20.46681     44.43405         5     0.755     0.491 -42.79   1
       299     97.6964    103.2300 300.1848123 +22.4534777     733.7236     72.48836      1.755     4.04     7.480907     20.46681      63.5394        14     1.208     0.780  -2.71   0
       300    458.6672    101.4382 300.2977344 +22.5610043     1674.265     72.52534      1.517     2.53     6.961378     20.46681     223.7722        24     1.245     1.084 -88.03   0
       301    386.6432    102.0651 300.2751018 +22.5396334     452.7851     72.52534      1.500     5.48     7.010886     20.46681     48.09813        12     1.116     0.865  49.27   0
       302    519.9905    100.5271 300.3171323 +22.5790891     410.3907     72.54382      1.664     4.11     6.928659     20.46681     38.03569         5     0.740     0.652 -87.90   0
       303    202.1717     96.6872 300.2194296 +22.4828751     421.8241     72.54382      1.481     4.73     7.255854     20.46681     43.69577         8     1.127     0.590 -44.18   0
       304    747.1151     91.2994 300.3909183 +22.6443650     451.1524     72.70992      1.209     3.42     7.125868     20.46681     55.61053         5     0.808     0.418  15.72   0
       305   1022.6165     82.5203 300.4797315 +22.7241938     3094.661     62.17601      1.689     6.28     7.063988     20.46681      348.645        34     1.687     1.224 -74.32  24
       306    232.7160     80.9568 300.2340312 +22.4874955     6077.246     72.50685      1.725     3.36     7.101289     20.46681     546.0037        44     1.446     1.344  64.43   0
       307     84.0361     80.7427 300.1878524 +22.4429243     772.4949     72.54382      2.328     4.44     7.611215     20.46681     55.55655        14     1.129     0.953 -32.96   0
       308    862.2036     79.4299 300.4306653 +22.6753574     222.0023     72.50685      1.365     4.19     7.244655     20.46681     46.89835         6     1.037     0.482   6.98   0
       309    205.4189     74.7426 300.2275519 +22.4775381     303.2832     72.54382      1.378     3.80     7.236978     20.46681     39.93525         5     0.953     0.437 -74.26   0
       310    248.0407     72.2872 300.2416095 +22.4895897      380.292     72.52534      1.819     4.58     7.082817     20.46681     29.30462         6     0.918     0.650  35.97   0
       311    478.8281     66.4673 300.3153483 +22.5569762     6233.038     72.52534      1.600     2.87     6.868352     20.46681     705.6748        39     1.376     1.207  80.88   0
       312    364.5067     66.3718 300.2797777 +22.5227436     515.8276     72.46986      1.405     3.27     7.024029     20.46681     69.09916        10     0.961     0.761 -23.64   0
       313    535.7669     61.0316 300.3348481 +22.5724455     351.1903     72.56229      1.553     3.86     6.852167     20.46681     37.65514         5     0.847     0.503  44.27   0
       314    731.5140     57.0565 300.3971513 +22.6298435      839.751     72.65459      1.778     4.13     7.260284     20.46681     77.78468        15     1.266     0.847 -53.14   0
       315    673.0505     57.6546 300.3787288 +22.6125335     298.7739     72.58076      1.323     3.55     7.307484     20.46681     45.73475         6     0.949     0.719 -58.86   0
       316    823.7635     55.3283 300.4264838 +22.6569268     447.7887     72.54382      1.447     3.82     7.398593     20.46681     56.26634        10     0.995     0.702  39.40   0
       317    132.1456     51.8660 300.2121718 +22.4490270     321.6046     72.59923      1.835     4.35     7.590832     20.46681     32.71825         5     0.847     0.636 -32.66   0
       318    171.6439     50.1201 300.2250236 +22.4603489     521.5366     72.52534      1.577     5.14     7.444609     20.46681     51.22786         8     1.191     0.627  42.10   0
       319    530.4726     49.2762 300.3370081 +22.5674795     463.3856     72.61769      1.511     2.73     6.825686     20.46681     53.86224         8     0.899     0.594 -13.32   0
       320    607.2209     46.5258 300.3618154 +22.5896436       6299.5     72.54382      1.641     3.35     7.083318     20.46681     597.2575        39     1.370     1.238  87.62   0
       321    382.1423     45.5302 300.2920224 +22.5220261     1551.915     72.56229      1.688     3.87     7.029572     20.46681     140.3059        24     1.337     1.096  63.48   0
       322    648.1985     44.0177 300.3754007 +22.6011767     832.1435     72.45137      1.469     4.10     7.299038     20.46681       99.193        16     1.319     0.885  49.76   0
       323    718.0046     41.8540 300.3978653 +22.6214280     359.1873     72.52534      1.639     3.66     7.352134     20.46681     40.14709         5     0.891     0.656 -22.84   0
       324    664.0487     40.2047 300.3815773 +22.6048192     619.5486     72.52534      1.440     3.32     7.411923     20.46681     62.08996         9     0.887     0.719  -6.47   0
       325    973.3480     37.5024 300.4789400 +22.6965043     259.9723     72.61769      1.358     3.73     7.691751     20.46681     41.19329         5     1.006     0.397 -73.42   0
       326    934.0956     37.9614 300.4665392 +22.6849055     504.1567     72.52534      1.497     4.80     7.687224     20.46681     46.87751         8     1.009     0.648  59.95   0
       327    131.1144     37.8635 300.2163883 +22.4446929     685.8917     72.63615      1.703     4.21     7.618272     20.46681      68.0023        14     1.264     0.881 -28.00   0
       328    702.5743     35.7024 300.3950475 +22.6150435     427.9882     72.50685      1.486     2.83     7.421005     20.46681     64.26012         9     0.994     0.741   8.28   0
       329    651.3654     31.4846 300.3804492 +22.5985166      2775.12     72.50685      1.636     3.03     7.398048     20.46681     307.9488        31     1.303     1.223  57.76   0
       330    666.5000     30.7515 300.3854048 +22.6028314     948.3753     72.56229      1.881     3.89     7.500314     20.46681     81.82369        17     1.254     0.950  64.05   0
       331    292.6230     32.1719 300.2684833 +22.4913968     488.1766     72.54382      1.703     4.33     7.032343     20.46681      46.6139         7     1.076     0.495 -40.77   0
       332    738.0945     23.1562 300.4101889 +22.6220524     1539.512     72.56229      1.596     3.35     7.389344     20.46681     164.1924        24     1.283     1.092 -45.20   0
       333    675.6546     16.4106 300.3929056 +22.6014411     730.7665     72.54382      1.389     2.61     7.655185     20.46681     107.4928        13     1.057     0.774  29.51   0
       334    481.4576     15.7817 300.3325917 +22.5431805     1107.151     72.52534      1.618     3.01     6.752864     20.46681     124.0809        15     1.030     0.911  -8.87   0
       335     54.5931     15.8342 300.1997299 +22.4154521     482.8018     72.54382      1.578     3.26     7.816911     20.46681     63.67336        11     1.052     0.757   2.34   0
       336    316.5917   1018.4384 299.9557089 +22.7819076     742.7011     72.56229      5.482     6.44      5.91432     20.46681     25.51463         7     1.844     0.632  55.78  16
       337    767.7467     12.8290 300.4227826 +22.6279445     499.5475     72.56229      1.666     3.84     7.539968     20.46681     45.45011         7     0.994     0.541  14.71   0
       338    718.5726   1013.5881 300.0825008 +22.9010051     378.2122     72.54382      1.721     3.93     5.408936     20.46681     30.87506         5     1.032     0.428  74.72   0
