#   1 NUMBER                 Running object number                                     
#   2 X_IMAGE                Object position along x                                    [pixel]
#   3 Y_IMAGE                Object position along y                                    [pixel]
#   4 ALPHA_J2000            Right ascension of barycenter (J2000)                      [deg]
#   5 DELTA_J2000            Declination of barycenter (J2000)                          [deg]
#   6 FLUX_APER              Flux vector within fixed circular aperture(s)              [count]
#   7 FLUXERR_APER           RMS error vector for aperture flux(es)                     [count]
#   8 FLUX_RADIUS            Fraction-of-light radii                                    [pixel]
#   9 FWHM_IMAGE             FWHM assuming a gaussian core                              [pixel]
#  10 BACKGROUND             Background at centroid position                            [count]
#  11 THRESHOLD              Detection threshold above background                       [count]
#  12 FLUX_MAX               Peak flux above background                                 [count]
#  13 ISOAREA_IMAGE          Isophotal area above Analysis threshold                    [pixel**2]
#  14 A_IMAGE                Profile RMS along major axis                               [pixel]
#  15 B_IMAGE                Profile RMS along minor axis                               [pixel]
#  16 THETA_IMAGE            Position angle (CCW/x)                                     [deg]
#  17 FLAGS                  Extraction flags                                          
         1    702.1838     16.5688 300.3929460 +22.6014914     673.8117     72.20296      1.423     3.18     5.827208     20.37584     100.8786        16     1.098     0.930  48.66   0
         2    411.6579     13.9322 300.3033025 +22.5137830      839.863     72.23975      1.456     3.32     5.498774     20.37584     95.27744        14     1.095     0.844  48.74   0
         3    793.8630     12.9880 300.4226877 +22.6278888     385.1746     72.20296      1.316     2.94     6.119063     20.37584     63.22505         9     0.996     0.616  87.80   0
         4    183.1245      3.8398 300.2354653 +22.4424509     3805.247      68.1906      1.656     3.43     5.404495     20.37584     370.8621        37     1.415     1.269  54.34  24
         5    751.3096      4.5821 300.4121439 +22.6127402     759.4573     70.47095      1.655     4.82     5.929348     20.37584     76.96516        14     1.504     0.795 -74.40  24
         6    605.2819      1.4201 300.3676573 +22.5681384     182.2118      56.7254      1.088     3.50     5.166978     20.37584     43.29878         5     0.809     0.437  19.61  24
         7    508.5335      1.5345 300.3374834 +22.5392168     252.3966     57.40059      1.368     3.33      4.84186     20.37584     45.03751         6     0.869     0.499  -0.20  24
         8    185.3628    992.0027 299.9153333 +22.7267736     1704.164     72.25813      4.970    11.29     74.96812     20.37584     53.11855        33     2.613     1.358  27.12   3
         9    261.3955   1016.7729 299.9309190 +22.7566941     1616.137     72.18456      4.551    10.42     45.72852     20.37584     52.89558        25     1.780     1.700 -84.54  18
        10     98.6440   1011.6042 299.8819976 +22.7063642     4249.025     72.23975     15.192    80.97     89.42069     20.37584     149.5153      1692    16.128    11.280  42.76  27
        11     89.0820    943.8484 299.9010675 +22.6840700      6174.15     72.23975     29.778   119.82     22.71247     20.37584     1341.158      5074    21.948    18.149 -68.23  19
        12    510.4099    976.4673 300.0215278 +22.8198381     430.2138     72.22135      1.740     3.65     4.172296     20.37584     46.53012         6     0.962     0.399 -70.80   0
        13    185.1187    999.5247 299.9128102 +22.7288571     2624.358     72.33164      5.259    18.79     82.02206     20.37584     71.98061        81     4.224     2.323   5.72  19
        14    937.8087    970.8768 300.1565550 +22.9463609     668.2652     72.18456      1.902     7.57     4.202781     20.37584     45.89308        16     1.326     1.209  62.05   0
        15    175.6855    967.0942 299.9204276 +22.7167273     693.2904     72.40508      2.336     7.26     54.30141     20.37584     44.68673        10     1.455     1.014 -26.95   1
        16    558.4653    991.7756 300.0315122 +22.8386429     2349.311     72.20296      1.961     5.04     4.193202     20.37584     146.0276        34     1.454     1.438  24.00   0
        17    159.9788    950.3316 299.9209970 +22.7072070     670.0714     72.22135      4.339     3.80     42.05517     20.37584     36.62498         5     0.983     0.737 -83.91   3
        18    158.6322    958.2449 299.9180043 +22.7090720     1278.924     72.27652      6.430     8.09     48.65917     20.37584     53.86399        17     2.078     0.880  22.81   3
        19    154.6962    954.8146 299.9178964 +22.7069071     1663.885     72.12932     10.013    13.90      45.4297     20.37584      66.7491        40     3.430     1.568  11.12   3
        20    229.9910    985.1223 299.9314494 +22.7381939     5504.291     72.18456      9.250    37.31     59.38737     20.37584     107.9285       455     8.086     5.203 -70.60  19
        21    189.7845   1006.2520 299.9120722 +22.7321862     1049.662     72.22135      2.781    12.68     86.84764     20.37584     55.89764        21     2.641     1.694 -10.04   3
        22    543.6953    948.2193 300.0410827 +22.8217143       484.78     72.12932      2.212     3.76     4.164108     20.37584     46.28636         5     0.995     0.407   4.67   0
        23    663.3654    954.1304 300.0764380 +22.8592933     7003.708     72.22135      1.998     4.69     4.255647     20.37584     372.6988        50     1.573     1.493  44.06   0
        24    367.1499    998.0956 299.9698970 +22.7830696     343.1223      72.2949      1.815     5.39     4.538179     20.37584     42.38462         8     1.422     0.577  54.57   0
        25    571.7819    944.9310 300.0508999 +22.8291929     1539.632     72.22135      1.897     4.87      4.16401     20.37584     94.07183        27     1.476     1.215 -14.22   0
        26    189.6392    987.6235 299.9180877 +22.7268014     786.0999     72.25813      3.814     7.33      70.8378     20.37584     41.01395        10     2.132     0.706 -78.79   3
        27    187.3135    984.0919 299.9185135 +22.7250908     1036.928     72.38673      5.927    10.47     67.66054     20.37584     40.23791        14     3.022     1.012 -50.50   3
        28    465.8548    940.9309 300.0192161 +22.7962784     1174.738     72.25813      1.997     5.67     4.076862     20.37584     76.49635        23     1.455     1.290  21.02   0
        29    396.2995    939.1576 299.9981423 +22.7749071     6614.612     72.20296      1.982     4.65     4.344744     20.37584      453.059        48     1.515     1.499 -67.51   0
        30    158.0542   1007.0796 299.9019375 +22.7229000     543.9604     72.25813      2.114     6.73     90.11446     20.37584     38.32983         9     1.271     1.000 -11.27   2
        31    745.4445    987.6302 300.0911185 +22.8935169     711.5703     72.25813      1.878     6.95     3.916482     20.37584     40.17435        15     1.294     1.047  65.30   0
        32    429.1713    926.9091 300.0123577 +22.7812527     347.2516     72.18456      1.466     4.12      4.16026     20.37584     50.91345         7     0.940     0.515 -43.84   0
        33    645.1209    986.8686 300.0601023 +22.8632201     8757.674     72.33164      2.093     5.08     4.198922     20.37584      474.515        49     1.605     1.521  34.31   3
        34    650.6002    984.7874 300.0624866 +22.8642657     9550.098     72.03716      2.074     4.75     4.202582     20.37584     511.6317        49     1.609     1.484  39.40   3
        35    139.8873    922.7108 299.9237348 +22.6932575     1295.897     72.38673      5.119     6.67     18.93204     20.37584     45.68709         5     2.726     0.458 -16.61   3
        36      8.7441   1003.1305 299.8568182 +22.6769467      2614.76     72.23975     15.883    56.59    -22.12911     20.37584      70.1512       857    15.330     5.797  83.70  24
        37    942.6755    918.3130 300.1751736 +22.9327214     2196.679     72.35001      2.117     5.05     4.229883     20.37584     101.0715        34     1.547     1.394  30.07   0
        38    625.6653    912.2419 300.0783179 +22.8359664     157.9056     72.20296      1.141     2.76     4.307003     20.37584     34.81819         5     0.726     0.449 -75.15   0
        39    731.3639    906.8790 300.1129994 +22.8661124     767.7396     72.16615      2.201     7.03     4.376865     20.37584     40.59381        13     1.204     1.150 -10.50   0
        40     25.2040    984.6365 299.8679489 +22.6765876     588.0211     72.23975      4.148     5.17    -1.298946     20.37584     40.72956         5     1.106     0.684 -81.07   0
        41    766.5303    901.0768 300.1258483 +22.8749866     1072.627     72.33164      1.950     7.21     4.336604     20.37584     63.22158        22     1.365     1.245 -77.28   0
        42    544.2772    901.7383 300.0563829 +22.8085490     365.3918     72.27652      1.689     5.14     4.171359     20.37584     32.19463         9     0.985     0.759 -82.55   0
        43    788.5477    894.8603 300.1347342 +22.8798002     11512.65     72.27652      1.877     4.43     4.302275     20.37584     680.3749        54     1.528     1.462 -83.75   0
        44    834.1100    895.3686 300.1487750 +22.8936005     466.4739     72.16615      1.931     5.99     4.203132     20.37584     37.29201         8     1.077     0.938  41.26   0
        45    979.4498    895.3483 300.1941170 +22.9371419     439.2264     72.25813      1.933     5.22     4.288887     20.37584     27.37481         8     1.111     0.693  10.36   0
        46    219.7176    888.7159 299.9596124 +22.7074632     620.5916     72.35001      5.784     5.49     8.548768     20.37584      35.7119         7     1.052     0.809  59.50   1
        47    100.3901    886.7822 299.9231418 +22.6711019     1372.846     72.18456      9.684     8.65     8.390154     20.37584     70.68811        29     2.173     1.477  16.97   1
        48    839.9019    882.0421 300.1549155 +22.8915087     383.2064     72.22135      1.909     6.80     4.175001     20.37584     27.74357        10     1.578     0.821  85.77   0
        49    493.8763    882.8096 300.0468444 +22.7880033     448.9717     72.20296      1.803     4.40     4.020796     20.37584     39.89049         8     1.099     0.676  45.45   0
        50    177.2750    971.1115 299.9196150 +22.7183562     836.1943     72.35001      2.021     7.49     57.62616     20.37584     49.00487        13     2.242     0.699 -13.51   3
        51    797.1937    877.1062 300.1432041 +22.8772928     1392.028     72.11089      1.857     4.90     4.289655     20.37584      91.1629        23     1.296     1.201 -19.90   0
        52    179.1897    978.2714 299.9178811 +22.7209837     1704.712     72.22135      3.347    13.52     63.44008     20.37584     62.73695        41     2.894     1.758 -28.30   3
        53    649.4977    873.8445 300.0982313 +22.8320881     417.5603     72.22135      1.933     5.57     4.641545     20.37584     30.52424         7     1.051     0.831  51.74   0
        54    834.9499    870.1310 300.1572451 +22.8866038     888.7424     72.22135      2.503     7.75     4.176119     20.37584     53.38099        17     1.568     1.071  45.79   0
        55    943.7724    868.1340 300.1918368 +22.9186354     476.5392     72.20296      2.062     6.27     4.353189     20.37584     38.25511         8     1.587     0.695  35.94   0
        56    882.4968    862.4828 300.1745605 +22.8986538     581.3787     72.38673      2.276     3.64     4.179451     20.37584     40.33471         7     0.844     0.668 -73.06   2
        57    735.1243    860.9661 300.1291037 +22.8540560     686.4594     72.22135      1.678     4.06     4.543448     20.37584     57.47543        11     1.118     0.719  87.86   0
        58    447.5916    856.9250 300.0408520 +22.7666952     4175.788     72.20296      1.781     3.95     4.127627     20.37584     310.0307        34     1.362     1.300  55.32   0
        59    746.3916    857.9211 300.1336060 +22.8565585     568.9606     72.16615      1.742     6.30     4.501605     20.37584     45.61211        12     1.207     0.924  -8.98   0
        60    491.1054    844.7827 300.0583475 +22.7762586     416.0389     72.14774      1.767     5.60     4.105697     20.37584     36.02395         7     1.054     0.839  54.74   0
        61    173.3976    842.7405 299.9601587 +22.6803790     695.6821     72.20296      2.015     3.83     6.992746     20.37584     67.74742        12     1.075     0.927  75.81   0
        62    149.9182    839.3806 299.9539512 +22.6723706     1798.044     72.20296      2.042     4.56     6.819484     20.37584     151.2164        27     1.523     1.165  30.89   0
        63    177.6088    974.6476 299.9185684 +22.7194703      994.111     72.23975      2.297     7.98     60.96322     20.37584     50.81183        21     1.811     0.984 -28.44   3
        64   1021.6743    828.8431 300.2289220 +22.9306816     2022.707     66.15341      2.012     5.54     4.323833     20.37584     115.9003        34     1.531     1.510  22.92  24
        65    976.0144    827.4638 300.2151221 +22.9166090     2116.944     72.18456      1.995     5.05     4.411452     20.37584     121.6194        32     1.467     1.388 -56.74   0
        66     25.2243    828.7960 299.9186364 +22.6319171     357.0933     72.18456      1.482     3.55     4.944654     20.37584     35.22791         5     0.768     0.648  28.40   0
        67    681.3880    827.6705 300.1231832 +22.8283896     412.6772     72.23975      1.745     4.84     4.768977     20.37584     42.41448         6     1.417     0.469  -1.54   0
        68    452.3369    826.8832 300.0520975 +22.7594964     365.3629     72.31327      1.780     3.86     4.244565     20.37584     35.68031         5     0.866     0.494 -38.79   0
        69    181.5154    821.3538 299.9696361 +22.6766803     481.8496     72.20296      1.864     7.55     5.525667     20.37584     38.83216        11     1.399     1.141 -62.12   0
        70    759.7965    821.2336 300.1497143 +22.8500397     655.4875     72.22135      1.683     6.81     4.489545     20.37584     57.57276        16     1.307     1.156   3.09   0
        71    627.6112    815.0442 300.1105324 +22.8086455     4893.364     72.22135      1.716     3.86     4.664539     20.37584     366.2339        36     1.347     1.289  66.36   0
        72    430.3642    812.2974 300.0499997 +22.7487216      632.209     72.22135      1.601     3.48     4.359336     20.37584     57.32501        10     0.920     0.753 -46.82   0
        73    177.7339    808.5981 299.9726072 +22.6718869     1418.548     72.22135      1.811     4.64     4.874291     20.37584     141.3741        26     1.447     1.220  61.04   0
        74    648.1201    807.6678 300.1193205 +22.8126748     741.5797     72.33164      1.610     4.11      4.72884     20.37584     67.80734        15     1.103     1.004  14.01   0
        75    197.6456    806.4260 299.9795048 +22.6772375     370.4517     72.23975      1.347     3.73     4.636455     20.37584     38.52795         6     0.991     0.404 -18.33   0
        76   1020.6244    795.1980 300.2395340 +22.9206987     1250.328     69.84605      2.062     5.96      4.27593     20.37584     74.31959        22     1.427     1.178  61.81  16
        77    803.6187    794.8231 300.1719632 +22.8555852     4321.797     72.22135      1.763     3.89     4.524127     20.37584     281.0711        37     1.416     1.272  42.30   0
        78    212.1679    788.7113 299.9897795 +22.6765122     512.5148     72.18456      1.608     4.70     4.406711     20.37584     49.11976        12     1.171     0.911  50.65   0
        79    520.8061    787.5875 300.0861914 +22.7687459     610.7865     72.09247      1.689     4.91     4.339858     20.37584     56.44838         9     0.986     0.692  -7.04   0
        80    166.8309    785.0944 299.9768576 +22.6618740     1136.818     72.14774      2.046     4.54     4.406711     20.37584     89.59136        22     1.308     1.232  25.32   0
        81    581.9966    780.5941 300.1075225 +22.7850814     529.3294     72.03716      1.501     5.09     4.516051     20.37584     56.69168        12     1.277     0.776 -43.15   0
        82    316.6610    777.2812 300.0259981 +22.7045748        53849     72.31327      1.748     3.81     4.633369     20.37584     4323.989       103     1.551     1.475  41.53   0
        83    987.3998    775.9047 300.2354382 +22.9052037     911.9376     72.09247      1.800     5.19     4.419992     20.37584     68.07251        16     1.268     1.110  -8.44   0
        84    574.6353    776.3878 300.1065969 +22.7816672     1719.499     72.22135      1.703     3.58     4.487304     20.37584     158.9759        19     1.120     1.070  70.68   0
        85    245.0924    775.0745 300.0044520 +22.6824761     635.2513     72.38673      2.100     4.31      4.50376     20.37584     53.81964        12     1.117     0.951  -1.61   0
        86    603.5493    772.4389 300.1168873 +22.7892001     961.1057     72.23975      1.620     4.00     4.606398     20.37584     94.28684        19     1.211     1.056  31.17   0
        87      3.2007    771.7000 299.9303535 +22.6089358     798.4462     65.52789      1.829     4.46     4.537753     20.37584     72.14056        14     1.225     1.123  73.52  24
        88    614.3030    770.8569 300.1207516 +22.7919691     552.4939     72.31327      1.539     4.53     4.640994     20.37584     60.45247        13     0.993     0.981   8.86   0
        89    935.4039    769.0313 300.2214495 +22.8876551     260.5636     72.20296      1.640     4.08     4.751347     20.37584     29.25979         5     0.772     0.617   5.00   0
        90    719.6930    766.8690 300.1548882 +22.8224084      480.231     72.35001      1.813     6.70     4.607474     20.37584     41.63091        11     1.477     0.854 -56.87   0
        91    757.3923    757.4582 300.1696984 +22.8310018     871.0749     72.20296      1.750     3.96     4.612648     20.37584     76.72305        17     1.262     0.958  45.18   0
        92    366.3808    754.5159 300.0488688 +22.7129521      31915.9     72.14774      1.714     3.47     4.510691     20.37584     3232.678        77     1.444     1.395  51.69   0
        93    380.7612    755.0740 300.0531627 +22.7174244      1954.92     72.18456      1.722     3.65      4.47281     20.37584     160.9758        26     1.283     1.194  63.86   0
        94    889.6726    750.6548 300.2131577 +22.8686767     2751.461     72.22135      1.738     4.18     4.892567     20.37584     195.4075        31     1.381     1.225  12.40   0
        95    377.5891    749.0870 300.0541214 +22.7147549     772.7164     72.16615      2.090     4.38      4.47807     20.37584     58.72874        15     1.178     0.959 -78.04   0
        96    647.3937    746.6431 300.1389321 +22.7949334     979.8604     72.23975      1.657     3.58     4.737095     20.37584     99.37225        17     1.136     0.994  -5.18   0
        97    484.0826    746.6201 300.0880731 +22.7459759     418.1654     72.18456      1.560     3.86     4.302479     20.37584     54.17555        10     0.997     0.894 -56.73   0
        98    248.9188    746.1803 300.0150337 +22.6753335     833.2864     72.20296      1.680     4.46      4.59938     20.37584     81.88487        17     1.222     1.028  53.12   0
        99     54.4995    742.2111 299.9558780 +22.6158719     520.8979     72.12932      1.584     3.21     4.422935     20.37584     47.76126         7     0.927     0.494 -84.58   0
       100    494.7880    741.2784 300.0931426 +22.7476517     828.0417     72.20296      1.647     3.38     4.313592     20.37584     86.77372        16     1.052     0.987 -45.77   0
       101    895.5283    738.6358 300.2188909 +22.8669773     563.6012     72.20296      1.603     5.09     4.942118     20.37584     52.22332        11     1.127     0.892   2.62   0
       102    440.2022    735.6910 300.0779640 +22.7296832     614.3683     72.14774      1.909     6.44     4.345039     20.37584     52.87672        13     1.373     0.849 -89.89   0
       103    352.7028    736.9940 300.0503073 +22.7038218     458.6955     72.12932      1.754     4.29     4.543521     20.37584     43.13994         9     1.114     0.754  10.11   0
       104     82.8194    735.2274 299.9669492 +22.6223657     505.1986     72.22135      1.631     2.51     4.406259     20.37584     67.04927         6     0.819     0.614  86.14   0
       105    873.1017    733.1178 300.2136895 +22.8586742     311.3666     72.38673      1.357     3.86     4.936225     20.37584     35.96024         6     0.958     0.447 -53.97   0
       106    246.7366    730.6646 300.0193975 +22.6702271     598.3732     72.25813      1.758     3.46     4.640987     20.37584     61.50026        12     1.058     0.783  55.29   0
       107    570.0045    721.2817 300.1230660 +22.7644565     490.8047     72.14774      1.418     3.54      4.52837     20.37584     48.92831        10     0.926     0.738  86.12   0
       108    539.6337    719.6895 300.1141243 +22.7548963     541.0333     72.20296      1.410     4.14     4.423517     20.37584     52.26906         9     1.002     0.623   4.23   0
       109    397.0126    737.4368 300.0639530 +22.7172351     291.0454     72.20296      1.564     3.72     4.420171     20.37584     47.12458         5     0.810     0.581  88.73   0
       110    955.9774    716.0326 300.2450954 +22.8785869     4445.671     72.22135      1.733     3.69     4.828552     20.37584     321.5564        37     1.349     1.304  54.94   0
       111    561.4808    716.8878 300.1218391 +22.7606401      1238.69     72.35001      1.463     3.24     4.508658     20.37584     140.8562        16     1.117     0.879  43.21   0
       112    481.0136    716.6617 300.0968542 +22.7364553     362.9277     72.18456      1.447     4.24     4.301037     20.37584     36.00632         7     0.769     0.665 -10.36   0
       113    643.2870    711.6476 300.1490265 +22.7836524     279.2604     72.22135      1.523     5.31      4.77972     20.37584     39.77562         7     1.046     0.776  21.43   0
       114    944.4507    707.3663 300.2443157 +22.8726442     1714.218     72.23975      1.842     4.11     4.939271     20.37584     114.6394        23     1.217     1.195  31.59   0
       115    307.4736    701.0892 300.0479026 +22.6799546     881.5891     72.38673      1.604     3.44     4.963779     20.37584     106.1809        17     1.178     1.037  30.93   0
       116    173.8212    701.8484 300.0060862 +22.6400892     367.8016     72.23975      1.506     3.60     4.796972     20.37584      46.3075         5     1.100     0.608  70.56   0
       117    975.7006    697.6432 300.2572260 +22.8792082     1719.247     72.22135      1.814     4.00     4.825535     20.37584     127.9712        24     1.256     1.221 -26.58   0
       118    770.9325    698.6121 300.1930455 +22.8181542     2723.301     72.22135      1.710     3.52      4.81391     20.37584     218.8268        31     1.475     1.123   4.09   0
       119    853.7392    684.2662 300.2235275 +22.8388375     455.0934     72.25813      1.607     4.13     4.952894     20.37584     55.04977         9     1.222     0.657  72.51   0
       120    156.5651    684.5583 300.0063390 +22.6299526     604.6655     72.27652      1.812     4.62     4.985761     20.37584     52.98904         8     1.446     0.419  59.14   0
       121    889.2609    675.5801 300.2374290 +22.8469806     148975.5     72.16615      1.672     3.54     5.010446     20.37584     12350.49       155     1.524     1.489 -75.72   0
       122    652.1286    679.1620 300.1623382 +22.7769716     362.0217     72.18456      1.410     3.45      4.85567     20.37584     45.96828         6     0.810     0.650  80.04   0
       123    741.5396    675.7443 300.1913140 +22.8027789     825.5035      72.2949      1.776     4.91     4.836536     20.37584     69.44887        15     1.222     0.923  56.65   0
       124    922.3469    668.6987 300.2499859 +22.8549117     305.6736     72.31327      1.328     4.07     5.059594     20.37584     51.98306         7     1.163     0.632   0.07   0
       125    575.5377    664.3255 300.1432980 +22.7497589     1567.915     72.25813      1.534     3.11     4.802135     20.37584     168.9451        19     1.111     0.995  69.33   0
       126    756.7231    661.6428 300.2006292 +22.8032763     9550.352     72.20296      1.576     3.24      4.85287     20.37584     945.7395        47     1.327     1.258  42.54   0
       127    258.1149    656.5833 300.0470087 +22.6523806     4953.932     72.18456      1.613     3.07     5.032436     20.37584     588.7044        41     1.364     1.285  40.21   0
       128    340.3420    654.6670 300.0732131 +22.6764858     1137.075     72.25813      1.553     3.05      4.96788     20.37584     139.4576        16     1.062     0.968  33.97   0
       129    548.3539    650.4223 300.1393483 +22.7376195     841.0469     72.25813      1.708     4.15     4.842013     20.37584     78.34858        15     1.190     0.964 -75.41   0
       130    215.8588    652.1226 300.0353152 +22.6384287     409.1454     72.25813      1.422     4.52     5.011861     20.37584     56.92334        10     1.065     0.714   8.92   0
       131    540.0933    642.3509 300.1393980 +22.7328259     3344.459     72.25813      1.480     2.92      4.88077     20.37584     334.2545        26     1.259     1.016  50.14   0
       132    530.3845    636.1230 300.1383976 +22.7281278     1432.917     72.22135      1.512     2.67     4.881323     20.37584     153.9701        18     1.042     0.946  81.90   0
       133    924.3423    634.6296 300.2616782 +22.8457173     356.6866     72.23975      1.288     4.70     5.009201     20.37584     42.41165         7     0.849     0.738 -56.90   0
       134    459.2372    635.6971 300.1163822 +22.7066817     279.0415     72.22135      1.350     3.46     4.688059     20.37584     47.43362         5     0.783     0.442 -11.34   0
       135    194.0284    632.3246 300.0349581 +22.6262006     638.9872     72.23975      1.349     3.08     5.097867     20.37584     73.80868        10     0.932     0.770 -16.16   0
       136    207.7373    630.6141 300.0397769 +22.6298208     611.6379     72.18456      1.734     4.43     5.070288     20.37584     68.46664        11     1.159     0.804  33.11   0
       137     94.2038    630.7917 300.0044204 +22.5958214      412.143      72.0556      1.832     3.40     4.951152     20.37584     31.71802         5     0.961     0.348  46.21   0
       138    977.3371    627.7171 300.2804585 +22.8595987     567.3528     72.31327      1.869     5.96     4.988575     20.37584     36.48987        11     1.160     0.861   0.11   0
       139    265.0422    627.5261 300.0586034 +22.6461182     337.8233     72.20296      1.743     5.09     5.069948     20.37584      32.2305         6     0.922     0.795 -81.64   0
       140    233.5674    627.2764 300.0488945 +22.6366087     575.8069     72.22135      1.769     6.57     5.050538     20.37584     54.12817        14     1.202     1.008  39.73   0
       141    554.1033    626.3904 300.1489466 +22.7324408     429.3336     72.14774      1.308     4.22     5.063089     20.37584        49.14         8     0.907     0.727  72.93   0
       142    455.1295    625.8829 300.1182917 +22.7026324     1911.249     72.35001      1.536     3.19     4.755592     20.37584     204.9494        24     1.170     1.118  10.43   0
       143    109.1399    620.5876 300.0123779 +22.5973736      19961.1     72.18456      1.808     3.49     5.081594     20.37584     2158.961        69     1.553     1.430  39.62   0
       144    540.2874    621.3575 300.1462786 +22.7268551     1062.468     72.22135      1.530     3.06     5.069788     20.37584      120.943        17     1.070     0.908 -41.57   0
       145     30.2867    621.9989 299.9874119 +22.5741260     676.2893     72.12932      1.875     6.66     5.463166     20.37584      49.3885        13     1.321     0.943  14.92   0
       146    575.3528    620.1191 300.1576027 +22.7370073      439.416     72.22135      1.469     3.28     5.134932     20.37584     46.47518         6     0.813     0.613  56.73   0
       147    293.5096    612.8104 300.0722395 +22.6504298     405.8219     72.16615      1.784     4.42     5.074892     20.37584     32.76984         6     0.903     0.664   8.26   0
       148    623.0914    609.0334 300.1760756 +22.7481274     382.5219     72.18456      1.566     4.88      5.18782     20.37584     34.25985         7     0.926     0.728   3.12   0
       149    958.1827    607.6682 300.2809954 +22.8481003     980.3239     72.22135      1.616     3.98     4.979885     20.37584     74.58443        17     1.071     1.046  49.46   0
       150     55.3115    604.7929 300.0007775 +22.5766965     1656.246     72.12932      2.226     5.97     5.541281     20.37584     127.3814        33     1.797     1.363  74.54   0
       151    824.8873    605.7359 300.2400454 +22.8076292     621.3843     72.31327      1.806     4.65     4.810719     20.37584     49.27594        10     0.930     0.876 -13.05   0
       152    121.4221    605.3375 300.0211496 +22.5966816     471.5912     72.20296      1.663     5.13     5.194396     20.37584     41.03908         8     0.992     0.764  24.44   0
       153    503.3442    601.8525 300.1411100 +22.7101823     416.6391     72.25813      1.449     4.43     5.034907     20.37584     48.79678         7     0.965     0.586  72.07   0
       154    898.7968    600.4774 300.2648046 +22.8282514     759.3986     72.12932      1.721     3.83     4.889177     20.37584     65.84798        14     1.051     0.945 -69.83   2
       155    894.1035    599.8586 300.2635416 +22.8266682      507.769      72.2949      2.455     6.00     4.877639     20.37584     38.03702        11     1.138     0.995  -1.06   3
       156    643.1061    598.7521 300.1856514 +22.7511705     195.4277     72.23975      1.154     2.94     5.166422     20.37584     41.93324         7     0.843     0.583  26.14   0
       157    460.3044    594.4388 300.1301171 +22.6951543     837.2801     72.20296      1.704     3.23     4.939846     20.37584     86.32996        13     1.014     0.893  66.24   0
       158    608.1804    593.1044 300.1766045 +22.7390841     562.9294     72.12932      1.506     2.59     5.291159     20.37584     65.27161         8     0.781     0.665 -16.54   0
       159    655.4594    591.2429 300.1919398 +22.7527142     367.0104     72.20296      1.171     2.62     5.168553     20.37584     57.73497         7     0.787     0.626 -67.78   0
       160    625.9529    590.9760 300.1828329 +22.7437975     512.2562     72.23975      1.419     3.32     5.249285     20.37584     65.65269         7     0.820     0.679 -28.49   0
       161    504.4308    589.9091 300.1453279 +22.7070779     962.9738     72.16615      1.600     3.34     5.149842     20.37584     88.25124        17     1.085     0.977  26.02   0
       162    938.2554    585.6021 300.2819462 +22.8357906     3355.263     72.16615      1.628     3.42     4.929482     20.37584     309.9668        33     1.283     1.221 -81.49   0
       163    470.1058    585.2900 300.1361404 +22.6954646     1740.006     72.38673      1.466     3.00     5.014617     20.37584     172.9739        22     1.229     1.008  71.34   0
       164     31.9350    578.8073 300.0019528 +22.5622293     5140.431     72.20296      1.788     3.67     5.741892     20.37584     527.5367        39     1.492     1.303  14.45   0
       165    499.1854    576.4161 300.1480771 +22.7016308     245.8533     72.16615      1.381     3.48     5.240138     20.37584     26.19915         5     0.769     0.455  17.89   0
       166    977.4449    575.5363 300.2974435 +22.8446300     306.6298     72.23975      1.386     4.31     4.950144     20.37584     42.82052         6     0.928     0.700  -6.23   0
       167    333.4342    572.0385 300.0979045 +22.6506946     9041.437     72.25813      1.534     2.82     4.929692     20.37584     1075.748        38     1.266     1.193  75.00   0
       168    455.8829    569.1241 300.1369629 +22.6865596     8963.354     72.31327      1.458     2.95     5.077375     20.37584     937.1981        38     1.243     1.121  61.76   0
       169    221.5206    566.3661 300.0649318 +22.6155144     280.2253     72.16615      1.677     4.79     4.992702     20.37584     27.65517         6     0.969     0.670 -22.52   0
       170    274.2323    564.6650 300.0818802 +22.6308299       583.06     72.22135      0.719     1.02     4.903827     20.37584     354.0184         5     0.534     0.421 -83.46   0
       171    867.5335    563.2249 300.2671538 +22.8081822     1964.238     72.20296      1.619     3.02     4.813196     20.37584     197.0524        23     1.245     1.093  70.76   0
       172    952.2395    560.7029 300.2943969 +22.8328194     12688.91     72.20296      1.626     3.41     4.895561     20.37584     1117.264        51     1.366     1.317  89.28   0
       173    516.4738    558.7516 300.1591980 +22.7017381     11614.38     72.22135      1.448     2.66     5.530961     20.37584     1502.475        41     1.219     1.142  63.98   0
       174    243.8205    554.1085 300.0758485 +22.6186819      1353.64     72.14774      1.536     3.13     4.919636     20.37584     154.2361        20     1.119     1.088 -36.62   0
       175    686.2244    554.7793 300.2133704 +22.7514542     582.0469     72.22135      1.447     3.07      5.21987     20.37584     63.95784        10     1.033     0.619 -14.57   0
       176    401.5135    553.3315 300.1251670 +22.6657297      357.825     72.31327      1.423     2.73     4.972572     20.37584     41.04696         5     0.750     0.673 -37.81   0
       177    491.0591    551.9119 300.1535052 +22.6921579     395.4362      72.2949      1.522     4.22     5.382118     20.37584     51.49265         8     1.027     0.694  77.14   0
       178    234.0552    551.5507 300.0736418 +22.6150199     531.0325     72.25813      0.677     0.53     4.934807     20.37584     239.3565         5     0.522     0.419  59.28   0
       179    448.1690    546.9463 300.1417640 +22.6778788     4332.912     72.23975      1.412     2.92      5.16078     20.37584     518.0358        27     1.150     1.039  57.55   0
       180    790.8359    547.1767 300.2484487 +22.7806019     717.9376     72.23975      1.402     3.93     4.820682     20.37584     75.89016        13     1.087     0.882  33.03   0
       181    426.5155    545.4346 300.1355140 +22.6709553     1226.734     72.18456      1.511     2.84     5.056747     20.37584     140.5124        17     1.013     0.983 -54.85   0
       182    180.8382    544.7721 300.0592930 +22.5971183     721.2668     72.23975      1.470     3.21      5.04622     20.37584     83.05176        14     1.018     0.911 -24.39   0
       183    867.9378    542.5583 300.2739921 +22.8023628     1577.542     72.20296      1.606     3.35     4.813071     20.37584     162.0336        22     1.167     1.099  -0.04   0
       184    564.7812    534.4993 300.1821193 +22.7092462     207414.1     72.12932      1.448     2.74     5.795259     20.37584      26302.3       194     1.466     1.417 -17.91   0
       185    748.4784    539.7457 300.2376567 +22.7657807     741.7808     72.25813      1.443     2.96     4.870648     20.37584     105.4206        16     1.058     0.953  80.07   0
       186    388.4130    540.9694 300.1251041 +22.6582534     394.5006     72.22135      1.407     3.60     4.978475     20.37584     51.25291         7     0.768     0.612 -67.65   0
       187    842.1031    538.4174 300.2672797 +22.7934368     295.1338     72.12932      1.188     3.44     4.817886     20.37584     40.06213         5     0.864     0.492   2.05   0
       188    952.6818    536.1472 300.3025102 +22.8258920     375.8054     72.25813      1.705     4.83     4.874244     20.37584     34.95984         7     1.175     0.562  59.16   0
       189    250.8555    534.3704 300.0844464 +22.6151251     3457.461     72.22135      1.563     3.16     4.879785     20.37584     346.3147        28     1.232     1.129  32.90   0
       190    817.0164    530.7204 300.2619563 +22.7837123     540.1566     72.23975      1.427     3.73     4.825053     20.37584     54.55623        10     1.065     0.813  -3.98   0
       191    835.4056    529.3078 300.2681495 +22.7888128     288.2454     72.12932      1.755     3.94     4.827101     20.37584     31.61261         5     0.803     0.705 -41.61   0
       192    150.8701    522.0040 300.0573680 +22.5815976     3289.652     72.16615      0.614     1.18     5.085793     20.37584     1654.031         9     0.586     0.471  86.71   0
       193    455.2901    514.9985 300.1543555 +22.6708375     2839.417     72.14774      1.605     2.81     5.272043     20.37584     343.7289        33     1.603     1.080 -80.01   0
       194    299.9964    517.2710 300.1052860 +22.6249472     521.2821     72.16615      1.479     3.60     4.792942     20.37584     56.54461        12     1.213     0.676   2.40   0
       195    904.9695    515.1203 300.2944536 +22.8055627     377.1788     72.22135      1.525     4.61     4.843666     20.37584     35.14705         7     0.909     0.664  58.06   0
       196    611.5685    512.8091 300.2037377 +22.7170317     279.3156     72.22135      1.083     3.63     5.568487     20.37584     29.61839         5     0.991     0.382  -5.68   0
       197    866.7988    511.4931 300.2837253 +22.7930917     346.0689     72.12932      1.406     4.10     4.845629     20.37584     43.68112         7     0.989     0.486   7.77   0
       198    773.0669    503.8696 300.2569724 +22.7628338     342.5214     72.27652      1.239     2.79     4.886556     20.37584     51.15728         8     0.794     0.666  24.61   0
       199    852.4366    501.1649 300.2825997 +22.7858225     1725.251      72.2949      1.439     3.05     4.855769     20.37584     179.7896        17     1.047     0.975  64.98   0
       200    817.6000    500.9839 300.2717947 +22.7753396     1294.022     72.11089      0.589     0.73     4.855769     20.37584     799.4653         5     0.490     0.295  -2.23   0
       201    738.7443    501.2156 300.2471344 +22.7517924     293.0138     72.20296      1.533     4.50     4.931647     20.37584     28.86163         7     0.898     0.641  55.67   0
       202    723.5477    498.7938 300.2431838 +22.7465452     2572.677     72.18456      1.447     2.64     5.024335     20.37584     319.5241        26     1.156     1.061 -87.94   0
       203    967.9326    496.8013 300.3200459 +22.8191444     457.4095     72.18456      1.440     4.41     4.918579     20.37584     46.72758         8     0.912     0.695  50.65   3
       204    966.4193    492.0786 300.3211072 +22.8173334     707.0414     72.22135      1.710     4.72     4.917593     20.37584     71.92091        13     1.295     0.861  64.72   3
       205    510.8759    494.8830 300.1781948 +22.6817152     679.7091     72.31327      1.466     3.90     5.686494     20.37584     95.32286        11     1.187     0.710  77.58   0
       206    628.4709    495.7525 300.2145422 +22.7171942     430.9197     72.20296      1.407     3.45     5.561462     20.37584     55.08522         8     0.941     0.595  18.25   0
       207    981.0641    492.7832 300.3254482 +22.8219197     1259.522     72.20296      1.568     3.48      4.93828     20.37584     132.1071        19     1.146     1.072   5.46   0
       208    852.7048    491.1390 300.2859388 +22.7830206     2450.653     72.31327      1.782     3.53     4.866008     20.37584     257.2069        30     1.530     1.080  74.64   0
       209    606.0750    489.3770 300.2096346 +22.7086536     747.8104     72.25813      1.930     2.48     5.681826     20.37584     68.74888         8     0.744     0.694 -68.02   2
       210    392.0419    489.3057 300.1430091 +22.6445048     441.2513     72.23975      1.403     3.41     5.055008     20.37584     45.88774         5     0.791     0.425  15.44   0
       211    890.8510    486.2986 300.2994084 +22.7930497     4430.556     72.31327      1.495     2.87      4.87134     20.37584     490.5097        31     1.210     1.155  75.29   0
       212    444.5767    487.7986 300.1598517 +22.6598149     496.4871     72.16615      1.392     4.14     5.267496     20.37584      57.2081        12     1.092     0.911 -23.77   0
       213    531.5582    485.9754 300.1875279 +22.6853529     341.4531     72.27652      1.605     3.12     5.841381     20.37584     41.52208         5     0.775     0.568   2.83   0
       214    551.1643    482.1155 300.1948875 +22.6901178     396.1938     72.20296      1.422     4.86     5.908147     20.37584     48.55499         9     0.853     0.785  16.55   0
       215    122.9620    476.3957 300.0634990 +22.5601391     1118.969     72.25813      1.823     3.85     5.073016     20.37584     93.98373        18     1.215     0.982  38.62   0
       216    982.7783    476.8284 300.3311636 +22.8178448     790.5397     72.22135      1.477     3.57     4.946773     20.37584     84.80107        15     1.082     0.990  -0.79   0
       217    922.3900    474.2917 300.3131454 +22.7990392     344.8364     72.16615      1.354     3.47     4.882689     20.37584     34.56141         5     0.743     0.467  75.80   0
       218    783.7737    470.1909 300.2712457 +22.7563596     382.9737     72.22135      1.489     4.49     4.894532     20.37584      42.9973         8     0.841     0.681  52.46   0
       219    978.9374    466.4504 300.3333346 +22.8137108     350.0356     72.27652      1.350     3.65     4.952772     20.37584     42.19276         6     0.799     0.497  -1.82   0
       220    116.0281    466.0120 300.0647143 +22.5550797     465.8513     72.22135      1.431     4.34     5.091121     20.37584     44.53037         6     1.028     0.522  77.15   0
       221    723.0996    460.8381 300.2553676 +22.7355025      474.861     72.23975      1.584     3.87     5.029099     20.37584     53.40482        10     0.993     0.710 -56.74   0
       222    611.8665    458.5351 300.2214522 +22.7015265     281.9399     72.27652      1.187     3.52     5.573317     20.37584     42.16283         6     0.802     0.499   1.29   0
       223    664.1604    456.6902 300.2383452 +22.7166591     791.5014     72.22135      1.325     2.62     5.391182     20.37584     100.3999        12     0.893     0.843  70.13   0
       224    978.7005    449.7097 300.3386957 +22.8088257     614.1919     72.38673      1.681     2.80     4.968655     20.37584     73.50314         8     0.881     0.632  64.54   0
       225    725.0915    448.9707 300.2598411 +22.7326880     917.4177     72.18456      1.408     2.81     5.002647     20.37584     106.9566        11     0.853     0.824  34.48   0
       226    882.3524    445.3745 300.3100441 +22.7787393     889.9212     72.22135      1.284     3.05     4.887721     20.37584     103.7019        18     1.097     0.968  61.91   0
       227    841.1250    443.3947 300.2978285 +22.7658278     214.0456     72.14774      1.143     4.14     4.876868     20.37584     35.93246         6     0.773     0.633 -43.71   0
       228    866.6111    441.4888 300.3063958 +22.7729097     687.4373     72.16615      1.497     3.23     4.879973     20.37584     84.88855        10     0.906     0.832 -34.35   0
       229    847.0353    441.8047 300.3001879 +22.7671401     326.2316     72.22135      1.196     2.87      4.87734     20.37584     46.35766         5     0.788     0.483  48.16   0
       230    610.9037    439.3775 300.2273714 +22.6957332     3381.242     72.12932      1.406     2.67     5.474119     20.37584     440.3476        31     1.216     1.086 -88.15   0
       231    971.4566    438.3202 300.3401328 +22.8033822      493.847     72.25813      1.456     4.40     4.970932     20.37584     57.73649        11     1.071     0.817 -89.17   0
       232     87.3591    430.4245 300.0673541 +22.5362692     362.6654     72.25813      1.681     5.36     5.117017     20.37584      34.3377         9     1.259     0.644 -82.99   0
       233    616.3636    427.2599 300.2330059 +22.6938863      266.895     72.23975      1.313     3.46     5.407504     20.37584      39.4137         5     0.766     0.452  74.55   0
       234    451.1638    426.4791 300.1818087 +22.6441749     356.7083     72.16615      1.358     3.13     5.460815     20.37584     49.88251         7     0.933     0.618 -77.63   0
       235    382.2962    427.3980 300.1600730 +22.6238041      264.787     72.12932      1.258     3.50     5.353872     20.37584     38.56413         5     0.740     0.478  10.60   0
       236   1022.3907    418.6839 300.3624023 +22.8129780     1275.602     62.96365      1.628     3.69     5.050679     20.37584     114.6657        19     1.160     1.051  76.84  24
       237    894.2400    418.6246 300.3224358 +22.7746062     586.4638     72.25813      1.448     2.62     4.907197     20.37584     74.53509        10     0.883     0.711  35.50   0
       238    980.6117    417.3840 300.3497859 +22.8001010     896.3975     72.16615      1.499     3.23     5.003794     20.37584     104.2448        16     1.132     0.937  70.47   0
       239    721.4163    413.6051 300.2701756 +22.7214222     1134.264     72.14774      1.426     2.46     4.996381     20.37584     141.1325        14     0.920     0.880 -83.99   0
       240    517.6129    414.0097 300.2065469 +22.6604997     406.7123     72.11089      1.336     2.81     5.604236     20.37584     62.06232         8     0.903     0.608  81.76   0
       241    225.6697    411.5635 300.1164808 +22.5723172     650.3362     72.20296      1.455     2.96     5.234351     20.37584     83.69968        10     1.015     0.679   5.96   0
       242    287.7904    407.2290 300.1372114 +22.5896909     3644.029     72.22135      1.451     2.76     5.380619     20.37584     405.8885        32     1.224     1.117  69.90   0
       243   1020.9669    405.9377 300.3660954 +22.8088857     4459.022     68.88841      1.616     3.14     5.051417     20.37584     390.6449        34     1.333     1.207 -85.57  24
       244    234.9767    401.8866 300.1225163 +22.5723281     7780.854     72.16615      1.514     3.10     5.276314     20.37584     793.1544        38     1.310     1.167  57.11   0
       245   1000.9479    397.0471 300.3627333 +22.8003378      1796.79     72.25813      1.528     3.44     5.027606     20.37584     173.7382        25     1.290     1.105  68.26   0
       246    375.8072    396.2686 300.1681569 +22.6129185     4719.786     72.18456      1.410     2.65     5.401303     20.37584     561.5209        29     1.128     1.108  46.88   0
       247    620.0115    393.0176 300.2452568 +22.6851382     18922.27     72.18456      1.413     2.93      5.35177     20.37584      2165.11        60     1.317     1.225  56.29   0
       248    467.2587    395.0985 300.1970050 +22.6399818     351.8719     72.31327      1.818     4.27     5.438936     20.37584     33.55264         5     0.737     0.706 -68.18   0
       249    637.3426    393.3334 300.2505542 +22.6904193     878.3902     72.25813      2.133     6.91     5.345226     20.37584     67.13641        18     1.691     0.796 -32.59   0
       250    816.9734    383.5807 300.3097121 +22.7414003     220.3412     72.23975      1.508     4.23     4.881975     20.37584      50.2524         8     0.984     0.638 -44.02   0
       251    953.6443    375.7204 300.3548942 +22.7800476     903.7461     72.20296      1.826     3.60     4.971648     20.37584     85.31966        15     1.125     0.945 -55.66   0
       252    663.7144    374.1855 300.2649861 +22.6928132     340.7302     72.16615      1.820     4.60     5.323857     20.37584     31.44988         6     0.926     0.648 -11.28   0
       253    174.6681    372.9460 300.1131522 +22.5459420     2112.139     72.25813      1.553     3.13       5.3388     20.37584     245.8455        23     1.175     1.075  78.98   0
       254    560.7308    362.4283 300.2367166 +22.6585931     6789.553     72.22135      1.387     2.41     5.383854     20.37584     946.4342        37     1.273     1.066  66.45   0
       255    974.4247    362.9535 300.3655216 +22.7825942      1282.74     72.23975      1.631     3.15      4.99546     20.37584     112.9778        17     1.079     0.974  62.39   0
       256    275.3297    361.7359 300.1480985 +22.5728917     667.3517     72.25813      1.486     2.87     5.423116     20.37584     86.77545        11     1.065     0.668  51.81   0
       257    133.1385    354.8831 300.1061005 +22.5283075     460.5253     72.31327      1.466     3.86     5.232331     20.37584      69.1219        11     1.097     0.845  21.78   0
       258    674.5466    352.8930 300.2752715 +22.6899363     405.1241     72.27652      1.125     2.32     5.292721     20.37584      67.1734         8     0.814     0.625 -41.02   0
       259    764.9658    351.4942 300.3039093 +22.7166056     1221.558     72.20296      1.565     3.15     4.889435     20.37584     132.3444        16     1.109     0.906 -77.45   0
       260    467.2912    348.6678 300.2120827 +22.6266515     6113.686     72.35001      1.372     2.52     5.332168     20.37584      807.129        30     1.138     1.044  67.71   0
       261    637.8952    349.1751 300.2650569 +22.6778929     1434.493     72.14774      0.642     1.40     5.329347     20.37584     749.2985         5     0.623     0.344  18.20   0
       262     53.5977    347.8452 300.0836589 +22.5024428     221.8706     72.20296      1.447     4.22     5.018861     20.37584     34.66002         5     1.145     0.444 -78.58   0
       263    957.1666    343.6953 300.3663861 +22.7718904     668.2778     72.20296      1.510     3.41     4.978951     20.37584     79.21806        12     0.976     0.822 -20.53   0
       264    859.2950    343.1099 300.3360443 +22.7424312     1433.312     72.40508      1.472     3.42     4.914333     20.37584      161.319        20     1.165     1.016 -87.73   0
       265    452.1071    337.4130 300.2110071 +22.6188693     440.2692     72.14774      1.340     3.82     5.365849     20.37584     57.83859         7     0.865     0.556 -31.36   0
       266    534.6833    335.6340 300.2372981 +22.6430918     513.6141     72.18456      1.282     2.52     5.340201     20.37584     59.62981         8     0.857     0.591  14.98   0
       267    514.7372    333.0594 300.2319216 +22.6363780     254.6169     72.25813      1.563     3.90     5.329775     20.37584     45.47057         5     0.997     0.450  24.38   0
       268    832.2844    330.7654 300.3316261 +22.7307967      603.731     72.18456      1.459     3.90     4.919147     20.37584     65.37666        13     1.036     0.918 -53.04   0
       269    354.8488    327.8266 300.1838436 +22.5869787     2505.067     72.23975      1.453     2.78     5.351773     20.37584     317.6062        26     1.203     1.011  65.13   0
       270     73.1668    325.1095 300.0971176 +22.5017823     1130.381     72.18456      1.642     3.47     5.154881     20.37584     112.7913        15     1.120     0.896  13.15   0
       271    702.7700    322.6176 300.2938915 +22.6896834     323.7724     72.20296      1.308     3.73     5.210103     20.37584      52.5117         7     0.837     0.669  80.34   0
       272    324.1975    317.2004 300.1777530 +22.5747428     30131.78     72.00027      1.468     2.89     5.384562     20.37584     3379.358        69     1.390     1.219  65.81   0
       273    858.8814    315.0004 300.3450363 +22.7342235     1451.109     72.09247      1.406     3.19     4.919336     20.37584     146.9805        19     1.117     0.948  38.40   0
       274     20.4671    304.9115 300.0872917 +22.4801857     4846.132     72.33164      1.756     3.55     5.162856     20.37584     492.8087        39     1.417     1.314  55.28   0
       275    774.1863    303.9727 300.3222034 +22.7057020     410.9251     72.22135      1.188     2.35     5.071785     20.37584      75.2549         8     0.788     0.632  43.72   0
       276    198.5470    303.6815 300.1430513 +22.5332090     418.4309     72.25813      1.171     2.38     5.413447     20.37584     60.56556         7     0.790     0.587 -19.11   0
       277    422.5932    302.6318 300.2131034 +22.6000349     523.3801     72.22135      1.589     4.51     5.385573     20.37584     59.55106         8     0.946     0.710 -49.09   0
       278    734.7029    297.2127 300.3120876 +22.6919390      1935.55     72.11089      1.418     2.72     5.255579     20.37584     228.0288        21     1.110     0.970 -65.80   0
       279    543.0929    291.8094 300.2541359 +22.6330154     433.4399     72.14774      1.333     2.18     5.346436     20.37584     57.64968         6     0.687     0.564 -38.26   0
       280    949.6685    290.0987 300.3814368 +22.7542295     730.6041     72.31327      1.752     3.66     4.998085     20.37584     73.47665        11     0.967     0.828  10.11   0
       281    396.5379    281.7293 300.2117737 +22.5862242     2032.668     72.25813      1.555     2.90     5.353665     20.37584     244.5349        26     1.311     1.021  55.43   0
       282    608.2806    281.0031 300.2779481 +22.6494295      262.798     72.12932      1.256     4.24     5.326226     20.37584      54.2987         6     1.298     0.395  16.97   0
       283    835.7507    274.8383 300.3508522 +22.7157503     604.4862     72.23975      1.238     2.50     5.037596     20.37584     86.99383        11     0.863     0.783  35.03   0
       284    828.3338    275.6074 300.3482897 +22.7137517     265.0945     72.23975      1.094     3.43     5.040962     20.37584     43.53297         5     0.737     0.461 -16.26   0
       285    717.8398    272.6170 300.3148102 +22.6798190      265.382     72.23975      1.009     3.45     5.325231     20.37584     53.88386         7     0.994     0.508  45.91   0
       286    734.7883    272.3615 300.3201762 +22.6848190      358.927     72.22135      1.665     3.24      5.31777     20.37584     33.71033         5     0.752     0.434 -19.56   0
       287    686.2877    271.5013 300.3053380 +22.6700528      326.929     72.38673      1.258     2.99     5.340567     20.37584     37.25973         5     0.764     0.689 -63.11   0
       288    796.5233    266.1046 300.3414528 +22.7014982     129.4988     72.33164      1.039     5.19     5.138215     20.37584     33.91645         6     1.241     0.614 -14.54   0
       289    472.4731    260.7764 300.2422104 +22.6029474     1172.117     72.25813      1.388     3.26     5.286982     20.37584     137.1718        19     1.201     1.049 -49.79   0
       290    279.5654    261.3359 300.1819884 +22.5453229     246.4579     72.22135      1.090     3.03      5.42323     20.37584     40.28436         5     0.706     0.470 -72.49   0
       291    983.5174    257.3204 300.4026325 +22.7549271     333.9554     72.35001      1.676     3.66     4.946847     20.37584      40.4507         6     0.932     0.680  25.91   0
       292    717.0681    252.9667 300.3209439 +22.6739378     2205.605     72.22135      1.361     2.89     5.334468     20.37584     261.0603        24     1.155     1.006  67.05   0
       293    978.5327    247.4096 300.4042918 +22.7505843     3037.955     72.22135      1.582     2.92     4.932395     20.37584     367.9288        30     1.328     1.119 -88.12   0
       294    425.5208    236.7892 300.2353725 +22.5819919     680.3489     72.20296      1.398     2.73      5.33156     20.37584     96.76445        11     1.027     0.671 -49.78   0
       295    100.4999    230.9454 300.1361578 +22.4829373     1296.307     72.31327      1.612     3.64     5.275979     20.37584     124.5464        21     1.299     0.945 -40.83   0
       296    130.7306    230.7344 300.1456246 +22.4919364     663.1026     72.27652      1.529     3.98     5.350602     20.37584     81.19729        15     1.166     0.927  49.57   0
       297    994.5455    228.3522 300.4154703 +22.7498915     552.6202     72.25813      1.643     4.73     4.862862     20.37584      49.2524        10     0.981     0.844 -12.38   0
       298    837.9706    225.2401 300.3676326 +22.7021490     433.3546     72.23975      1.569     3.19     5.331695     20.37584     37.58918         7     0.766     0.632   3.74   0
       299    184.6241    223.2205 300.1648193 +22.5059278     343.5391     72.22135      1.170     3.22     5.422681     20.37584     59.75119         6     0.869     0.566  17.18   0
       300    979.4353    220.2390 300.4133864 +22.7430368     413.8844      72.2949      1.612     4.69     4.922723     20.37584     45.03897         7     0.971     0.652 -40.91   0
       301    860.5037    217.2374 300.3772558 +22.7065898     306.7331     72.22135      1.316     4.24     5.340538     20.37584     37.69585         5     0.852     0.601  43.77   0
       302    788.7754    214.5285 300.3557659 +22.6843460     670.6758     72.25813      1.455     3.13     5.362113     20.37584     90.84644        11     0.964     0.811  76.32   0
       303    379.2222    214.1945 300.2282886 +22.5616320     407.9371     72.20296      1.125     2.54     5.340839     20.37584      64.3991         8     0.782     0.656 -34.12   0
       304    879.5037    207.9926 300.3861804 +22.7096155     383.0497     72.11089      1.571     3.66     5.301477     20.37584     54.63871         5     0.973     0.498 -10.82   0
       305    887.0146    203.5913 300.3899506 +22.7105967     2128.161     72.12932      1.485     2.66     5.289081     20.37584      265.471        26     1.225     1.093  74.22   0
       306    305.5519    200.5781 300.2097783 +22.5356527     2064.823     72.23975      1.427     2.50     5.409217     20.37584      314.485        21     1.133     1.005  69.86   0
       307    383.4177    195.7457 300.2355772 +22.5575871     1030.536     72.20296      1.501     3.01     5.358953     20.37584     107.7336        16     1.154     0.953  69.12   0
       308    785.1846    195.4011 300.3608494 +22.6777700     453.3962     72.07404      1.255     2.66     5.389322     20.37584     72.81124         7     0.734     0.657  19.46   0
       309    892.7850    192.6304 300.3953053 +22.7091699     434.8147     72.22135      1.516     2.13     5.312275     20.37584     49.64493         5     0.676     0.467  14.56   0
       310    200.1052    188.1809 300.1809963 +22.5005014      777.037     72.14774      1.386     2.86     5.422681     20.37584     96.59598        11     0.966     0.688   0.25   0
       311    738.2388    184.9307 300.3496087 +22.6607090     1601.005     72.18456      1.373     2.90     5.347918     20.37584     197.8262        20     1.070     0.969  73.15   0
       312    803.1430    184.9664 300.3698328 +22.6801427     627.3669     72.23975      1.546     2.57     5.422141     20.37584     90.60078        10     0.921     0.687  11.67   0
       313    221.4236    181.7216 300.1897212 +22.5050328      546.168     72.20296      1.417     3.20     5.422681     20.37584     76.17385        10     0.988     0.694 -27.25   0
       314   1009.6753    177.6776 300.4366266 +22.7398354     877.2077     72.33164      1.598     3.24     5.121045     20.37584     93.78256        15     1.125     0.932 -35.25   0
       315    742.2885    176.7985 300.3535082 +22.6595821     767.8254     72.14774      1.479     2.63     5.353833     20.37584     90.41869        11     0.926     0.740 -57.03   0
       316    511.9676    177.3587 300.2815622 +22.5907977     221.4436     72.27652      1.014     2.09     5.306126     20.37584     49.30488         7     0.686     0.638 -41.00   0
       317    662.6414    175.7276 300.3290305 +22.6354358     1129.067     72.20296      1.286     2.41     5.324093     20.37584     160.6653        16     1.016     0.906 -84.89   0
       318    483.9501    172.3122 300.2744736 +22.5809581      427.323     72.22135      1.084     1.81     5.315692     20.37584      66.1065         5     0.690     0.422 -20.60   0
       319    858.1790    167.3570 300.3927065 +22.6915449     1260.729     72.25813      1.418     2.65     5.454344     20.37584      165.939        19     1.171     0.928  64.18   0
       320    588.9404    167.2353 300.3088203 +22.6109321     956.6284     72.23975      1.335     2.75     5.245939     20.37584     130.7241        14     1.074     0.824 -84.80   0
       321    870.1992    166.3842 300.3967711 +22.6948615       893.14     72.07404      1.339     3.12     5.450365     20.37584     108.3559        12     0.956     0.857  66.92   0
       322    916.6750    165.4297 300.4115785 +22.7084913     209.8249     72.23975      1.249     4.38     5.399473     20.37584      40.5342         5     0.901     0.606  52.32   0
       323    987.0046    156.8178 300.4363154 +22.7270513     1158.141     72.16615      1.463     3.91     5.279654     20.37584       146.66        18     1.204     1.028 -28.81   0
       324     10.5551    153.2203 300.1334046 +22.4336614     542.9987     72.27652      1.972     3.43     6.164275     20.37584     57.85625         9     1.124     0.826  23.30   0
       325    221.1135    149.5076 300.2000693 +22.4956851     772.9881     72.38673      1.666     3.33     5.418588     20.37584     74.91965        13     1.033     0.912 -11.95   0
       326    103.4604    148.7980 300.1637144 +22.4602319     175.4835     72.20296      1.249     3.46     5.654257     20.37584     37.05544         5     0.769     0.451 -70.00   0
       327     82.7313    144.0291 300.1588165 +22.4526509     2301.129     72.20296      1.717     3.72     5.786471     20.37584     201.1364        28     1.322     1.225  87.01   0
       328    905.9384    141.6289 300.4159462 +22.6984311     651.9355     72.22135      1.288     2.95     5.447702     20.37584     91.60722        11     0.965     0.750 -11.58   0
       329     32.3622    141.3676 300.1440239 +22.4367928     372.2516     72.25813      1.262     3.31     6.067795     20.37584     47.58779         5     1.004     0.316 -22.47   0
       330    240.1813    137.4178 300.2099197 +22.4979236     5707.052     72.22135      1.544     2.84     5.424033     20.37584     690.0144        38     1.313     1.207  72.74   0
       331     24.3677    131.8482 300.1446253 +22.4316633     1301.572     72.25813      1.704     3.27     6.126022     20.37584     151.7945        18     1.228     0.924  -8.73   0
       332    223.6593    128.4777 300.2076787 +22.4904057     580.2706     72.25813      1.465     3.96     5.410779     20.37584     77.70113        12     1.029     0.960 -86.57   0
       333    884.4255    119.2911 300.4164773 +22.6855681     3474.557     72.16615      1.493     2.59     5.476408     20.37584     477.5673        28     1.224     1.092 -80.73   0
       334    988.0153    118.1024 300.4491831 +22.7162117     2839.954     72.11089      1.602     2.96     5.263218     20.37584     315.1688        29     1.312     1.121  73.22   0
       335    434.0832    114.2658 300.2777661 +22.5493410     655.7213     72.33164      1.416     4.79     5.375675     20.37584     73.41225        11     1.159     0.726 -63.54   0
       336    187.1787    114.2995 300.2009287 +22.4754041     372.1936     72.14774      1.751     5.34      5.39909     20.37584     41.76398         8     1.297     0.620 -76.67   0
       337    548.0899    112.2488 300.3139220 +22.5828933     396.4665     72.22135      1.482     4.36     4.823977     20.37584     40.98059         7     0.849     0.681  48.35   0
       338    357.8741    106.2353 300.2566473 +22.5242126     622.2274     72.18456      1.526     3.15     5.471585     20.37584     66.50691         9     0.930     0.692   1.73   1
       339    362.1860    104.6707 300.2584964 +22.5250541     538.1321     72.22135      1.784     5.08     5.469897     20.37584     53.77396        11     1.220     0.735 -55.20   0
       340    485.1996    101.5453 300.2978052 +22.5609886     1683.435     72.14774      1.420     3.03     5.192988     20.37584     204.6251        22     1.195     0.970  67.66   0
       341    413.3450    102.1993 300.2752215 +22.5396629     393.0229     72.14774      1.342     3.45     5.436473     20.37584     57.36389         9     1.063     0.692  73.74   0
       342    124.1842    103.3145 300.1849013 +22.4533762     587.9311     72.18456      1.385     2.26      5.72755     20.37584     82.48978         7     0.770     0.597 -21.09   0
       343    546.7936    101.2544 300.3170822 +22.5793440     480.2583     72.20296      1.466     3.62     4.698887     20.37584     58.64319        10     1.035     0.736  21.22   0
       344    228.5303     96.9803 300.2194037 +22.4828148     504.0632     72.23975      1.429     3.03     5.405221     20.37584     65.71863         7     0.927     0.583 -68.54   0
       345    773.6445     91.1393 300.3910551 +22.6443254     408.6553     72.25813      1.458     4.19     5.504381     20.37584     53.86446         7     0.786     0.638 -88.03   0
       346    259.1182     81.2946 300.2340028 +22.4874691     6132.863     72.38673      1.580     2.92     5.434123     20.37584     660.3397        37     1.372     1.174  78.85   0
       347    765.3902     82.4445 300.3912999 +22.6393543     278.7851     72.23975      1.131     3.13     5.549852     20.37584     54.18326         5     0.736     0.436  23.63   0
       348    110.3031     81.0612 300.1877984 +22.4428248     786.6021     72.31327      1.703     4.32     5.917876     20.37584     83.81245        14     1.344     0.782 -20.39   0
       349    888.7487     79.5453 300.4307100 +22.6754244     300.6177     72.25813      1.262     2.55     5.681165     20.37584     46.73843         5     0.704     0.454  22.41   0
       350    230.5736     76.1082 300.2268043 +22.4774293     297.9608     72.16615      1.414     3.75     5.405263     20.37584     51.06324         6     1.247     0.324 -47.76   0
       351    274.4416     72.6936 300.2415575 +22.4895868     327.0813     72.23975      1.214     3.04     5.441012     20.37584     45.60433         6     0.847     0.673  76.23   0
       352     20.8573     72.1187 300.1628943 +22.4134568     281.4161     72.25813      1.299     4.36     6.186944     20.37584     44.09064         6     1.012     0.535 -21.38   0
       353    505.2765     66.7665 300.3153301 +22.5569995       6323.3     72.22135      1.480     2.78     4.966595     20.37584     730.2667        38     1.285     1.150  78.23   0
       354    390.7348     66.9699 300.2796019 +22.5227661     598.2743     72.23975      1.163     2.20     5.471013     20.37584     100.7116        10     0.853     0.681   3.70   0
       355    562.5109     61.2348 300.3349493 +22.5725409     406.0446     72.20296      1.706     3.18     4.723874     20.37584     49.88153         6     0.797     0.496 -84.36   0
       356    259.0206     60.6295 300.2406699 +22.4815013     331.8187     72.22135      1.420     4.16      5.41984     20.37584     32.82525         5     0.797     0.621 -87.03   0
       357    699.6668     57.9271 300.3787584 +22.6126360     309.2382     72.25813      1.418     3.90     5.561454     20.37584     41.24597         6     0.980     0.443 -79.46   0
       358    757.8799     56.3840 300.3974051 +22.6296099     722.2934     72.23975      1.577     3.05     5.685062     20.37584     102.8963        15     1.159     0.822  77.23   0
       359    850.4531     55.3639 300.4266027 +22.6570107     347.6897     72.23975      1.229     2.86     5.931285     20.37584      72.9838         7     0.842     0.620  18.33   0
       360    198.4563     50.9471 300.2249691 +22.4605796     529.5225     72.27652      1.504     2.86     5.397988     20.37584     58.00349         5     0.733     0.589  -8.81   0
       361    556.9184     49.5216 300.3370034 +22.5674986     419.3461     72.35001      1.184     3.42     4.634323     20.37584       53.864         7     0.907     0.585 -52.98   0
       362    633.6905     46.8579 300.3617847 +22.5897091     6476.214     72.27652      1.486     2.90     5.369524     20.37584     750.6493        39     1.301     1.159  72.94   0
       363    408.5450     45.5957 300.2920730 +22.5219541     1615.614     72.18456      1.539     2.96     5.477501     20.37584     201.8687        22     1.259     1.070 -75.14   0
       364    674.8594     44.3377 300.3754309 +22.6013038     789.2399     72.25813      1.389     2.87     5.636983     20.37584     115.2363        13     1.004     0.787 -75.14   0
       365    743.9195     42.0718 300.3976913 +22.6213155     340.7793     72.35001      1.551     4.50     5.711156     20.37584     40.74743         6     0.829     0.695 -73.30   0
       366    690.7372     40.1737 300.3817289 +22.6048571     573.4871     72.22135      1.463     3.75     5.675306     20.37584     74.07576         9     0.899     0.816  15.59   0
       367    157.6293     38.4533 300.2163213 +22.4447607     776.7331     72.23975      1.657     3.97     5.434176     20.37584     76.26545        12     1.120     0.836 -82.27   0
       368    960.5781     38.3256 300.4664799 +22.6850448     482.6394     72.22135      1.323     2.69     5.696234     20.37584     61.45034         7     0.790     0.657 -10.72   0
       369    999.9815     37.4708 300.4790534 +22.6965820     418.2769     72.25813      1.596     3.93     5.134678     20.37584     51.97762         7     1.170     0.668  -6.67   0
       370    729.3044     36.2800 300.3950122 +22.6152765     509.8996     72.33164      1.472     3.10     5.710056     20.37584     68.55908         8     0.824     0.740   0.00   0
       371    677.9185     31.8179 300.3804415 +22.5986178     2776.032     72.20296      1.488     2.76     5.732418     20.37584     344.9446        27     1.214     1.071  80.76   0
       372    318.8189     32.8140 300.2682891 +22.4914144     491.7864     72.18456      1.617     3.22     5.440172     20.37584     55.32756         9     1.039     0.716   3.49   0
       373    693.0464     30.6412 300.3855378 +22.6028058     999.1744     72.27652      1.886     4.57     5.738483     20.37584     83.42174        19     1.482     1.005  42.64   0
       374    764.3782     23.4924 300.4100905 +22.6220908     1586.224     72.14774      1.513     2.89     5.898403     20.37584     192.3236        22     1.156     1.042  87.91   0
       375    164.6530   1018.4086 299.9003030 +22.7281286     629.7454     72.22135      2.500     7.69     99.38368     20.37584     37.36642         8     1.429     1.159 -78.76  16
       376    507.8618     15.9236 300.3326118 +22.5431536     1078.425     72.27652      1.436     2.93     4.872496     20.37584       123.43        13     0.936     0.866  38.53   0
       377     81.0089     16.0337 300.1997643 +22.4153675     489.9926     72.22135      1.453     3.20     6.200119     20.37584     56.18006         9     0.917     0.697  16.27   0
       378    306.7541   1012.6481 299.9463706 +22.7691223      1768.76     72.23975      4.758     5.93     7.119169     20.37584     88.76765        34     1.748     1.461  46.77  16
       379    142.2851   1008.4377 299.8965933 +22.7185563     1688.616     72.20296      3.332     9.63     89.52551     20.37584     57.87455        25     2.433     1.063 -24.61  18
       380    212.4179    985.9028 299.9257306 +22.7331441     4026.689     72.12932      8.716    38.79     66.33645     20.37584     81.02931       378     8.417     4.962 -86.35  19
       381    250.1510    974.1960 299.9412739 +22.7411102     8626.316     72.20296     12.080    40.65     35.38144     20.37584     175.6395      1074    13.244     6.277  73.17  26
       382    187.0000    988.9734 299.9168279 +22.7263964     738.1298     72.16615      2.444     3.69     72.08463     20.37584     45.32153         5     1.000     0.392 -89.72   3
