#   1 NUMBER                 Running object number                                     
#   2 X_IMAGE                Object position along x                                    [pixel]
#   3 Y_IMAGE                Object position along y                                    [pixel]
#   4 ALPHA_J2000            Right ascension of barycenter (J2000)                      [deg]
#   5 DELTA_J2000            Declination of barycenter (J2000)                          [deg]
#   6 FLUX_APER              Flux vector within fixed circular aperture(s)              [count]
#   7 FLUXERR_APER           RMS error vector for aperture flux(es)                     [count]
#   8 FLUX_RADIUS            Fraction-of-light radii                                    [pixel]
#   9 FWHM_IMAGE             FWHM assuming a gaussian core                              [pixel]
#  10 BACKGROUND             Background at centroid position                            [count]
#  11 THRESHOLD              Detection threshold above background                       [count]
#  12 FLUX_MAX               Peak flux above background                                 [count]
#  13 ISOAREA_IMAGE          Isophotal area above Analysis threshold                    [pixel**2]
#  14 A_IMAGE                Profile RMS along major axis                               [pixel]
#  15 B_IMAGE                Profile RMS along minor axis                               [pixel]
#  16 THETA_IMAGE            Position angle (CCW/x)                                     [deg]
#  17 FLAGS                  Extraction flags                                          
         1    857.8098     14.1584 300.4333383 +22.6232790     2229.755     72.27368      1.440     2.76     4.769008      20.3906     254.6244        24     1.154     1.046  36.78   0
         2    616.1518      9.2910 300.3596311 +22.5495198     241.3912     72.29209      1.364     5.11     5.079698      20.3906     26.78705         6     1.102     0.670 -85.11   0
         3    241.2597      9.3167 300.2429882 +22.4372042     1092.244     72.36567      1.533     2.88     4.680743      20.3906     104.1902        15     0.998     0.911  35.28   0
         4    806.1961      6.6671 300.4196790 +22.6056732     827.3595     72.25527      1.408     2.76     4.783944      20.3906     104.1836        13     0.958     0.836  54.29  16
         5    513.5519      4.9475 300.3290987 +22.5175397     298.0913     71.49632      1.268     2.90     4.519525      20.3906     46.73899         5     0.759     0.564   6.50  16
         6    800.8182   1013.8188 300.0910796 +22.8933134     753.4764     72.27368      2.209     6.76      2.60616      20.3906     49.17818        15     1.514     1.004  52.26   0
         7    286.5546   1012.7994 299.9313661 +22.7386522     5475.276     72.27368      9.494    32.39     53.08228      20.3906     106.3882       520     7.432     5.671 -34.13  27
         8    305.6622   1000.9353 299.9411649 +22.7409909     8055.788     72.31049      9.224    33.16     35.66659      20.3906     162.1951       805    11.152     4.975  64.80  18
         9    239.7097   1019.9164 299.9144906 +22.7266218     3436.355     71.90456      6.973    27.19     62.83159      20.3906     80.50054       194     5.709     3.596 -18.89  27
        10    234.8393   1003.8810 299.9181924 +22.7205646     2390.373     72.23685      6.816    20.52     54.77021      20.3906     66.44348       107     4.480     2.610  73.40  19
        11    143.2858    981.2465 299.8971054 +22.6865796     4384.237     72.25527     23.736    84.49     34.29147      20.3906     93.96719      3119    18.947    14.974 -27.34  19
        12    993.5084    997.4630 300.1564608 +22.9464186     747.3777     72.38406      1.948     6.56     3.872165      20.3906     46.52003        16     1.333     1.187  84.91   0
        13    212.9800    982.5461 299.9183376 +22.7078862     1640.655     72.25527      6.723    12.40     44.61786      20.3906     50.30481        44     2.805     1.526  11.17   0
        14    719.2972    980.3848 300.0765599 +22.8592639     6826.906     72.18158      1.926     4.05     3.087707      20.3906     404.8143        52     1.525     1.476 -51.73   0
        15    599.5900    974.7181 300.0411293 +22.8217167     557.9742     72.21844      2.604     6.22       3.5935      20.3906     38.22483         8     1.732     0.628  46.48   0
        16    627.8037    971.1401 300.0510761 +22.8291577     1442.341     72.23685      1.843     4.84     3.583853      20.3906     85.88315        25     1.401     1.192 -36.91   0
        17    805.3608    967.9927 300.1074002 +22.8815296     259.6723     72.31049      1.244     4.75     3.234419      20.3906     27.90147         5     1.379     0.464 -84.45   0
        18    268.2268   1013.0192 299.9255975 +22.7332107     4698.516     72.29209      8.261    22.82      55.4845      20.3906     107.9318       340     5.417     5.342 -62.30  19
        19    521.4587    967.3965 300.0191929 +22.7961670     1054.324     72.23685      1.830     4.56     3.534669      20.3906     80.95787        22     1.324     1.131  25.50   0
        20    451.8971    965.9304 299.9980265 +22.7748657     7313.558     72.40243      2.074     9.43      3.51477      20.3906     791.1124        48     1.858     1.336 -35.40   0
        21    143.9357    943.5047 299.9095799 +22.6759623     3432.585     72.36567     15.567    46.90     17.84938      20.3906     85.27206       720    10.031     6.085 -41.30   3
        22    484.7637    952.6484 300.0125709 +22.7809239     648.1216     72.29209      1.943     5.84      3.47082      20.3906     40.35181        12     1.236     0.776 -39.21   0
        23    998.5941    944.3512 300.1753209 +22.9326999     1864.921     72.25527      1.957     4.94     3.872245      20.3906     105.5441        30     1.393     1.384   8.77   0
        24    565.1124   1002.5782 300.0213363 +22.8193574     493.6487     72.20001      1.799     5.35     3.588372      20.3906     32.53715         9     1.239     0.653  71.53   0
        25    648.7735    941.7368 300.0671670 +22.8270175     330.3881     72.27368      1.366     4.45     3.662215      20.3906     32.80397         5     1.265     0.445 -60.06   0
        26    787.4187    932.8730 300.1132311 +22.8660714     559.5947     72.27368      1.896     6.13     3.644085      20.3906     46.39067        11     1.381     0.795  46.03   0
        27    822.3230    927.5960 300.1258224 +22.8750273     998.5486     72.18158      1.764     4.48     3.797444      20.3906      79.4253        20     1.287     1.109  20.44   0
        28     49.6347    999.9695 299.8619285 +22.6638072     487.9184     72.29209      1.868     6.60     6.704224      20.3906     40.37527         9     1.376     0.889 -44.95   0
        29     32.0439    923.9364 299.8811893 +22.6367446     671.9286     72.27368      2.067     6.46     3.218331      20.3906     41.67401        11     1.343     1.133  55.31   0
        30    844.4604    921.1583 300.1348141 +22.8798200     11220.48     72.25527      1.843     3.95     3.867656      20.3906      667.615        57     1.535     1.436 -19.10   0
        31    890.3139    921.3936 300.1490284 +22.8936399     476.0916     72.20001      1.743     6.04     3.915008      20.3906     39.89506         9     1.349     0.814  60.97   0
        32    155.5479    912.1725 299.9233745 +22.6704730     811.2471     72.29209      3.263     7.47      10.5041      20.3906     55.84809        18     1.594     1.117  68.47   0
        33    549.8393    909.4885 300.0468550 +22.7880800     477.8411     72.25527      1.668     5.92     3.607341      20.3906     46.18798         9     1.290     0.765  17.50   0
        34    895.5992    909.0660 300.1546842 +22.8916871     340.1192     72.25527      1.612     4.09     3.994197      20.3906     32.57693         5     0.773     0.617 -10.73   0
        35    184.9203    996.1546 299.9051927 +22.7033569     1165.115     72.25527      9.184    11.84     51.78997      20.3906     42.46988        25     2.371     1.647  79.02   1
        36    222.7865    907.6489 299.9457384 +22.6893699     401.8495     72.31049      7.083     7.03     12.00259      20.3906     30.03434         7     1.631     0.850 -41.81   0
        37    126.8215    906.4567 299.9163083 +22.6602073     514.3404     72.29209      2.339     4.83     7.326199      20.3906      35.7976         5     0.992     0.677 -75.31   0
        38    852.9343    903.3149 300.1432567 +22.8772412     1332.759     72.38406      1.783     4.60     3.990155      20.3906     90.03539        22     1.228     1.188  80.68   0
        39    705.1519    900.3745 300.0981724 +22.8320684     469.1381     72.29209      2.085     5.10     3.731196      20.3906     36.45518         8     1.129     0.651   7.14   0
        40    891.4025    896.8704 300.1573414 +22.8869285     772.6812     72.21844      1.917     6.20     4.071584      20.3906     47.83426        14     1.274     0.848  22.80   0
        41    999.1693    894.4996 300.1917106 +22.9185624     328.3808     72.25527      1.694     4.20     3.965856      20.3906     33.73874         6     1.015     0.495   4.58   0
        42    939.6129    888.5094 300.1750884 +22.8989857     389.5125     72.21844      1.423     4.28     4.103804      20.3906     53.81283        10     1.091     0.768 -46.21   0
        43    790.6558    887.0690 300.1291327 +22.8539000     792.5803     72.29209      1.827     4.21     3.827364      20.3906     60.54207        15     1.086     1.020  45.74   0
        44     50.3412    885.0453 299.8995142 +22.6311004     568.7181     72.31049      2.129     4.60     3.576878      20.3906     49.09508         9     1.307     0.786  65.64   0
        45    503.4108    883.2856 300.0409254 +22.7666320     4075.952     72.21844      1.695     3.50     3.542066      20.3906     320.9758        35     1.321     1.257 -56.40   0
        46    802.1046    883.8134 300.1337582 +22.8563998     612.2535     72.20001      1.640     5.70     3.870187      20.3906     50.65726        11     1.070     0.856  41.80   0
        47    282.2620    872.2965 299.9757171 +22.6970967     413.9503     72.36567      1.792     4.98      5.13605      20.3906     41.59793         8     1.279     0.549 -32.95   0
        48    546.2410    870.9765 300.0582555 +22.7759553     412.7088     72.31049      1.720     6.36     3.605066      20.3906     33.04324         7     1.169     0.971 -53.97   0
        49    228.7161    869.2332 299.9600694 +22.6801410     819.8932     72.23685      1.771     4.14     5.665848      20.3906     64.13366        14     1.244     0.770 -44.69   0
        50    205.9940    866.0193 299.9540526 +22.6723970     1604.852     72.23685      1.789     3.86      5.21651      20.3906      123.754        25     1.311     1.191 -33.55   0
        51     81.3371    855.7054 299.9186772 +22.6320047     381.9249     72.36567      1.475     4.24     4.035447      20.3906     40.54174         7     1.075     0.478 -29.58   0
        52    737.3766    853.7800 300.1233570 +22.8283670     573.8534     72.27368      2.091     4.22     3.731623      20.3906     46.83422         7     1.134     0.572 -15.32   0
        53    815.3506    847.7043 300.1496241 +22.8500105     603.8388     72.32889      1.685     3.38     3.958436      20.3906     67.02165        12     0.987     0.852 -31.66   0
        54    237.8342    847.4570 299.9699814 +22.6766376      427.857     72.29209      1.586     5.41       4.8003      20.3906     48.24179         8     1.312     0.629  79.57   0
        55    562.7618    846.0695 300.0714937 +22.7737691      270.917     72.23685      1.376     5.04     3.596343      20.3906     29.91987         7     1.105     0.649  25.24   0
        56    683.4509    841.4506 300.1105695 +22.8086534     4637.165     72.31049      1.646     3.28     3.946364      20.3906     393.7424        36     1.267     1.255   3.10   0
        57    174.2217    841.7160 299.9520790 +22.6558911     485.2841     72.21844      1.796     3.25     4.807834      20.3906      50.7569         7     0.952     0.636  81.23   0
        58    485.5712    838.3665 300.0499760 +22.7483965     544.8796     72.29209      1.483     3.86     3.663089      20.3906     52.67448        12     1.025     0.907  29.57   0
        59    233.6579    834.9757 299.9727400 +22.6718062       1388.1     72.27368      1.800     3.83     4.663016      20.3906     102.4186        22     1.258     1.113  15.06   0
        60    704.2328    834.0687 300.1194410 +22.8127695     858.6378     72.27368      1.835     3.98     3.838897      20.3906     74.65257        13     1.176     0.766 -30.99   0
        61    253.0535    832.3652 299.9796168 +22.6768813     328.8801     72.29209      1.397     4.87     4.592746      20.3906     43.91596         9     1.027     0.654 -54.92   0
        62    621.4565    824.5413 300.0967622 +22.7852041     227.8335     72.34728      1.287     3.69     3.620452      20.3906      33.2566         6     1.009     0.388 -19.61   0
        63    859.5262    821.1910 300.1720083 +22.8556485     4062.584     72.27368      1.648     3.40     4.244752      20.3906     311.3397        34     1.318     1.214  32.57   0
        64    268.4260    815.4332 299.9898980 +22.6766429     527.1691     72.29209      1.680     4.99       4.3899      20.3906     51.40775        11     1.211     0.847 -21.04   0
        65    576.3583    813.7708 300.0862236 +22.7685840     580.4852     72.29209      1.488     3.68     3.474264      20.3906     59.96256        12     0.993     0.824 -32.23   0
        66    222.5254    811.4349 299.9769307 +22.6617161     1095.743     72.23685      1.805     5.03     4.376186      20.3906     91.40707        18     1.293     1.039  18.88   0
        67    372.5374    803.6997 300.0260815 +22.7045312      52808.2     72.36567      1.664     3.16      4.09423      20.3906     5162.271       112     1.498     1.475 -36.91   0
        68    638.2881    807.2125 300.1076346 +22.7852822     414.0952     72.21844      1.426     3.48     3.671052      20.3906     43.46915         8     0.901     0.633  -2.10   0
        69    630.3234    802.9320 300.1065459 +22.7816647     1543.985     72.36567      1.557     3.48     3.578039      20.3906     142.7561        23     1.231     1.102 -69.58   0
        70    300.8133    801.9122 300.0043603 +22.6824895     315.7066     72.21844      1.351     5.77     4.224299      20.3906     39.81716        10     1.045     0.922  80.95   0
        71     25.7827    798.8967 299.9198865 +22.5990421     672.1146     72.18158      1.712     5.12     4.216444      20.3906     76.57334        14     1.293     1.135 -43.49   0
        72    659.3154    798.7935 300.1169180 +22.7891744     863.4846     72.20001      1.503     3.34      3.85282      20.3906     90.06517        15     1.058     0.908 -25.07   0
        73     58.8529    798.5986 299.9302530 +22.6088889     758.7134     72.23685      1.827     4.92     4.290797      20.3906     62.01833        14     1.356     0.953  -3.75   0
        74    670.5641    797.1453 300.1209564 +22.7920758     623.3986     72.29209      1.521     3.40     3.962031      20.3906     64.47999        11     1.042     0.775  -1.46   0
        75    775.7699    793.7728 300.1548210 +22.8226624     526.8297     72.27368      1.409     5.37     3.686146      20.3906     48.93638        10     1.232     0.702 -64.64   0
        76    813.1701    783.9498 300.1696661 +22.8310587     790.8107     72.29209      1.656     4.23     3.824564      20.3906     58.63467        14     1.186     0.814  14.18   0
        77    422.2294    780.9412 300.0489328 +22.7129188     31194.63     72.29209      1.564     2.95     4.100733      20.3906     3215.987        76     1.409     1.359  48.77   0
        78    436.4003    781.4642 300.0531709 +22.7173215     1973.727     72.25527      1.537     2.95     4.063268      20.3906     200.2699        25     1.170     1.091  69.02   0
        79    945.3905    776.8896 300.2131717 +22.8686749     2753.236     72.20001      1.690     3.69     4.255992      20.3906     207.8841        30     1.304     1.239  37.21   0
        80    433.4521    775.5983 300.0541599 +22.7147545     690.9947     72.23685      1.789     4.01     4.077482      20.3906     53.56743        10     0.946     0.746  40.04   0
        81    703.2352    772.8856 300.1390146 +22.7949141     841.7499     72.25527      1.619     3.97     3.753836      20.3906     81.75124        14     1.117     0.908 -88.38   0
        82    539.9258    773.1098 300.0880979 +22.7459892     349.5707     72.43917      1.379     4.41     3.716475      20.3906     76.04175         6     1.001     0.552  -6.61   0
        83    304.8961    772.7169 300.0151166 +22.6753446     831.6365     72.43917      1.682     3.16     4.155325      20.3906     87.11234        16     1.125     0.880 -25.13   0
        84    109.6273    768.5750 299.9557790 +22.6155329     490.5982     72.23685      2.103     5.09     4.374602      20.3906     42.56519         8     0.944     0.822  66.59   0
        85    550.4529    767.6575 300.0931459 +22.7475835     740.0359     72.32889      1.406     3.09     3.725066      20.3906      89.8534        15     1.021     0.927  28.51   0
        86    951.6295    764.3033 300.2192070 +22.8669315     436.9088     72.21844      1.605     3.80     4.239061      20.3906     50.49951         7     0.981     0.575 -22.28   0
        87    452.4587    764.3788 300.0637183 +22.7172403     385.1296     72.27368      1.378     2.34     4.048975      20.3906     57.04752         5     0.718     0.474  11.12   0
        88    408.4000    763.5812 300.0502720 +22.7037900     301.6876     72.18158      1.324     4.12     4.107991      20.3906     44.27264         5     0.994     0.735  10.23   0
        89    496.4486    762.7629 300.0779301 +22.7299764     327.8518     72.29209      1.475     3.14     3.936666      20.3906     53.77376         7     0.794     0.654  72.31   0
        90    138.2708    762.6412 299.9666052 +22.6224330     313.0329     72.23685      1.243     3.74     4.369625      20.3906     50.56657         7     0.929     0.538 -55.24   0
        91    704.5856    762.1909 300.1429104 +22.7922501     516.1447     72.18158      1.898     3.50     3.726621      20.3906     45.88386         8     0.975     0.718 -15.71   0
        92    929.1898    759.3313 300.2138266 +22.8587770     409.7773     72.25527      1.606     3.70     4.260536      20.3906     44.47132         7     0.976     0.815   6.51   0
        93    302.6471    756.7964 300.0195903 +22.6701048     466.6254     72.25527      1.423     3.96     4.132408      20.3906      54.3798        10     0.932     0.891 -72.56   0
        94    625.5700    747.5392 300.1230660 +22.7643458     372.0945     72.31049      1.331     2.64     3.748734      20.3906     66.66762         7     0.796     0.659 -71.43   0
        95    595.2988    745.8661 300.1141856 +22.7547854     692.9099     72.36567      1.554     3.86     3.773941      20.3906     66.92757         9     0.923     0.676  19.04   0
        96    505.1343    744.7520 300.0864849 +22.7274160     342.6876     72.29209      1.444     3.33     3.989753      20.3906     51.34886         7     1.022     0.626 -44.41   0
        97   1011.8286    742.2573 300.2451424 +22.8786453     4364.043     72.27368      1.712     3.53     4.177033      20.3906     307.0528        35     1.352     1.259   2.28   0
        98    617.2628    743.0901 300.1219253 +22.7605774     1391.425     72.36567      1.463     2.91     3.761148      20.3906     139.2677        19     1.015     0.998  28.32   0
        99    536.7443    742.8124 300.0969521 +22.7363433     345.1818     72.27368      1.577     4.39     3.954509      20.3906     38.67004         8     0.920     0.667 -78.68   0
       100    698.7563    738.4637 300.1488044 +22.7836927     380.2736     72.27368      1.444     3.41     3.709654      20.3906     45.41459         5     0.788     0.426 -23.00   0
       101   1000.2330    733.5759 300.2443470 +22.8726768     1653.984     72.27368      1.761     3.74     4.207684      20.3906     130.6197        23     1.315     1.050 -11.23   0
       102    363.2354    727.4941 300.0479497 +22.6798868     916.8674     72.27368      1.626     3.50     3.941239      20.3906      81.3019        15     1.068     0.925 -27.16   0
       103    826.6633    724.9877 300.1930296 +22.8181797     2560.762     72.25527      1.668     3.67     3.765673      20.3906     230.3541        29     1.408     1.049   1.18   0
       104     49.0036    714.9949 299.9543562 +22.5819730      909.873     72.08936      1.673     5.13     4.257365      20.3906     79.05585        16     1.257     1.058  34.93   0
       105    908.8389    710.8408 300.2232377 +22.8387537     578.7745     72.34728      1.750     5.04     4.171093      20.3906     44.90989        12     1.114     0.920  34.25   0
       106    212.2641    711.1990 300.0063090 +22.6299012      625.681     72.27368      1.665     4.98      3.91294      20.3906     46.17562         9     0.926     0.759   8.86   0
       107    945.0858    701.8687 300.2374527 +22.8470423     147065.3     72.36567      1.611     3.15     4.362292      20.3906     12261.29       165     1.572     1.532  89.43   0
       108    707.1868    705.7327 300.1620639 +22.7768272     335.5585     72.27368      1.381     3.58     3.722166      20.3906     43.95265         7     0.814     0.737  30.26   0
       109    797.4310    702.2250 300.1913160 +22.8028806     843.2833     72.27368      1.753     3.48     3.743427      20.3906     80.83167        13     1.076     0.838  64.90   0
       110    978.0204    694.7714 300.2500275 +22.8548754     369.5983     72.27368      1.505     5.42     4.438898      20.3906      46.9656        11     1.219     0.991 -54.05   0
       111    812.5220    687.9949 300.2006410 +22.8033199     9365.251     72.18158      1.516     2.83     3.785488      20.3906     898.2701        48     1.339     1.240  85.49   0
       112    631.3145    690.6605 300.1433332 +22.7497473     1728.228     72.38406      1.510     2.68     3.913188      20.3906     174.7313        21     1.198     0.962 -20.93   0
       113    294.7763    689.7486 300.0389245 +22.6485170     388.1125     72.29209      1.653     5.51     3.964041      20.3906     40.14138         8     1.134     0.755  50.46   0
       114    314.0022    683.0602 300.0470745 +22.6523689     4810.912     72.25527      1.484     2.90     3.935139      20.3906     465.5134        33     1.224     1.161  15.18   0
       115     27.7480    681.3945 299.9586691 +22.5659606      1560.17     72.25527      1.716     3.50     4.232609      20.3906     127.7351        23     1.298     1.121 -31.52   0
       116    395.8979    681.0613 300.0731913 +22.6763710      982.955     72.34728      1.407     2.87     4.093557      20.3906     117.1947        17     1.068     0.918 -58.58   0
       117    271.8054    678.4260 300.0354610 +22.6383760     513.4507     72.25527      1.603     2.45     3.893644      20.3906     53.45249         6     0.693     0.609  47.98   0
       118    604.4221    676.6860 300.1395000 +22.7376714     754.1749     72.21844      1.487     3.18      4.04184      20.3906     91.56461        12     1.071     0.752 -56.75   0
       119    595.9527    668.7986 300.1394253 +22.7328678     3163.355     72.27368      1.400     2.58     4.097177      20.3906     384.1914        26     1.104     1.060 -83.01   0
       120    656.7716    664.7678 300.1596703 +22.7499511     182.6273     72.27368      1.367     5.46      3.90649      20.3906      30.2018         6     1.214     0.694 -51.80   0
       121    586.0920    662.4172 300.1384283 +22.7280790     1325.642     72.20001      1.402     2.76     4.153157      20.3906     151.5258        19     1.359     0.905  57.88   0
       122    514.5287    661.5607 300.1164328 +22.7063677     270.0967     72.23685      1.061     3.38     4.217059      20.3906     41.35699         6     0.895     0.440  72.39   0
       123    980.0312    660.2894 300.2618556 +22.8455749     360.7456     72.23685      1.286     2.71      4.46543      20.3906     58.09272         8     0.927     0.564 -65.21   0
       124    249.4885    658.6140 300.0349585 +22.6259968     841.7697     72.21844      1.730     3.21     3.843119      20.3906     76.40858        13     0.962     0.884 -55.54   0
       125    264.0741    657.1100 300.0399808 +22.6299430      511.782     72.43917      1.281     3.07     3.864659      20.3906     67.11313        11     0.893     0.823  28.63   0
       126    610.0847    653.0588 300.1489370 +22.7325893     428.3038     72.38405      1.285     3.02     4.165169      20.3906     69.76649        11     0.998     0.732  84.53   0
       127    320.8149    653.8621 300.0586759 +22.6460396     282.8712     72.23685      1.828     4.59     3.916733      20.3906     35.91187         6     1.093     0.546 -68.01   0
       128    289.7540    653.8541 300.0490213 +22.6367161      425.568     72.31049      1.216     2.53     3.902352      20.3906     71.35783         9     0.881     0.640 -17.77   0
       129    510.9186    652.2997 300.1183173 +22.7026276     1712.732     72.40243      1.444     2.71     4.231464      20.3906     195.0747        21     1.065     1.014  71.16   0
       130    164.9676    647.1454 300.0124159 +22.5973394     19431.53     72.29209      1.602     3.01     4.023612      20.3906     1865.888        68     1.457     1.378  64.43   0
       131    595.7258    647.6942 300.1462092 +22.7267433     1019.141     72.42081      1.487     3.24     4.213819      20.3906     110.0431        16     1.039     0.967 -82.57   0
       132     86.1873    648.5795 299.9874759 +22.5741010     624.5071     72.23685      1.760     3.71     4.217733      20.3906     70.17371        12     1.055     0.951  48.95   0
       133    631.1836    646.8105 300.1575353 +22.7371237     407.2715     72.21844      1.544     3.23     4.119377      20.3906      44.7748         8     0.825     0.658  35.57   0
       134    966.7536    643.7264 300.2630951 +22.8368387     175.2248     72.27368      1.174     4.22     4.340952      20.3906     38.16979         6     0.762     0.666 -60.17   0
       135    513.8134    644.5454 300.1217365 +22.7012710     304.3017     72.27368      1.403     4.52     4.245338      20.3906     35.35068         7     1.219     0.476  -7.56   0
       136    349.8390    639.1448 300.0724806 +22.6505277     311.3459     72.27368      1.468     3.87     3.930187      20.3906     35.13868         8     0.817     0.693  51.70   0
       137   1014.0386    633.8276 300.2810557 +22.8481652     1080.926     72.29209      1.662     3.51      4.22598      20.3906     95.04411        16     1.095     0.970  42.51   0
       138    679.0770    635.2068 300.1762173 +22.7481552     213.2876     72.20001      1.227     3.83     4.012948      20.3906     30.53986         5     0.812     0.518 -51.25   0
       139    110.9642    631.2286 300.0008067 +22.5765652     1521.457     72.29209      2.046     4.59     4.144562      20.3906     105.6669        27     1.579     1.107 -84.83   0
       140    880.7962    632.1135 300.2400693 +22.8077414     355.2178     72.20001      1.231     3.17     4.189015      20.3906      51.2948         6     0.751     0.556 -52.39   0
       141    177.6516    631.9432 300.0212939 +22.5967879      477.208     72.32889      1.666     3.10     3.908393      20.3906     45.04034         7     0.750     0.649  80.78   0
       142    559.2638    628.1202 300.1412161 +22.7101904     417.3894     72.38406      1.324     3.86     4.331327      20.3906     51.82818         9     0.966     0.719  -3.31   0
       143    351.5143    627.7895 300.0766892 +22.6477733     327.8772     72.21844      1.765     4.69     3.931115      20.3906     32.01403         6     1.013     0.616 -25.60   0
       144    954.0707    626.6185 300.2646969 +22.8281242     853.0814     72.31049      2.244     4.25     4.250916      20.3906     70.74817        12     1.161     0.788   0.89   2
       145    698.7065    624.7642 300.1857220 +22.7510436     233.1368     72.25527      1.266     3.53     4.013664      20.3906     45.86555         6     1.008     0.499  57.65   0
       146    516.1719    620.5599 300.1302598 +22.6950961     704.3846     72.31049      1.407     2.26     4.290131      20.3906      83.4669        10     0.828     0.707  85.38   0
       147    663.8655    619.1288 300.1767017 +22.7389789     541.1362     72.31049      1.515     2.68     4.161504      20.3906     62.30009         8     0.775     0.686  51.19   0
       148    711.2052    617.3249 300.1920307 +22.7526555     481.3688     72.20001      1.394     3.36     4.014845      20.3906     49.00172         9     0.880     0.690 -80.09   0
       149    681.9237    617.0886 300.1829878 +22.7438080     521.1948     72.40243      1.421     4.13     4.109118      20.3906     58.43195        10     1.021     0.835 -67.73   0
       150    560.2772    616.3009 300.1453698 +22.7071025     968.7005     72.42081      1.668     2.77     4.378285      20.3906     95.77043        13     0.946     0.851  29.91   0
       151    994.0651    611.9227 300.2819407 +22.8358880     3297.457     72.36567      1.533     2.96     4.044669      20.3906     309.5347        32     1.278     1.156 -44.95   0
       152    525.7481    611.9109 300.1360486 +22.6954866     1735.993     72.29209      1.347     2.56     4.333584      20.3906     221.3981        18     1.042     0.893 -66.41   0
       153    588.4770    610.0696 300.1561713 +22.7137715     1548.242     72.38406      0.687     0.44     4.419766      20.3906      656.282         6     0.507     0.395  16.03   0
       154    891.0745    609.2255 300.2507061 +22.8042491     333.9466     72.27368      1.510     4.28     4.240247      20.3906     38.37589         7     0.772     0.675  -4.89   0
       155     87.7016    605.3238 300.0019921 +22.5621554       5119.7     72.42081      1.739     3.24     4.180722      20.3906     432.7424        39     1.393     1.266  40.38   0
       156    587.0870    606.7499 300.1568166 +22.7124019     2853.117     72.27368      0.561     0.76     4.424274      20.3906     1702.481         9     0.609     0.415 -23.05   0
       157    555.4373    602.5372 300.1483327 +22.7017010     277.5595     72.29209      1.284     3.92     4.402353      20.3906     45.76197         8     0.840     0.819 -20.35   0
       158    389.2077    598.4379 300.0979428 +22.6506626     8919.026     72.29209      1.438     2.62     4.034356      20.3906     912.2765        43     1.223     1.177 -67.17   0
       159    511.6306    595.5651 300.1369629 +22.6865616     8853.122     72.29209      1.401     2.47     4.319292      20.3906     1078.615        40     1.198     1.121  66.32   0
       160    915.9730    593.3865 300.2636111 +22.8071621     257.4472     72.27368      1.273     3.07     4.195239      20.3906     45.03137         5     0.744     0.632 -83.79   0
       161    277.0609    592.9177 300.0648629 +22.6154305     329.9686     72.36567      1.560     4.37     3.852704      20.3906     42.81092         7     1.038     0.523  33.69   0
       162    758.0721    592.3086 300.2147531 +22.7595243     226.7914     72.43917      1.221     3.35     4.014925      20.3906     40.02931         5     0.786     0.415  17.73   0
       163    923.2363    589.6107 300.2671015 +22.8082543     1804.803     72.25527      1.542     3.11     4.171722      20.3906     194.3426        23     1.187     1.047  83.22   0
       164    155.7696    591.4086 300.0276563 +22.5785974     371.5048     72.27368      1.614     2.78     3.811238      20.3906     37.28487         5     0.724     0.445 -21.34   0
       165   1007.9778    586.9626 300.2943850 +22.8328866     12137.56     72.29209      1.543     2.96     3.967961      20.3906     1145.211        51     1.336     1.303  78.71   0
       166    572.2279    585.1160 300.1592158 +22.7017368     11474.05     72.27368      1.377     2.51     4.413999      20.3906     1345.303        46     1.223     1.180  77.15   0
       167    741.6543    581.1179 300.2132723 +22.7513895     585.4108     72.32889      1.460     3.36     4.082578      20.3906     57.87638         9     0.881     0.696  20.29   0
       168    299.7545    580.5554 300.0759319 +22.6186942     1418.707     72.31049      1.580     2.65     3.861373      20.3906     170.8347        18     1.084     0.943  24.75   0
       169    221.2568    579.9490 300.0517274 +22.5949652     330.2106     72.32889      1.659     4.58     3.775159      20.3906     32.85854         6     0.932     0.640  48.37   0
       170      1.6350    577.6026 299.9842635 +22.5283707     1506.473     57.92654      1.160     2.53     4.252936      20.3906      224.601        14     1.086     0.696  87.25  24
       171    546.5477    577.9829 300.1535386 +22.6919882     411.3081     72.25527      1.387     4.10     4.396873      20.3906     48.75935         8     0.859     0.711 -35.21   0
       172    503.9212    573.2546 300.1418077 +22.6778470     4306.044     72.31049      1.376     2.57     4.343518      20.3906     502.9165        25     1.084     1.005  71.33   0
       173    846.7101    573.3405 300.2485310 +22.7806468     706.9559     72.36567      1.335     2.65     4.242173      20.3906     90.30921        15     1.010     0.841  -4.17   0
       174    482.1893    571.6018 300.1355820 +22.6708547     1183.364     72.08936      1.413     2.59     4.318477      20.3906      162.317        19     1.075     0.974  64.88   0
       175    236.4043    571.0063 300.0593388 +22.5969460       789.46     72.12626      1.503     2.83     3.784768      20.3906     98.60681        12     0.954     0.796 -23.26   0
       176    923.7317    568.8990 300.2739811 +22.8024537      1599.19     72.36567      1.557     3.14     4.091449      20.3906     144.0829        20     1.152     0.966 -27.34   0
       177    620.5379    560.8597 300.1821307 +22.7092612     198477.8     72.31049      1.403     2.40     4.403056      20.3906     25688.04       204     1.488     1.474  82.31   0
       178    169.9901    568.7778 300.0394222 +22.5763760     443.0024     72.27368      1.577     2.99     3.747166      20.3906     52.03268         5     1.021     0.543 -89.07   0
       179    804.2926    565.9857 300.2377007 +22.7658210     676.4679     72.20001      1.328     3.40     3.995501      20.3906     76.79922        11     0.964     0.779  -8.94   0
       180    306.5142    560.7316 300.0844695 +22.6150360     3423.849     72.36567      1.442     2.65     3.842365      20.3906     426.9326        28     1.156     1.096  74.70   0
       181    389.7129    560.8546 300.1103023 +22.6400317     361.5849     72.31049      1.712     4.28     3.963468      20.3906     28.39347         6     0.777     0.673 -24.43   0
       182    872.7461    557.2310 300.2618761 +22.7838232      543.296     72.29209      1.579     3.61     4.347461      20.3906     59.05475        11     0.997     0.821  30.17   0
       183    511.0891    541.3951 300.1543815 +22.6708536      2639.43     72.18158      1.417     2.74     4.394399      20.3906     316.8317        28     1.401     1.027 -78.11   0
       184    355.2213    543.2971 300.1052748 +22.6246472     344.1974     72.20001      1.301     3.47     3.935495      20.3906     47.47259         6     0.768     0.543  49.70   0
       185    922.6911    537.7055 300.2837842 +22.7931817      366.846     72.43917      1.195     3.04     4.002537      20.3906     56.06167         5     0.754     0.435  12.86   0
       186    741.7990    536.5932 300.2277730 +22.7386485     204.3483     72.08936      1.126     3.06     4.243088      20.3906     36.09145         5     0.745     0.430  22.96   0
       187    828.4633    530.0341 300.2569044 +22.7627407     296.3346     72.27368      1.300     3.73     4.120589      20.3906     47.94479         8     0.888     0.657  37.76   0
       188    908.1373    527.4962 300.2825615 +22.7858880     1660.384     72.36567      1.462     2.62     4.069936      20.3906     161.8589        21     1.162     0.901  56.55   0
       189    794.5983    527.0071 300.2473345 +22.7517217     277.1752     72.08936      1.292     3.00     4.002639      20.3906     36.39923         5     0.857     0.489  87.43   0
       190    779.2996    525.1068 300.2431847 +22.7465906     2519.172     72.45754      1.364     2.51      4.07425      20.3906     288.7437        25     1.115     1.026 -15.72   0
       191     38.3252    525.8099 300.0124693 +22.5245370      775.242     72.27368      1.778     4.31     4.188055      20.3906     63.74335        11     1.097     0.773  86.71   0
       192    139.2630    525.2101 300.0440176 +22.5546605     307.2485     72.21844      1.417     3.76     3.911021      20.3906     41.18521         5     0.873     0.465  43.54   0
       193   1022.4781    518.2785 300.3212071 +22.8174976     877.1638     62.69173      2.002     3.92      3.96961      20.3906     76.06268        15     1.211     0.836  52.22  26
       194    684.2128    521.5712 300.2147130 +22.7170726      448.187     72.27368      1.413     2.75     4.231916      20.3906     58.44875         7     0.843     0.574 -66.91   0
       195    566.7408    520.9184 300.1783494 +22.6816650     781.8538     72.34728      1.358     2.55     4.383783      20.3906     122.1753        11     0.885     0.787 -66.27   0
       196    908.4210    517.5721 300.2858715 +22.7831223     2258.585     72.25527      1.693     3.03     4.045774      20.3906     225.5137        29     1.527     1.004  78.65   0
       197    661.6054    515.5905 300.2096140 +22.7085781      757.949     72.12626      1.780     2.71      4.23959      20.3906     71.38107        10     0.879     0.745  28.59   2
       198    447.8127    515.4099 300.1431277 +22.6444190     203.8932     72.16315      1.104     3.03      4.16214      20.3906      43.1587         5     0.834     0.542  52.44   0
       199    946.5126    512.5311 300.2993835 +22.7930875      4280.38     72.40244      1.501     2.66     3.958903      20.3906     448.7533        36     1.355     1.142  40.49   0
       200    500.1464    514.2661 300.1597826 +22.6597858     339.3608     72.31049      1.255     2.26     4.386948      20.3906     59.56106         7     0.813     0.555 -27.64   0
       201    684.4917    508.8280 300.2189363 +22.7134974     180.6762     72.25527      1.198     2.27     4.213085      20.3906     42.49697         5     0.714     0.465  70.30   0
       202    607.1616    508.5389 300.1949509 +22.6902310     324.6734     72.27368      1.107     2.69     4.342787      20.3906     54.72132         6     0.756     0.493   7.59   0
       203    178.4476    502.7606 300.0634795 +22.5599811     1064.653     72.31049      1.491     2.96     3.949279      20.3906     132.5714        16     1.083     0.890  11.41   0
       204    977.7296    500.9640 300.3128721 +22.7991169     230.2705     72.27368      1.360     3.60     3.962758      20.3906     40.97152         6     0.858     0.605 -46.70   0
       205    839.8317    496.6719 300.2712769 +22.7565655     315.9603     72.27368      1.332     3.08     4.024092      20.3906     44.58911         5     0.767     0.418  19.40   0
       206    171.2120    493.0408 300.0643857 +22.5550221     384.1473     72.25527      1.444     3.88     4.003868      20.3906     50.41773         7     0.883     0.657 -26.69   0
       207    778.9696    486.8672 300.2554943 +22.7355098     588.4124     72.25527      1.830     3.21     4.058512      20.3906     77.85903         8     0.951     0.640 -30.98   0
       208    387.4565    485.1979 300.1341584 +22.6176466     353.6575     72.23685      1.380     3.68     4.008166      20.3906     34.80857         5     0.854     0.557 -39.38   0
       209    719.9282    482.8249 300.2384134 +22.7166530     792.8776     72.31049      1.405     3.11     4.236425      20.3906     88.63441        13     1.027     0.811 -74.76   0
       210     80.2193    477.1977 300.0412579 +22.5231722     321.2794     72.20001      1.815     3.75     4.245052      20.3906     24.19406         5     1.199     0.336 -10.68   0
       211    780.6414    475.2877 300.2597734 +22.7326851     974.6011     72.25527      1.499     3.18     4.082107      20.3906     109.8861        14     1.013     0.902 -33.68   0
       212    937.9803    471.6118 300.3100051 +22.7787751     1010.626     72.23685      1.460     2.87     3.972025      20.3906     110.8267        15     1.046     0.856  14.71   0
       213    922.5345    467.7956 300.3064281 +22.7730512     689.5943     72.27368      1.466     4.12     3.962332      20.3906     64.94221        14     1.199     0.853 -20.61   0
       214    902.5829    467.9101 300.3001710 +22.7671063     358.9641     72.20001      1.267     3.44     3.962332      20.3906     40.94003         5     0.794     0.430  68.77   0
       215    666.5668    465.6670 300.2273626 +22.6957311      3220.16     72.27368      1.415     2.43      4.16132      20.3906     419.4865        28     1.210     1.005  67.28   0
       216    671.7243    454.1075 300.2327201 +22.6939578      275.583     72.43917      1.302     3.48     4.154296      20.3906     46.99509         6     0.901     0.568 -29.37   0
       217    506.3864    453.0431 300.1815943 +22.6440843     373.7098     72.29209      1.234     3.34     4.339466      20.3906     58.86961         7     0.846     0.600 -56.88   0
       218    949.9919    444.6317 300.3225062 +22.7746216     588.0565     72.27368      1.246     2.41     4.107395      20.3906     89.79602         9     0.859     0.642  73.13   0
       219    685.9258    441.6356 300.2411902 +22.6946331     298.3162     72.21844      1.450     4.78     4.196482      20.3906     35.15984         7     0.975     0.663  24.70   0
       220    777.2692    439.6140 300.2703000 +22.7214284     1099.877     72.29209      1.281     2.95     4.299511      20.3906     154.2761        16     1.055     0.835  68.96   0
       221    573.1566    440.2145 300.2065389 +22.6604207     440.0518     72.29209      1.408     2.91      4.21628      20.3906     58.64542         8     0.865     0.634  -9.75   0
       222    281.0600    437.9457 300.1164068 +22.5721739      639.886     72.32889      1.383     3.63     4.217201      20.3906     82.83327        12     1.202     0.732  36.17   0
       223    343.5153    433.6069 300.1372342 +22.5896626     3694.004     72.20001      1.391     2.41     4.255985      20.3906     456.1452        27     1.111     1.049  49.26   0
       224    290.7507    428.4359 300.1225053 +22.5723522     7584.667     72.29209      1.440     2.44     4.270197      20.3906     905.1488        42     1.260     1.157  51.39   0
       225    431.4851    422.6084 300.1681646 +22.6128884     4793.426     72.21844      1.371     2.36     4.348144      20.3906     613.0543        33     1.165     1.070  50.56   0
       226    675.7081    419.3413 300.2452422 +22.6851682     18280.04     72.34728      1.336     2.32     4.166038      20.3906     2332.226        57     1.259     1.148  69.44   0
       227    692.6339    420.3138 300.2501980 +22.6905204       829.75     72.23685      2.046     4.19     4.237497      20.3906     55.29008        10     1.083     0.708  51.92   2
       228    892.8766    429.0550 300.3097547 +22.7530352     286.3526     72.31049      1.545     5.22     4.009997      20.3906     43.87754         7     0.975     0.817   7.45   0
       229    919.4252    415.7922 300.3223346 +22.7571781     259.1265     72.27368      1.196     3.71     4.031312      20.3906     45.98162         8     0.939     0.735  56.56   0
       230    872.8295    409.7239 300.3097784 +22.7414752     295.8547     72.25527      1.218     2.60     4.064035      20.3906     50.50075         7     0.732     0.643   9.32   0
       231   1009.3269    401.9119 300.3548715 +22.7801186     661.6616     72.42081      1.465     3.34     4.772046      20.3906     91.04969        12     0.959     0.848 -55.10   0
       232    546.2426    401.5161 300.2107178 +22.6412415     407.8734     72.23685      1.505     3.19     4.147475      20.3906     41.12774         5     0.734     0.468 -18.05   0
       233    230.4064    399.4260 300.1131584 +22.5459272     2063.231     72.27368      1.445     2.69     4.388704      20.3906      210.061        24     1.218     1.028  63.93   0
       234    616.3634    388.7723 300.2366810 +22.6586021     6674.675     72.29209      1.340     2.31     4.229454      20.3906     855.8591        37     1.181     1.077  72.94   0
       235    331.1131    388.1755 300.1481173 +22.5729053     699.0674     72.23685      1.478     3.50     4.359874      20.3906     68.94192        13     1.079     0.802 -76.12   0
       236    189.0087    381.4993 300.1061076 +22.5283653     515.7922     72.16315      1.504     2.89     4.496912      20.3906     65.59026         9     0.944     0.720 -70.31   0
       237    876.5176    380.7379 300.3203325 +22.7342519     334.3329     72.36567      1.169     2.39     4.230357      20.3906     56.45699         6     0.678     0.630 -25.94   0
       238    729.9854    379.1646 300.2751830 +22.6898957     383.1317     72.27368      1.226     2.99     4.333127      20.3906     73.58128        10     0.861     0.775  87.43   0
       239     36.1721    379.2011 300.0593721 +22.4818498     1392.637     72.23685      1.618     3.05     4.656731      20.3906     136.0974        22     1.145     1.058  19.30   0
       240    820.6115    377.8315 300.3038514 +22.7166677     1296.516     72.27368      1.562     2.91     4.311297      20.3906     134.7144        19     1.092     0.980  69.15   0
       241      4.9811    376.8155 300.0504598 +22.4718056     1277.214     71.51493      1.955     5.86     4.716751      20.3906     97.18146        23     1.632     0.938 -46.23  16
       242    523.0412    375.0811 300.2120727 +22.6266962     6175.048     72.23685      1.332     2.27     4.213011      20.3906      864.816        35     1.129     1.088 -87.58   0
       243   1012.2303    369.5035 300.3662917 +22.7716736     508.4571     72.21844      1.340     3.60     4.730919      20.3906     65.24595        11     0.979     0.838  85.18   0
       244    915.0542    369.4506 300.3360073 +22.7425526     1379.909     72.31049      1.384     2.58     4.339565      20.3906     172.2363        18     1.088     0.929  68.46   0
       245    507.5005    363.7212 300.2109214 +22.6187757     518.4896     72.40243      1.174     2.72     4.261891      20.3906     72.28617         9     0.883     0.691  55.13   0
       246     13.9927    364.5687 300.0572306 +22.4709976     412.4296     72.27368      1.496     4.52      4.71654      20.3906      51.6727         8     1.176     0.495   1.31   0
       247    590.0428    361.6018 300.2373009 +22.6429105     480.9757     72.27368      1.401     3.93     4.256117      20.3906     67.40491        10     1.063     0.850  73.12   0
       248     34.7033    360.4070 300.0650121 +22.4760187     1090.861     72.16315      1.607     3.67     4.688785      20.3906     106.1222        16     1.210     0.878 -84.45   0
       249    887.8327    356.9228 300.3315855 +22.7307984     484.4505     72.27368      1.260     3.90     4.382192      20.3906      68.2337         8     0.951     0.626 -59.23   0
       250    410.5699    354.2663 300.1838295 +22.5870000     2473.521     72.27368      1.357     2.44      4.27985      20.3906     308.1581        22     1.091     0.959  85.60   0
       251    129.1269    351.6774 300.0971739 +22.5018452     922.4471     72.38406      1.456     2.75     4.599334      20.3906     98.81526        15     1.023     0.858 -12.28   0
       252    379.8863    343.6942 300.1777145 +22.5747648      29547.5     72.45754      1.410     2.49     4.353329      20.3906     3948.149        74     1.354     1.211  62.45   0
       253    914.6352    341.2944 300.3450105 +22.7343358     1297.404     72.27368      1.347     2.65     4.454773      20.3906     148.2291        18     1.031     0.960  52.41   0
       254    869.8765    339.4642 300.3316517 +22.7204028     240.8107     72.34728      1.277     3.29     4.406343      20.3906     47.75122         6     0.999     0.457  60.47   0
       255     76.2855    331.4488 300.0873193 +22.4801890     5004.099     72.25527      1.625     2.96     4.663666      20.3906      527.646        37     1.342     1.194  64.20   0
       256    253.8612    330.0816 300.1429426 +22.5330646     475.3089     72.36567      1.560     3.85     4.523097      20.3906     58.06834         9     1.122     0.781  45.08   0
       257    829.6556    329.9907 300.3221890 +22.7056319     548.4062     72.27368      1.358     3.27     4.364661      20.3906     76.23133        12     0.996     0.905 -59.47   0
       258    478.4615    329.1365 300.2131028 +22.6001405     441.8257     72.31049      1.300     2.21      4.50478      20.3906     68.45911         8     0.783     0.636  42.14   0
       259    790.2812    323.3928 300.3120594 +22.6919402     1838.405     72.20001      1.355     2.31     4.326089      20.3906     245.9208        22     1.087     0.964  74.22   0
       260    598.3707    318.0583 300.2540173 +22.6329017     412.8311     72.27368      1.409     2.57     4.411699      20.3906      52.8371         7     0.715     0.651  86.88   0
       261   1005.4668    316.2724 300.3814496 +22.7543475     578.7432     72.31049      1.342     3.39     4.585378      20.3906     61.67339        12     0.987     0.846 -63.47   0
       262    452.1880    308.0760 300.2117583 +22.5862173     2289.681     72.29209      1.552     2.93      4.62722      20.3906     224.0376        27     1.312     1.023  66.60   0
       263    664.6332    306.8315 300.2782909 +22.6495350       311.08     72.29209      1.250     3.41     4.332703      20.3906     40.57701         5     0.763     0.441  71.83   0
       264    883.3741    301.7925 300.3480777 +22.7136202     301.9649     72.25527      1.046     2.71     4.478786      20.3906     39.60768         5     0.715     0.457 -73.20   0
       265    891.2666    300.7870 300.3508640 +22.7156952     684.2829     72.25527      1.368     3.15     4.482491      20.3906      89.5918        14     1.111     0.823  39.45   0
       266     23.8265    299.1860 300.0814890 +22.4551951     855.8843     72.27368      2.254     6.98      4.96913      20.3906     61.07918        16     1.793     0.938 -35.88   0
       267    773.6526    298.2771 300.3150240 +22.6797422     377.4417     72.31049      1.392     2.39     4.347815      20.3906     50.63432         6     0.682     0.609  31.91   0
       268    528.0901    287.4176 300.2420772 +22.6030378      1108.69     72.20001      1.317     2.64     4.584498      20.3906     150.1984        16     1.001     0.865  53.44   0
       269    335.0157    288.0009 300.1818218 +22.5453238     193.0899     72.12626      1.175     3.48     4.535127      20.3906     42.48495         5     0.991     0.354 -34.48   0
       270    380.0408    285.9946 300.1964753 +22.5582479     244.5728     72.29209      1.340     4.18     4.616155      20.3906     30.10619         7     0.916     0.544  46.40   0
       271    613.1710    285.3438 300.2692348 +22.6279413     278.8178     72.27368      1.133     2.52     4.496558      20.3906     51.23336         6     0.758     0.566  51.77   0
       272    911.4725    280.9683 300.3635904 +22.7160510     162.5933     72.27368      1.157     3.15     4.506257      20.3906     43.04999         5     0.779     0.583  -3.60   0
       273    772.9338    279.3091 300.3209514 +22.6740769     2260.956     72.40243      1.340     2.39     4.360477      20.3906     295.8479        23     1.097     0.973 -80.12   0
       274      5.9501    264.6422 300.0871384 +22.4399227     72199.78     72.29209      1.690     3.03      5.06102      20.3906     6877.909       122     1.655     1.472  55.68  24
       275    481.1013    263.2920 300.2352772 +22.5820255     659.7424     72.45754      1.260     2.52     4.762916      20.3906     87.45198        11     0.890     0.747  75.80   0
       276    186.9947    257.3782 300.1457353 +22.4921462     600.7463     72.25527      1.383     3.12     4.688218      20.3906     79.56728        11     0.971     0.806 -31.78   0
       277    156.0677    257.1022 300.1362141 +22.4827913     1469.965     72.36567      1.791     3.99     4.791516      20.3906     133.3366        26     1.435     1.177 -44.47   0
       278    903.9383    254.8148 300.3697226 +22.7062775     220.5176     72.23685      1.240     3.81     4.537691      20.3906     30.22761         5     0.804     0.518 -57.46   0
       279    240.1769    249.4079 300.1648490 +22.5058079     663.1078     72.27368      1.811     2.76     4.537232      20.3906     61.46442         6     0.725     0.609 -52.70   2
       280    893.5660    251.2166 300.3676558 +22.7021369      353.737     72.25527      1.449     4.53     4.555536      20.3906     40.08957         7     0.996     0.601  41.48   0
       281    916.0003    242.7168 300.3774057 +22.7064123     231.2083     72.14471      1.389     3.34     4.531958      20.3906     41.42417         6     0.887     0.536  89.99   0
       282    844.3624    241.0734 300.3556080 +22.6844852     655.8624     72.21844      1.382     2.44     4.538447      20.3906     72.40262         9     0.831     0.675 -28.08   0
       283    434.8557    240.7219 300.2282062 +22.5616823     363.3695     72.31049      1.163     3.34     4.566233      20.3906     57.64505         8     0.902     0.706 -80.27   0
       284    942.6579    229.9606 300.3898531 +22.7107282     2086.001     72.25527      1.413     2.40     4.514644      20.3906     256.8675        24     1.129     1.036  55.18   0
       285    361.1917    227.0362 300.2097292 +22.5356703      2032.64     72.27368      1.337     2.55     4.366338      20.3906     249.8455        21     1.143     0.920  77.18   0
       286    438.9873    222.2688 300.2354742 +22.5576220      1030.35     72.29209      1.524     3.39     4.525745      20.3906     108.8725        17     1.219     0.865  -8.07   0
       287    191.2547    223.0380 300.1581923 +22.4835685     293.0781     72.27368      1.276     3.14     4.806404      20.3906     46.65615         5     0.803     0.545   4.69   0
       288    841.0051    221.3512 300.3609561 +22.6778115      517.767     72.25527      1.266     3.08      4.55287      20.3906     70.43649        10     0.912     0.738  86.60   0
       289    948.0600    218.9699 300.3951008 +22.7091862     286.1867     72.31049      1.348     3.66     4.508943      20.3906     31.89886         5     0.627     0.614   6.47   0
       290    255.8032    214.4427 300.1810421 +22.5004575     817.3019     72.29209      1.592     2.78     4.540057      20.3906     99.18296        12     0.977     0.814  16.92   0
       291    373.7911    213.7166 300.2179658 +22.5356231     352.7316     72.21844      1.536     3.78     4.388234      20.3906     46.53474         5     0.857     0.478  47.15   0
       292    858.7780    211.0649 300.3698303 +22.6801778     638.5878     72.25527      1.242     2.66     4.633162      20.3906     84.60193        10     0.854     0.748 -71.44   0
       293    793.7066    211.2882 300.3494789 +22.6607530     1664.249     72.43917      1.347     2.26     4.389544      20.3906     199.8803        17     0.993     0.898   2.13   0
       294    277.1065    207.9224 300.1897786 +22.5049733     592.6262     72.42081      1.370     2.74     4.531634      20.3906     73.45943         9     0.815     0.704 -40.92   0
       295    798.0427    202.6790 300.3536210 +22.6595775      775.605     72.25527      1.332     2.57     4.391717      20.3906     108.8206        13     0.930     0.851  17.05   0
       296    718.2398    202.0311 300.3289684 +22.6354873     1154.465     72.29209      1.253     2.37     4.459061      20.3906     166.1096        13     0.878     0.824  56.18   0
       297    567.1788    203.4756 300.2814605 +22.5906433      342.972     72.27368      1.106     2.48     4.703405      20.3906     52.86639         5     0.714     0.474  17.10   0
       298    539.4454    198.6995 300.2743761 +22.5809608     434.1573     72.29209      1.279     3.20     4.741546      20.3906     40.55002         5     0.721     0.455 -68.99   0
       299    913.5969    193.5362 300.3926012 +22.6915552     1484.666     72.23685      1.441     2.44     4.511542      20.3906     177.7737        17     0.992     0.909 -71.17   0
       300    925.7249    192.7625 300.3966331 +22.6949643     761.5573     72.21844      1.455     3.12     4.473882      20.3906     109.3287        13     1.115     0.761  60.55   0
       301    644.4827    193.6098 300.3087269 +22.6109715      892.752     72.21844      1.220     3.17     4.458556      20.3906     129.3044        15     1.093     0.755  57.66   0
       302    972.2931    191.8399 300.4114526 +22.7086422     307.7678     72.29209      1.114     3.64     4.498435      20.3906     36.51361         5     1.049     0.364   2.78   0
       303     16.2240    181.9315 300.1171410 +22.4192761     312.5192     72.27368      1.416     4.44     5.136149      20.3906     43.38177         7     1.123     0.662  55.52   0
       304     66.4669    178.8333 300.1337497 +22.4334575      565.938     72.27368      1.896     5.26     5.103965      20.3906     59.03895         8     1.279     0.612  79.95   0
       305    276.7172    175.9290 300.2000280 +22.4956721      748.788     72.40243      1.428     2.63     4.556328      20.3906     103.6399        12     0.892     0.859 -82.94   0
       306    138.4221    170.5551 300.1587866 +22.4526620     2204.992     72.32889      1.590     2.86     5.048206      20.3906     237.0278        26     1.266     1.070  84.17   0
       307    961.4977    167.5728 300.4159526 +22.6984329     724.3924     72.23685      1.559     4.01     4.470336      20.3906     68.11398        13     1.011     0.893  64.84   0
       308     88.0645    167.2820 300.1442024 +22.4366203     438.8852     72.38406      1.224     3.21     5.115936      20.3906     56.15115         7     0.726     0.675  -2.76   0
       309    295.7893    163.9448 300.2098420 +22.4979493     5695.751     72.27368      1.491     2.57     4.555732      20.3906     688.3555        41     1.297     1.178  49.13   0
       310     79.8453    158.4537 300.1445103 +22.4316218      1127.89     72.31049      1.534     3.41     5.142715      20.3906     117.5655        18     1.111     1.035 -13.11   0
       311    279.2299    154.8814 300.2076308 +22.4903828     610.1914     72.27368      1.464     2.60     4.570107      20.3906     69.81177         8     0.739     0.703  32.69   0
       312    939.9233    145.5588 300.4163607 +22.6856443     3473.204     72.23685      1.454     2.49     4.425008      20.3906     470.4929        30     1.197     1.110  81.61   0
       313    489.3241    140.7476 300.2775608 +22.5492951     650.8777     72.27368      1.182     2.23     4.421797      20.3906     88.72993        10     0.834     0.700  43.56   0
       314    242.6593    141.3985 300.2006313 +22.4755481     330.4325     72.23685      1.476     4.06     4.605806      20.3906     31.63523         5     0.969     0.487  -3.59   0
       315    603.4929    137.9901 300.3139915 +22.5827109     320.2046     72.21844      1.448     4.18     4.474375      20.3906     40.66219         6     1.024     0.486 -82.55   0
       316    413.5961    132.8566 300.2565561 +22.5243344     705.5533     72.23685      1.844     3.19     4.499512      20.3906     74.68034        12     1.065     0.755 -30.83   2
       317    179.6350    129.6796 300.1848401 +22.4532878     429.2786     72.21844      1.362     2.64     4.962581      20.3906     69.58401        10     0.931     0.678   0.99   0
       318    540.7305    128.0276 300.2976820 +22.5610447     1691.258     72.27368      1.344     2.41     4.393987      20.3906     230.6641        20     1.067     0.904  58.49   0
       319    468.3867    128.5515 300.2749980 +22.5395178     476.2137     72.29209      1.479     2.97     4.436026      20.3906     65.99471         9     0.921     0.736  49.26   0
       320     19.2632    127.8398 300.1356146 +22.4046669     301.9187     72.27368      1.268     3.70     5.212436      20.3906     40.19236         5     0.864     0.466 -41.78   0
       321    602.8646    126.9011 300.3173896 +22.5793366     462.1371     72.36567      1.473     3.11     4.448902      20.3906     51.94084         8     0.854     0.627 -42.69   0
       322    284.0403    123.6113 300.2192601 +22.4828469     318.4805     72.27368      1.507     3.85     4.564775      20.3906       36.002         5     0.889     0.478  -7.18   0
       323    829.0809    117.5159 300.3908968 +22.6443941     507.6016     72.42081      1.611     4.00     4.645447      20.3906     60.67973        10     1.038     0.795 -47.74   0
       324    712.3776    113.0293 300.3559893 +22.6081547     175.4156     72.27368      1.321     4.07     4.592743      20.3906     30.31775         5     1.058     0.448 -26.68   0
       325    974.8434    111.6305 300.4382454 +22.6863424     327.1333     72.31049      1.539     2.01     4.423604      20.3906     42.35115         5     0.694     0.443  20.91   0
       326    314.8378    107.8062 300.2339576 +22.4875404     6009.076     72.31049      1.469     2.55      4.48869      20.3906     746.5074        42     1.336     1.169  72.39   0
       327    821.1639    108.3721 300.3913927 +22.6393948     391.5569     72.29209      1.422     3.07     4.677726      20.3906     41.34214         6     0.727     0.627 -78.78   0
       328    165.8336    107.4198 300.1877641 +22.4427598     714.5633     72.27368      1.447     2.66     5.106382      20.3906     82.62029        11     0.986     0.714 -19.91   0
       329      9.7491    104.6997 300.1401580 +22.3951732       588.97     72.36567      1.547     3.94     5.216267      20.3906     53.20852        10     1.006     0.807 -55.67   0
       330    943.8013    105.0129 300.4307101 +22.6751468     347.8897     72.08936      1.248     4.72     4.408381      20.3906     45.65161         9     1.016     0.661  59.38   0
       331    287.2710    100.9845 300.2275964 +22.4773184     437.6336     72.27368      1.720     6.20     4.548721      20.3906     47.03546         8     1.560     0.693 -27.82   0
       332    329.9695     99.0794 300.2414907 +22.4895699     311.2724     72.27368      1.428     4.35     4.451829      20.3906     44.64308         8     1.117     0.621  69.96   0
       333    560.8860     93.1944 300.3152434 +22.5570758     6260.946     72.20001      1.402     2.43     4.382879      20.3906     751.7302        38     1.262     1.111 -86.79   0
       334    446.2004     92.9924 300.2796173 +22.5226554     697.3983     72.08936      1.474     4.16     4.415906      20.3906     74.34663        14     1.266     0.777  85.34   0
       335    617.6306     88.1138 300.3345558 +22.5726149     325.9456     72.25527      1.245     3.41     4.452446      20.3906     37.92808         5     0.743     0.452 -73.25   0
       336    813.0905     83.6669 300.3968821 +22.6298752     950.4155     72.40243      2.137     6.14      4.73512      20.3906     81.08961        21     1.866     1.006 -72.85   0
       337    754.3576     84.2626 300.3783885 +22.6124590     334.1732     72.27368      1.358     3.70     4.748739      20.3906     42.42554         5     0.851     0.463  42.97   0
       338    905.9766     81.6848 300.4264763 +22.6571155     523.8826     72.23685      1.438     2.73     4.502845      20.3906     73.26686         9     0.974     0.606 -11.94   0
       339    253.6499     76.8195 300.2249732 +22.4603016     487.5258     72.25527      1.529     4.07     4.660935      20.3906     51.35332        10     0.997     0.725  51.28   0
       340    612.5648     75.8009 300.3369680 +22.5675593     474.1958     72.23685      1.325     2.77     4.549613      20.3906     56.71587         8     0.842     0.635  31.01   0
       341    689.2057     73.2860 300.3616497 +22.5897922       6237.5     72.20001      1.422     2.40     4.589195      20.3906     735.5182        39     1.259     1.148 -80.92   0
       342    464.2213     72.2830 300.2919344 +22.5221063     1276.148     72.23685      1.279     2.45     4.462358      20.3906     190.5387        17     1.050     0.845  74.37   0
       343    730.3030     70.7557 300.3752710 +22.6013730     834.1058     72.29209      1.336     2.83     4.731975      20.3906     115.1523        15     1.115     0.807 -83.92   0
       344    800.3698     68.7620 300.3977474 +22.6217814     332.4342     72.29209      1.697     4.15     4.755718      20.3906     30.42915         6     0.742     0.663  29.01   0
       345    746.5497     67.0617 300.3815292 +22.6051765      662.451     72.32889      1.416     2.65     4.756648      20.3906     75.13912        11     0.867     0.805 -33.22   0
       346    212.7398     64.5629 300.2162272 +22.4445188     748.8797     72.29209      1.523     3.67      4.88225      20.3906     86.94955        14     1.069     0.945  64.37   0
       347   1016.2262     64.3082 300.4664856 +22.6851195     615.2508     72.21844      1.701     3.36     4.404187      20.3906     57.24478         9     0.956     0.679  -5.44   0
       348    271.4204     62.6852 300.2350770 +22.4615697     195.3257     72.20001      1.288     4.03     4.548677      20.3906     34.07311         5     0.949     0.489 -85.23   0
       349    784.9269     62.1351 300.3950824 +22.6152522     581.3273     72.31049      1.709     2.91     4.758975      20.3906     73.98616         9     1.002     0.684 -21.65   0
       350    733.4681     58.1400 300.3803443 +22.5986945     2744.599     72.31049      1.415     2.50     4.752259      20.3906     296.9911        25     1.153     0.999  77.46   0
       351    373.7405     59.0949 300.2680585 +22.4912050      360.537     72.34728      1.315     2.78     4.382171      20.3906     61.29059         7     0.796     0.643 -20.06   0
       352    748.5606     56.7672 300.3854910 +22.6028195     911.6988     72.31049      1.851     4.81     4.761301      20.3906     80.26337        18     1.563     0.851  58.06   0
       353     26.7553     52.3523 300.1623985 +22.3852505     760.4474     72.29209      1.494     3.87     5.052316      20.3906     96.79113        14     1.058     0.992 -84.11   0
       354    819.9205     49.8066 300.4099812 +22.6221855     1561.175     72.20001      1.491     2.98     4.751476      20.3906     200.3906        22     1.163     1.069  84.61   0
       355    757.8138     43.0819 300.3928074 +22.6016562     773.7688     72.25527      1.447     2.30     4.767814      20.3906     107.2738        11     0.983     0.718  63.62   0
       356    563.4646     42.3412 300.3325219 +22.5432364     1118.359     72.31049      1.514     2.40     4.496299      20.3906     121.2635        15     0.931     0.878 -30.71   0
       357    136.7111     42.3268 300.1998032 +22.4153421     431.8425     72.43917      1.279     2.60     5.160258      20.3906     73.27348         9     0.834     0.720   1.38   0
       358    467.3452     40.5188 300.3031970 +22.5139171     924.3414     72.31049      1.507     2.51     4.534546      20.3906     108.7644        14     0.935     0.850 -61.05   0
       359    849.7731     39.1108 300.4227502 +22.6280479     317.4326     72.25527      1.217     4.65     4.743017      20.3906     56.77087         8     1.021     0.660 -70.99   0
       360    238.6804     30.2577 300.2354035 +22.4424445     3783.336     72.31049      1.571     2.89     4.708751      20.3906     396.8949        34     1.318     1.148  59.82   0
       361    806.8276     30.9512 300.4120095 +22.6128444     549.1242     72.29209      1.280     3.05     4.770763      20.3906      83.4855        11     0.964     0.819  12.27   0
       362     30.7944     30.3968 300.1707648 +22.3801601     323.1007     72.08936      1.158     2.91     4.978635      20.3906     45.36782         5     0.703     0.480 -10.46   0
       363    800.1967     22.9966 300.4125199 +22.6085721     891.4648     72.05244      1.375     2.42     4.777119      20.3906     122.5882        11     0.915     0.709 -20.41   0
       364    354.6378     22.4111 300.2740004 +22.4749439      1265.22     72.25527      1.452     2.73      4.36154      20.3906     161.1557        18     1.149     0.887  67.01   0
       365    837.8812     17.7953 300.4259489 +22.6183588     675.6439     72.20001      1.669     4.04     4.769519      20.3906     64.67092        16     1.220     0.913  79.36   0
       366    761.5778     17.6978 300.4022032 +22.5954858     482.7047     72.20001      1.425     2.74     4.779446      20.3906      65.5732         7     0.788     0.670  54.24   0
       367    614.5378   1018.1055 300.0316707 +22.8386444     2295.903     72.36567      1.941     4.93     3.561799      20.3906     144.5354        34     1.484     1.383  50.89  16
       368    563.5613     12.6703 300.3421634 +22.5347392     481.9557     72.23685      1.228     2.30     4.571108      20.3906     65.51928         6     0.742     0.533 -46.75   0
       369    143.9112   1016.3712 299.8858763 +22.6968294     4717.008     72.25527     11.344    39.22     50.80416      20.3906     95.09572       629     9.626     5.561   3.40  27
       370    701.1564   1013.4238 300.0601639 +22.8632966     8628.152     72.32889      2.003     4.49     3.013399      20.3906     503.6088        50     1.544     1.518   6.96   3
       371    706.5535   1011.1681 300.0625784 +22.8642692     9359.042     72.31049      1.994     4.48     2.955761      20.3906     481.2117        56     1.595     1.521 -86.40   3
