#   1 NUMBER                 Running object number                                     
#   2 X_IMAGE                Object position along x                                    [pixel]
#   3 Y_IMAGE                Object position along y                                    [pixel]
#   4 ALPHA_J2000            Right ascension of barycenter (J2000)                      [deg]
#   5 DELTA_J2000            Declination of barycenter (J2000)                          [deg]
#   6 FLUX_APER              Flux vector within fixed circular aperture(s)              [count]
#   7 FLUXERR_APER           RMS error vector for aperture flux(es)                     [count]
#   8 FLUX_RADIUS            Fraction-of-light radii                                    [pixel]
#   9 FWHM_IMAGE             FWHM assuming a gaussian core                              [pixel]
#  10 BACKGROUND             Background at centroid position                            [count]
#  11 THRESHOLD              Detection threshold above background                       [count]
#  12 FLUX_MAX               Peak flux above background                                 [count]
#  13 ISOAREA_IMAGE          Isophotal area above Analysis threshold                    [pixel**2]
#  14 A_IMAGE                Profile RMS along major axis                               [pixel]
#  15 B_IMAGE                Profile RMS along minor axis                               [pixel]
#  16 THETA_IMAGE            Position angle (CCW/x)                                     [deg]
#  17 FLAGS                  Extraction flags                                          
         1    231.9677     21.4645 300.2354616 +22.4424344     3885.793     72.47953      1.500     2.49      4.87395     20.44868     462.4933        32     1.179     1.139  66.74   0
         2    793.2377     14.0901 300.4125680 +22.6083770     822.6262     72.46107      1.323     2.75     5.580692     20.44868     116.3838        14     1.060     0.762  67.83   0
         3    348.0819     13.4086 300.2741825 +22.4749030     1296.813     72.42413      1.507     2.82     4.187722     20.44868     173.5171        19     1.205     0.885  68.12   0
         4    831.2014      8.5083 300.4262101 +22.6181315     583.9117     72.38717      1.623     6.14     5.274933     20.44868     52.87187        15     1.493     0.753  83.00  16
         5    754.3923      8.9581 300.4021255 +22.5952752     594.9678     72.49799      1.497     2.21     5.599527     20.44868       74.074         7     0.778     0.565  53.16   0
         6    851.1830      5.1987 300.4335116 +22.6231583     2185.138     72.10936      1.441     2.64     5.042337     20.44868     289.4117        26     1.239     1.037 -74.51  16
         7    556.6821      3.5648 300.3422906 +22.5345411     529.9781     67.35039      1.438     2.49     4.694808     20.44868     83.45682         8     0.774     0.733 -37.93  16
         8    234.5042      1.2213 300.2428107 +22.4373772     507.3582      55.6685      0.910     2.20     4.850009     20.44868     125.9081         6     0.829     0.415   0.63  24
         9    793.3210   1006.0175 300.0904218 +22.8934784     512.5687     72.47953      2.115     5.27      2.92815     20.44868     44.42073         8     1.159     0.676 -79.71   2
        10    306.4317   1014.3419 299.9361532 +22.7497836     1893.236     72.49799      4.112    20.42      51.5858     20.44868     46.10615        85     4.503     2.572 -35.57  19
        11    262.0026   1020.2157 299.9204278 +22.7381304      1843.81      71.1755      6.062    23.03     75.79163     20.44868     51.83972       105     5.479     2.687 -14.72  27
        12    260.4335   1003.7978 299.9252831 +22.7329518     3749.848      72.4426      7.138    23.10      64.6122     20.44868     85.55859       222     4.749     4.203  24.90  19
        13    281.0087   1003.0373 299.9319274 +22.7389103     4623.548     72.49799      8.442    26.81      61.2357     20.44868      96.8951       379     6.082     5.023 -35.23  19
        14    298.9352    991.5960 299.9412245 +22.7410107     7419.303     72.47953      8.051    28.31     44.91356     20.44868     176.4591       604     9.086     4.740  60.41  19
        15    236.3756   1021.6839 299.9119834 +22.7308576     1620.266     66.32941      3.450    11.24     80.33545     20.44868     53.15868        33     2.289     1.537   4.30  27
        16    232.5436   1014.3232 299.9131877 +22.7275967     3219.042     72.51644      6.327    25.28     75.06413     20.44868     73.59966       205     5.106     4.008  -9.30  19
        17    209.5033   1023.3809 299.9030783 +22.7232760     236.4848     57.97624      1.676     5.31     79.47952     20.44868     28.59678         5     1.017     0.782 -11.12  24
        18    193.5318   1022.4703 299.8984107 +22.7182195     1057.025     62.87029      2.724     9.70     75.77558     20.44868     50.39894        24     2.309     1.136 -12.00  26
        19    140.6075   1013.3943 299.8849179 +22.6997263     5404.025     72.33169     12.952    49.08     52.10993     20.44868     119.9447      1085    12.006     7.627  17.99  27
        20    136.4759    966.2888 299.8989624 +22.6849819     4853.122     72.60865     28.525   101.45     28.34832     20.44868     117.1063      4244    21.658    17.628 -82.63  19
        21    591.9420    965.5236 300.0408749 +22.8214559     475.3325     72.51644      2.096     5.87     3.562831     20.44868     36.07046         8     1.158     0.837  34.69   0
        22    304.5300    965.7333 299.9513799 +22.7352731    -307.0788     72.51644      0.980     3.41     26.26683     20.44868     40.25118         5     0.750     0.448  68.51   0
        23    865.0131    964.7953 300.1261813 +22.9031401     389.0843     72.35019      1.793     4.83      3.08621     20.44868     33.28243         7     1.585     0.416 -37.51   0
        24    228.0750    994.5820 299.9182231 +22.7205950     1603.043     72.47953      3.024    10.96      62.3399     20.44868     53.61562        23     2.827     1.184 -42.71   2
        25    514.7275    958.5135 300.0191199 +22.7962799     1118.027     72.60865      1.824     4.89     3.186622     20.44868     80.07043        23     1.320     1.279 -48.70   0
        26    621.0568    962.2523 300.0510046 +22.8292507     1595.849      72.5349      1.764     4.17      3.70596     20.44868     119.4841        24     1.314     1.155  16.75   0
        27    445.4189    956.7045 299.9981404 +22.7749653      6614.16     72.38717      1.821     3.71     3.369883     20.44868     497.6963        44     1.458     1.340  15.08   0
        28    226.3049    991.0259 299.9188301 +22.7190439     1119.308     72.42413      3.541     7.22     59.79435     20.44868     49.16121        14     1.763     0.828 -52.16   3
        29    990.7261    936.0107 300.1747455 +22.9325578     1288.522     72.49799      1.569     4.34     3.366044     20.44868      111.412        18     1.398     0.824  82.76   3
        30    173.1958    935.5219 299.9203830 +22.6871854     1090.049     72.38717      3.736     3.43     20.63436     20.44868     42.88621         5     1.132     0.300  21.47   2
        31     43.4465    990.9747 299.8620303 +22.6641224     403.4746     72.49799      1.680     5.62     6.459514     20.44868     32.72089         9     1.148     0.774 -87.78   0
        32    477.8665    943.6133 300.0124965 +22.7809454     561.9969     72.42413      1.680     5.83     3.222998     20.44868     49.32718        11     1.145     0.836  28.76   0
        33    642.2963    931.6614 300.0675721 +22.8268416     414.2104     72.57178      1.586     3.00     3.699257     20.44868     35.96339         4     0.829     0.319  58.27   2
        34    490.0771    932.2129 300.0200056 +22.7813379     291.6096     72.49799      1.632     4.85     3.315212     20.44868     28.65662         5     0.896     0.744   7.64   0
        35    780.6088    924.2537 300.1130677 +22.8661929     704.7741     72.47953      1.998     5.40      3.64227     20.44868     44.92571        11     1.421     0.580  39.86   0
        36    993.0000    935.9418 300.1754771 +22.9332196     1234.735     72.42413      1.758     5.13     3.366613     20.44868     99.21078        16     1.712     0.723  86.02   3
        37    272.3056    918.7193 299.9566564 +22.7121176     846.9786     72.62708      7.573     8.59     8.536135     20.44868     29.50946        11     1.928     1.069  58.90   0
        38    815.3137    918.5572 300.1257361 +22.8749627     1023.298     72.46107      1.737     4.57     3.600253     20.44868     77.39658        17     1.109     1.098   3.10   0
        39     25.4286    915.3348 299.8810434 +22.6370310     489.7142     72.47953      1.439     4.11     3.878358     20.44868     45.20263         7     0.997     0.485 -83.47   0
        40    837.6340    912.2549 300.1347430 +22.8798448     11235.41     72.49799      1.829     3.88     3.597124     20.44868     669.5618        53     1.460     1.418  16.72   0
        41    177.5810    913.7974 299.9288132 +22.6822727     738.1617     72.40565      3.152     3.49     13.82301     20.44868      48.6726         5     1.919     0.183 -53.73   0
        42    592.8810    919.4074 300.0561721 +22.8085030     496.0003     72.40565      1.836     4.90     3.622293     20.44868     44.43304         6     0.891     0.762  84.63   0
        43    149.0060    903.3434 299.9233339 +22.6706969       882.14     72.46107      2.922     4.95     10.54057     20.44868     59.99709        15     1.295     0.998  43.35   0
        44    543.6635    900.3491 300.0470502 +22.7882700     484.4611      72.5349      1.695     4.76     3.553299     20.44868     46.92543         7     0.978     0.658  49.11   0
        45    889.4070    899.7920 300.1549362 +22.8917861     341.1418     72.33169      1.793     4.87     3.568041     20.44868     36.62394         8     1.273     0.529 -42.39   0
        46    225.9777    984.6971 299.9207878 +22.7171311     791.4534     72.40565      2.700     7.36     55.58678     20.44868     40.15294         9     1.517     1.001   5.24   2
        47    846.1592    894.3209 300.1432347 +22.8772505     1438.329     72.46107      1.733     4.03     3.631798     20.44868      103.196        21     1.260     1.066  13.56   0
        48    986.9168    987.7400 300.1567235 +22.9462737     868.7679     72.57178      2.234     7.25     2.988539     20.44868     52.83051        19     1.528     1.159 -82.65   0
        49    697.9190    891.6015 300.0979288 +22.8320235     546.0579     72.38717      1.696     4.37     3.651295     20.44868      47.3987         7     0.908     0.599 -24.28   0
        50    884.2071    887.9393 300.1571711 +22.8868233     818.5361     72.46107      2.121     5.65     3.610852     20.44868     52.88171        19     1.239     1.204  30.83   0
        51    993.0375    884.9757 300.1920708 +22.9185905     368.1768     72.49799      1.934     6.30     3.414724     20.44868     25.33804         8     1.104     1.012  14.40   0
        52    932.7851    879.0388 300.1752122 +22.8988274     522.4485     72.49799      1.662     6.10     3.506871     20.44868     45.21407        13     1.106     0.963  44.69   0
        53    783.8383    877.9722 300.1291307 +22.8538723     838.8531     72.49799      1.870     4.74     3.607382     20.44868     58.64607        16     1.236     1.039  41.01   0
        54    795.5385    874.7499 300.1338249 +22.8564548     693.3217      72.5349      1.813     6.83     3.608249     20.44868     49.19772        14     1.364     1.043 -34.21   0
        55    496.6472    874.3723 300.0408665 +22.7667116     4102.533     72.49799      1.661     3.43     3.363693     20.44868     345.8315        33     1.317     1.192  29.84   0
        56    275.1324    863.1155 299.9756221 +22.6970177     403.3374     72.59022      1.436     4.46     4.744764     20.44868     40.69698         8     0.853     0.749  73.36   0
        57    540.6773    862.3365 300.0584856 +22.7764649     275.9441     72.55334      1.268     3.73      3.53191     20.44868     42.79745         5     0.932     0.429 -45.20   0
        58    222.1613    859.9431 299.9601863 +22.6802100     950.5211     72.47953      2.152     4.24     5.095157     20.44868     74.47153        16     1.221     1.047  32.77   0
        59    205.3826    973.9414 299.9178862 +22.7078642     1590.549     72.42413      4.760    12.89     46.17553     20.44868     43.26651        42     2.520     1.834  17.01   0
        60    199.0736    857.0733 299.9539434 +22.6724574     1594.416      72.5349      1.681     3.69     5.039176     20.44868     146.3143        24     1.264     1.129  38.59   0
        61    827.5760    853.8016 300.1506234 +22.8600433      166.719     72.42413      1.512     4.41     3.649848     20.44868     25.72281         5     0.950     0.581 -42.99   0
        62     74.4160    847.0608 299.9184652 +22.6321662     460.3495      72.4426      1.702     4.69     3.980978     20.44868     35.87648         8     1.449     0.431 -27.68   0
        63   1023.6433    844.4097 300.2148130 +22.9161074      858.383     56.47983      1.364     5.24     3.355011     20.44868     135.3739        12     1.618     0.479  89.77  24
        64    730.2653    844.7339 300.1232502 +22.8282662     520.1128      72.5349      2.151     5.32      3.56358     20.44868     42.17485         8     1.122     0.780 -40.52   0
        65    808.6326    838.6979 300.1496321 +22.8500270     652.3905     72.46107      1.826     5.26     3.616765     20.44868     52.46565        12     1.039     0.829   3.85   0
        66    231.5248    838.6687 299.9700158 +22.6769183     568.7711     72.55334      1.813     4.71     4.725461     20.44868       50.186         8     0.987     0.766 -68.60   0
        67    676.6339    832.5411 300.1105095 +22.8086848     4818.327     72.49799      1.586     3.20     3.587366     20.44868     433.9341        35     1.242     1.215 -21.90   0
        68    712.4601    971.5338 300.0764513 +22.8593298     6791.143     72.51645      1.864     3.97     3.747584     20.44868     411.4275        49     1.476     1.436  59.25   0
        69    478.8361    829.5403 300.0499048 +22.7485028     674.6401     72.49799      1.615     3.65     3.306312     20.44868     62.21422        13     1.054     0.916   6.34   0
        70    226.9077    826.3057 299.9726010 +22.6719866     1365.151     72.64549      1.751     3.43     4.546756     20.44868     115.9355        20     1.190     1.060  17.98   0
        71    697.2104    825.2162 300.1193009 +22.8127513     808.1515     72.42413      1.667     4.51     3.571339     20.44868     66.38343        14     1.259     0.786  12.05   0
        72    495.1294    824.0959 300.0567459 +22.7518276     299.8382     72.59022      1.455     4.57      3.32031     20.44868     40.49188         6     0.929     0.639  41.61   0
        73    246.2168    823.8061 299.9794163 +22.6770644     397.9944     72.42413      1.429     3.77     4.453253     20.44868     49.49009         9     1.060     0.715  34.21   0
        74    613.3314    815.7085 300.0962698 +22.7848703     343.2786     72.60865      1.718     4.65     3.543821     20.44868     29.93508         7     1.087     0.564  63.99   0
        75    852.6851    812.2081 300.1719774 +22.8556234     4108.927     72.40565      1.684     3.37     3.623022     20.44868     302.1726        33     1.301     1.232 -46.44   0
        76    261.3077    806.5151 299.9897305 +22.6766329     441.3022     72.64549      1.377     3.19     4.207103     20.44868     49.69213         8     0.876     0.654  53.49   0
        77    569.9683    804.8176 300.0863102 +22.7687399      663.487     72.46107      1.596     2.64     3.429464     20.44868      77.4858        10     0.884     0.719 -83.11   0
        78    215.9875    802.7882 299.9768537 +22.6619636     1109.536     72.38717      1.809     3.98     4.163539     20.44868     89.04543        19     1.181     1.115   7.64   0
        79    631.3221    798.0129 300.1076264 +22.7851848     569.3785     72.49799      1.501     4.65     3.566315     20.44868     51.05097        12     1.138     0.866 -35.21   0
        80    365.7040    794.7944 300.0260060 +22.7045937     53244.46     72.38717      1.627     3.25     3.978698     20.44868     5272.434        87     1.423     1.369  35.70   0
        81    699.8138    798.5948 300.1287692 +22.8058878     235.3201     72.35019      1.337     4.18     3.563756     20.44868     26.15418         5     1.172     0.425 -12.99   0
        82    623.5258    793.8536 300.1065511 +22.7816529     1491.164     72.49799      1.459     3.12     3.587082     20.44868     180.9254        19     1.098     1.024 -10.68   0
        83    294.0801    792.6829 300.0044179 +22.6824985      426.718     72.62708      1.564     4.87     4.086174     20.44868     40.46732         8     1.180     0.740 -40.51   0
        84    652.5085    790.0086 300.1168271 +22.7892392     900.8045     72.40565      1.516     3.09       3.6263     20.44868     95.69693        14     1.004     0.916  49.94   0
        85     51.5141    789.3769 299.9301081 +22.6087509     873.4947     72.42413      1.954     5.05      3.61534     20.44868      62.4119        18     1.377     1.143 -47.89   0
        86    663.3204    788.4445 300.1207030 +22.7920319     538.5539     72.46107      1.396     3.86     3.643551     20.44868      65.5118        11     1.012     0.879  69.46   0
        87     18.7888    789.3925 299.9199389 +22.5989312     803.3289     72.35019      2.130     5.78     3.338341     20.44868     54.34621        17     1.329     1.214 -62.28   0
        88    983.0759    786.0583 300.2211367 +22.8871861     403.0146      72.5349      1.706     4.77     3.486204     20.44868     35.82547         5     1.012     0.637 -35.80   0
        89    768.5444    784.0865 300.1548997 +22.8223258     408.1788     72.55334      1.698     4.34     3.606825     20.44868     38.45326         8     1.210     0.443  78.30   0
        90    806.3900    775.1943 300.1695846 +22.8311159     759.6613     72.33169      1.550     3.68     3.686411     20.44868     77.20202        14     1.058     0.903 -77.63   0
        91    415.4324    772.0242 300.0488789 +22.7129774     31514.59     72.46107      1.561     2.88     3.870908     20.44868     3435.909        73     1.385     1.314  50.95   0
        92    305.3940    770.7981 300.0150514 +22.6796142     218.6689     72.29468      1.215     4.32     3.999923     20.44868     34.22949         5     1.072     0.495 -32.06   0
        93    938.5259    768.0157 300.2131103 +22.8686532     2754.373     72.47953      1.619     3.34     3.637362     20.44868     204.4304        29     1.266     1.126   2.16   0
        94    426.6318    766.5859 300.0541314 +22.7147760     858.2731     72.47953      1.835     4.01     3.816679     20.44868     58.29897        13     1.025     0.875  48.44   0
        95    696.5169    764.0812 300.1389646 +22.7949885     910.5577     72.62708      1.459     3.14     3.712603     20.44868     104.2128        16     1.109     0.904 -15.26   0
        96    532.7059    764.0976 300.0879508 +22.7458759     459.5065     72.66391      1.613     3.66     3.576542     20.44868     41.54562         9     0.965     0.644 -34.66   0
        97    297.7977    763.7474 300.0149816 +22.6753121     788.9083     72.46107      1.532     4.02     3.979062     20.44868     75.22525        15     1.144     0.926  14.72   0
        98    543.6096    758.7999 300.0930674 +22.7476250      937.534     72.29468      1.654     3.73     3.612592     20.44868     85.35299        16     1.132     0.949  53.14   0
        99    103.4682    759.3673 299.9560040 +22.6157398      462.415     72.47953      1.469     3.78     4.009912     20.44868     40.97048         6     0.977     0.419  72.12   0
       100    945.1501    755.7471 300.2191651 +22.8671130     541.3553     72.51644      1.841     3.79     3.668245     20.44868     47.82738        10     1.097     0.742 -27.84   0
       101    489.1269    754.0839 300.0776428 +22.7299321     602.6055     72.59022      1.682     3.16     3.630819     20.44868     60.72715         9     0.873     0.763 -80.68   0
       102    445.2389    754.9102 300.0637168 +22.7170061     358.1853     72.46107      1.761     4.26     3.762655     20.44868     31.77614         6     1.148     0.451  61.07   0
       103    429.7520    772.5323 300.0531689 +22.7174186     2013.837     72.47953      1.576     3.01     3.790782     20.44868     219.3605        21     1.148     1.027  46.21   0
       104    697.7440    752.6093 300.1430766 +22.7920619     223.7411     72.47953      1.364     4.27     3.754495     20.44868     32.89054         5     1.140     0.456  57.74   0
       105    131.7526    752.9359 299.9668830 +22.6223843     505.4897     72.49799      1.574     3.60     3.956105     20.44868     57.05948         9     1.009     0.609  66.35   0
       106    922.5587    750.5382 300.2138142 +22.8588471     391.9077     72.46107      1.630     4.70     3.722919     20.44868     49.19672         7     1.184     0.676   0.70   0
       107    295.6325    748.3747 300.0193060 +22.6702517     496.1199     72.47953      1.399     4.04     3.922273     20.44868      57.5542        10     1.039     0.757 -35.99   0
       108    619.1964    738.7610 300.1231154 +22.7645365     360.2161     72.49799      1.302     4.56     3.920047     20.44868      39.9716         8     0.953     0.621   3.89   0
       109    588.5379    737.0828 300.1141148 +22.7548622     539.9501     72.57178      1.391     3.17     3.872769     20.44868     78.00695        11     1.006     0.781 -28.28   0
       110    497.8510    736.1388 300.0861918 +22.7273972     314.6882      72.5349      1.451     4.44     3.754644     20.44868     38.42173         7     0.822     0.792 -21.32   0
       111   1004.9681    733.3188 300.2451130 +22.8785900     4395.477     72.47953      1.673     3.33     3.617492     20.44868      350.344        38     1.323     1.291 -27.42   0
       112    610.5665    734.4065 300.1218438 +22.7606987     1399.407     72.47953      1.490     2.73     3.938965     20.44868     157.3691        17     1.030     0.906  16.06   0
       113    530.2950    734.1284 300.0969435 +22.7365495     214.9224     72.59022      1.245     2.38     3.763089     20.44868      49.2705         6     0.722     0.569  40.13   0
       114    692.0375    729.4006 300.1488443 +22.7836861      179.477     72.47953      1.222     4.20     3.883497     20.44868     32.73097         5     0.788     0.638  83.94   0
       115    993.4196    724.7902 300.2442836 +22.8726793     1658.781     72.46107      1.643     3.54     3.660967     20.44868     141.1522        26     1.268     1.151  -8.78   0
       116    356.3240    718.4194 300.0479182 +22.6798629      816.295     72.47953      1.338     2.98     3.910338     20.44868     106.1682        13     0.981     0.895  30.92   0
       117    222.0826    718.9418 300.0060068 +22.6397393     392.3494     72.55334      1.375     3.92     3.911793     20.44868     36.67537         6     0.989     0.446  51.83   0
       118    819.9630    716.0010 300.1930594 +22.8181803     2614.419     72.47953      1.603     3.34     3.853289     20.44868     250.5123        31     1.384     1.183  12.32   0
       119   1023.5089    714.7979 300.2569176 +22.8788214     737.9005     57.23293      1.201     4.22     3.593597     20.44868     117.5405        10     1.181     0.588 -76.42  24
       120     42.4963    706.1809 299.9543516 +22.5821856     845.6284     72.38717      1.689     4.87     4.081646     20.44868     77.21196        16     1.431     0.850  47.98   0
       121    902.4769    702.2684 300.2232451 +22.8389606     771.5813     72.57178      2.067     6.46     3.903943     20.44868     42.15871        13     1.355     0.865  43.21   0
       122    205.0587    702.1658 300.0061678 +22.6298183     609.4511     72.49799      1.449     3.48     3.954368     20.44868     63.99559        10     0.944     0.739 -53.37   0
       123    938.2355    692.9335 300.2374293 +22.8469918     148188.4     72.47953      1.592     3.11     3.926126     20.44868     12888.87       168     1.539     1.489  62.81   0
       124    445.7659    696.4189 300.0828945 +22.7003750     110.1133     72.49799      1.599     4.45     3.851818     20.44868     26.35489         5     1.197     0.470 -58.92   0
       125    700.7927    696.2996 300.1623316 +22.7768038     339.2568     72.38717      1.478     2.73     3.972581     20.44868     48.69487         6     0.744     0.577 -54.81   0
       126    790.8102    692.9865 300.1914551 +22.8028320     639.1608     72.38717      1.277     3.48     3.900003     20.44868     89.93494        14     1.138     0.812  73.96   0
       127    970.8423    685.8537 300.2498991 +22.8547258     462.7027     72.47953      1.539     4.10     3.827116     20.44868      51.9039        11     1.075     0.963 -24.39   0
       128    624.3958    681.7654 300.1432614 +22.7497285     1657.147     72.47953      1.416     2.70     4.121733     20.44868     184.8679        21     1.183     0.987  30.94   0
       129    805.7024    679.0361 300.2006305 +22.8032872     9296.147     72.47953      1.469     2.77      3.94255     20.44868     964.8599        42     1.226     1.191  76.74   0
       130    307.1358    674.0584 300.0470387 +22.6523770     5004.375     72.51644      1.517     2.98     3.912383     20.44868     542.3076        38     1.283     1.198  58.55   0
       131    389.2367    672.3182 300.0731399 +22.6765033      1088.86      72.4426      1.385     2.82     3.881303     20.44868     121.5832        16     1.005     0.954  67.93   0
       132     21.0407    672.5270 299.9586249 +22.5660939      1752.69     72.46107      1.766     3.52     4.053007     20.44868      165.526        25     1.264     1.173  -2.89   0
       133    264.9421    669.3939 300.0354348 +22.6383811     361.9825      72.4426      1.337     3.16     3.960339     20.44868     65.17729         9     0.902     0.744 -89.46   0
       134    597.6304    667.6947 300.1395001 +22.7376638     754.4308     72.38717      1.367     2.62     4.179554     20.44868     101.3976        12     0.920     0.802  75.65   0
       135    589.1780    659.9260 300.1393931 +22.7328989     3284.875     72.47953      1.388     2.59      4.24058     20.44868     378.5995        25     1.075     1.050  69.60   0
       136    579.4752    653.5685 300.1384382 +22.7281644     1406.141     72.47953      1.372     2.59     4.279258     20.44868     183.3174        16     0.956     0.932 -22.26   0
       137    508.1490    652.8651 300.1164633 +22.7065778     375.9209     72.51644      1.472     5.07     4.080757     20.44868     47.00001         9     1.043     1.017  51.92   0
       138    972.9087    651.7290 300.2616348 +22.8455372      475.447     72.64549      1.664     2.95     4.048527     20.44868     42.83478         7     0.726     0.659   9.36   0
       139    242.7133    649.7256 300.0349154 +22.6260686     649.9447     72.62708      1.428     3.56      3.96268     20.44868     85.34406        12     1.022     0.812  42.00   0
       140    257.0625    647.9760 300.0399450 +22.6298711     633.7685     72.46107      1.470     4.00      3.96064     20.44868     74.78851        13     1.146     0.914  60.31   0
       141    314.0016    645.3284 300.0585102 +22.6461910     389.9709     72.38717      1.754     4.84     3.944313     20.44868     34.90989         8     1.087     0.611  25.28   0
       142    283.1797    644.7633 300.0491094 +22.6367836     544.1932     72.49799      1.524     4.44     3.964636     20.44868     69.81144        11     1.122     0.804   3.58   0
       143    603.1058    643.8357 300.1489588 +22.7324534     451.0803     72.47953      1.367     3.02     4.429974     20.44868     65.30727         9     0.971     0.754  46.39   0
       144    504.1498    643.2179 300.1183536 +22.7026087     1810.381     72.47953      1.403     2.76     4.140487     20.44868     188.5789        20     1.228     0.960  71.52   0
       145    158.1525    638.1860 300.0123812 +22.5973881     19591.18     72.47953      1.605     3.03     4.028192     20.44868     1883.944        64     1.418     1.327  19.35   0
       146     79.0425    639.9349 299.9872321 +22.5741522     704.4716     72.46107      1.687     3.57     4.048333     20.44868     75.70604        13     1.018     0.911  48.92   0
       147    589.0801    638.6705 300.1462701 +22.7267654     1144.848     72.59022      1.399     2.45       4.4499     20.44868     147.6737        15     1.034     0.828 -87.53   0
       148    624.2463    637.7678 300.1575136 +22.7370479      260.589     72.51644      1.178     3.96     4.486609     20.44868     45.49753         6     0.819     0.547 -44.50   0
       149   1007.1705    624.8780 300.2810472 +22.8480817     965.9114     72.47953      1.511     3.51     4.222954     20.44868     119.5471        20     1.177     1.067  19.86   0
       150    104.2510    622.4595 300.0007420 +22.5767032     1341.763      72.5349      1.981     5.70     4.040591     20.44868     97.96019        24     1.521     1.105 -80.86   0
       151    873.9625    623.1156 300.2400807 +22.8076722     542.2111     72.46107      1.787     4.98      4.39364     20.44868     56.51193        10     1.183     0.592 -26.01   0
       152    170.3089    622.9597 300.0211065 +22.5966665     570.2054     72.47953      1.716     3.42     4.004984     20.44868     66.76431         7     0.963     0.694 -13.64   0
       153    552.8121    619.3250 300.1412648 +22.7103372     388.6557     72.49799      1.534     2.82     4.570197     20.44868     57.80118         7     0.902     0.507 -64.51   0
       154    947.3337    617.4628 300.2647945 +22.8280274     801.0878      72.5349      1.849     3.36      4.41729     20.44868     86.81149        12     1.006     0.886  19.15   0
       155    345.1907    617.9426 300.0771087 +22.6476851     341.7448     72.46107      1.433     4.12     3.950345     20.44868       34.544         6     1.128     0.430  62.28   0
       156    509.1775    611.6365 300.1301804 +22.6950478     673.0854     72.49799      1.239     2.46     4.401928     20.44868      116.285        13     0.869     0.826  54.29   0
       157    657.1469    610.0595 300.1767634 +22.7389508     460.1165      72.5349      1.230     2.29     4.689565     20.44868     68.37334         9     0.769     0.710  32.03   0
       158    704.6135    608.7339 300.1919792 +22.7527959     396.1128     72.42413      1.297     3.09      4.40935     20.44868     58.52703         9     0.910     0.693  46.80   0
       159    674.9547    608.1723 300.1829231 +22.7437459     497.9447     72.51644      1.190     2.53     4.652305     20.44868     75.20689         8     0.795     0.656  46.84   0
       160    553.3831    607.3786 300.1453243 +22.7070777      918.204     72.46107      1.464     3.21     4.679069     20.44868      86.7356        15     1.041     0.911  76.24   0
       161    987.1931    602.9175 300.2819520 +22.8357855     3312.282     72.40565      1.534     2.99     4.423244     20.44868     346.1951        32     1.287     1.167  56.13   0
       162    518.9486    602.9463 300.1360453 +22.6954817     1627.826     72.51644      1.339     2.67     4.522562     20.44868     238.6358        17     1.048     0.875  43.75   0
       163    856.3126    600.2702 300.2420019 +22.7958192     67.30186     72.64549      1.214     5.72     4.469232     20.44868     27.08089         6     1.209     0.763 -57.26   0
       164    884.5836    600.2755 300.2508135 +22.8042902      333.068     72.47953      1.166     3.75     4.513501     20.44868     50.32531         5     0.870     0.465 -42.70   0
       165     80.8886    596.4193 300.0019438 +22.5622224     5073.915     72.42413      1.625     3.19     4.014815     20.44868     483.4202        42     1.381     1.313  33.11   0
       166    382.3663    589.5477 300.0978978 +22.6506825     9089.668     72.49799      1.457     2.59     4.193994     20.44868     1119.674        46     1.257     1.193  54.89   0
       167    504.7900    586.6150 300.1369443 +22.6865472     9104.887     72.38717      1.391     2.49     4.531063     20.44868     1238.727        37     1.213     1.078  40.88   0
       168    751.2358    582.6520 300.2149786 +22.7592738     269.1006     72.49799      1.079     2.52     4.245069     20.44868     38.57422         5     0.719     0.446 -17.12   0
       169    149.2880    582.6241 300.0276781 +22.5787861     270.1935      72.4426      1.330     2.98     3.957633     20.44868     37.59277         5     0.716     0.463 -15.18   0
       170    916.4828    580.3837 300.2672222 +22.8081287     1947.627      72.4426      1.613     3.00     4.509523     20.44868     216.5179        25     1.380     1.100 -54.59   0
       171   1001.1972    578.0118 300.2944122 +22.8328201     12268.85     72.29468      1.549     2.98      4.40282     20.44868     1095.264        52     1.338     1.296 -88.54   0
       172    565.4124    576.2059 300.1591970 +22.7017309      11588.9     72.35019      1.375     2.42     4.842244     20.44868     1295.727        49     1.234     1.148  80.66   0
       173    734.7051    572.3104 300.2131880 +22.7513490      579.026     72.66391      1.409     4.20     4.282743     20.44868     70.67789         8     1.189     0.481  53.58   0
       174    292.8412    571.6689 300.0758619 +22.6187022     1396.949     72.46107      1.432     2.61     4.033318     20.44868     192.6464        16     1.027     0.891  -3.92   0
       175    451.1342    570.4592 300.1254946 +22.6658215     235.9087     72.51644      1.284     2.42     4.407269     20.44868     43.80619         5     0.711     0.468  18.66   0
       176    539.8716    569.5146 300.1534196 +22.6921530     365.5919     72.59022      1.257     2.24     4.833657     20.44868     63.48003         6     0.738     0.496   6.52   0
       177    497.1020    564.3846 300.1417734 +22.6778585     4465.689     72.38717      1.369     2.56     4.622673     20.44868     517.6937        28     1.137     1.025  60.44   0
       178    840.0394    564.4432 300.2485694 +22.7806479     794.9048     72.57178      1.407     2.86     4.471125     20.44868     93.66566        13     0.960     0.821  61.89   0
       179    475.4594    562.9245 300.1355120 +22.6709508     1161.542      72.5349      1.307     2.31     4.517692     20.44868     175.3471        16     1.002     0.848  55.66   0
       180    229.6954    562.3444 300.0592579 +22.5970865     733.3987      72.5349      1.515     3.49     3.872573     20.44868     84.67858        13     1.050     0.881 -70.70   0
       181    916.8780    559.9731 300.2739765 +22.8023804     1457.634     72.47953      1.449     3.04     4.509395     20.44868     135.0327        20     1.135     0.978 -24.91   0
       182    162.6987    559.8173 300.0392543 +22.5762646     399.9628     72.38717      1.817     6.24      3.89296     20.44868     41.46237         7     1.236     0.887  75.44   0
       183    797.3594    556.7361 300.2377709 +22.7656465     783.8911      72.4426      1.395     3.09     4.435369     20.44868     95.83534        16     1.061     0.943 -48.53   0
       184    613.7299    551.9593 300.1821180 +22.7092487     199048.9      72.4426      1.365     2.39     4.913254     20.44868      27520.6       197     1.456     1.401   1.36   0
       185    437.3820    558.2068 300.1251956 +22.6581802      284.635      72.4426      1.353     2.76     4.402795     20.44868       41.612         5     0.697     0.477  79.33   0
       186    299.7635    551.8569 300.0844502 +22.6150911     3280.737     72.47953      1.388     2.38     4.093705     20.44868     473.8677        27     1.128     1.049  61.01   0
       187    865.7479    548.1250 300.2618844 +22.7836593     487.9051     72.49799      1.329     3.25     4.515939     20.44868     61.92206        10     0.916     0.748 -28.79   0
       188    730.8340    543.2650 300.2214175 +22.7418435     281.7463     72.47953      1.291     3.46     4.394959     20.44868     32.33813         5     0.991     0.350  45.83   0
       189    504.3213    532.2789 300.1544493 +22.6708022     2750.475     72.60865      1.379     2.39     4.777117     20.44868     299.7362        23     1.086     0.951 -75.39   2
       190    348.5907    534.7549 300.1051905 +22.6248236     444.4272     72.49799      1.256     3.15     4.512586     20.44868     61.16134        10     0.865     0.855   0.20   0
       191    915.5729    528.9791 300.2836379 +22.7930801      429.585     72.47953      1.992     2.66     4.504824     20.44868     55.78433         5     0.886     0.488  12.04   0
       192    608.6221    528.0739 300.1882861 +22.7008564     289.6802     72.47953      1.302     3.85     5.037486     20.44868     31.85805         5     0.881     0.482 -85.64   0
       193    821.5653    520.7869 300.2569925 +22.7625668     344.6716     72.46107      1.198     2.99     4.508056     20.44868     55.50878         7     0.819     0.655 -15.66   0
       194    901.4440    518.5604 300.2826167 +22.7858534     1590.958     72.55334      1.300     2.36     4.506058     20.44868     199.9559        18     1.006     0.930  35.92   0
       195    788.1468    518.6462 300.2472726 +22.7519403     289.9918     72.51644      1.358     3.66     4.472528     20.44868     37.98648         7     0.863     0.622 -75.34   0
       196     31.4069    517.1342 300.0123259 +22.5246285     949.1792     72.47953      2.004     3.63     3.896378     20.44868     98.54354        13     1.142     0.880  -6.76   0
       197    772.6641    516.1927 300.2432447 +22.7465968     2608.876     72.46107      1.339     2.43     4.436355     20.44868     308.8124        23     1.048     1.024  33.74   0
       198    132.4584    516.1971 300.0440243 +22.5546753     262.4311      72.4426      1.222     2.26      4.03722     20.44868     42.64449         5     0.697     0.450  66.38   0
       199   1016.9888    513.5659 300.3202737 +22.8190203     499.6074     72.46107      1.588     2.53     4.200419     20.44868     68.54347         8     0.835     0.654 -61.92   2
       200   1015.7233    509.1300 300.3213197 +22.8173659       776.52     72.59022      1.533     3.33      4.17521     20.44868      73.7798        11     0.876     0.859  44.43   2
       201    677.6419    513.0015 300.2146770 +22.7172094     483.1986     72.47953      1.382     3.34     4.952246     20.44868     51.58013         9     0.944     0.716  39.36   0
       202    559.6612    511.9770 300.1782699 +22.6815585     663.9702     72.46107      1.255     2.83     5.035606     20.44868     103.1898        11     0.952     0.760  46.71   0
       203    901.5543    508.6164 300.2858809 +22.7830279     2106.562     72.49799      1.624     3.70      4.50365     20.44868     222.2126        25     1.572     0.904  69.66   0
       204    655.1136    506.5259 300.2097633 +22.7085983     843.1131     72.60864      2.007     3.04     5.074646     20.44868     81.32115        13     1.084     0.749 -77.96   2
       205    440.8571    506.7252 300.1429984 +22.6444385     288.4131     72.51644      1.049     2.94     4.538449     20.44868     48.09671         6     0.747     0.562  46.67   0
       206    493.1479    505.5022 300.1596685 +22.6597624      344.618     72.55334      1.133     2.85     4.718308     20.44868     54.76015         7     0.778     0.687  65.08   0
       207    939.7748    503.5900 300.2994313 +22.7930297     4257.469     72.47953      1.452     2.67     4.448985     20.44868     492.9848        37     1.224     1.185  75.60   0
       208    677.2760    500.0136 300.2187813 +22.7133680     269.2635     72.49799      1.428     2.54       5.0423     20.44868     38.26913         5     0.769     0.479 -31.43   0
       209    600.4774    499.4775 300.1950377 +22.6902004     272.7123     72.57178      1.075     3.04     5.175604     20.44868     46.54215         6     0.869     0.430  70.40   0
       210    171.8398    493.8748 300.0635121 +22.5600815     1083.123      72.4426      1.600     3.08     4.094916     20.44868     117.6762        17     1.165     0.862  -0.23   0
       211    971.0435    491.1137 300.3132349 +22.7988065     316.8736     72.46107      1.585     4.03     4.287316     20.44868     36.37919         6     0.945     0.490 -31.34   0
       212    165.0230    483.8799 300.0646391 +22.5551681     417.1912     72.42413      1.410     4.72     4.141656     20.44868     63.51405        10     1.244     0.760  24.90   0
       213    772.1538    477.9550 300.2555044 +22.7354546     502.5245     72.51644      1.457     3.75     4.417408     20.44868     55.01931        12     1.000     0.888 -74.31   0
       214    661.1958    476.0035 300.2215702 +22.7016509     377.2005     72.29468      1.482     3.77     5.202249     20.44868     45.38219         5     0.835     0.490  43.20   0
       215    713.3497    474.2752 300.2383774 +22.7167804     712.3731     72.47953      1.274     2.36     4.654353     20.44868     94.42305        12     0.916     0.746  30.85   0
       216    774.0691    466.4312 300.2598435 +22.7327163      852.713     72.46107      1.313     2.83     4.392144     20.44868     107.5438        12     1.060     0.699  60.60   0
       217    931.2424    462.4786 300.3101221 +22.7786548     955.6749     72.46107      1.406     2.39     4.410922     20.44868     138.9201        14     1.006     0.817  38.17   0
       218    915.4282    458.8725 300.3063619 +22.7728822     715.3647     72.47953      1.416     2.91     4.414054     20.44868     83.56879        11     0.947     0.778  25.07   0
       219    895.5536    459.1507 300.3000747 +22.7670103     349.7641     72.49799      1.376     3.74     4.420249     20.44868     41.52163         6     0.807     0.497 -89.99   0
       220    659.7493    456.8837 300.2273284 +22.6957235     3299.312     72.47953      1.317     2.28     5.098254     20.44868     492.3219        24     1.099     0.965  74.30   0
       221   1020.1367    455.7669 300.3400271 +22.8033424     486.8855     71.51309      1.388     3.20     4.029483     20.44868     62.00694         9     0.913     0.652  78.58  16
       222    806.0994    456.4950 300.2730520 +22.7394549      206.651     72.66391      1.309     4.26     4.403044     20.44868      33.1651         6     1.037     0.499  -1.86   0
       223    135.5480    448.1159 300.0670916 +22.5360626     422.3042     72.51644      1.608     4.17     4.220064     20.44868     49.04892         7     1.055     0.721  28.57   0
       224    431.6204    444.7661 300.1602441 +22.6238752     367.6652     72.49799      1.388     2.97     4.621001     20.44868     42.09063         6     0.701     0.638 -41.82   0
       225    499.4843    443.8691 300.1816547 +22.6439584      361.514     72.59022      1.294     3.54     4.789324     20.44868     51.95095         6     0.747     0.628  49.24   0
       226     47.2679    441.8945 300.0416835 +22.5077972     1061.452     72.62708      0.641     1.17      4.44598     20.44868     467.3372         5     0.525     0.366  25.40   0
       227    942.8621    435.6115 300.3224698 +22.7744092     581.0266      72.4426      1.678     3.64     4.289287     20.44868     70.92324        10     1.077     0.713 -87.24   0
       228    770.4356    430.8387 300.2702685 +22.7213977     1149.911     72.55334      1.388     2.38     4.305197     20.44868      161.822        15     0.962     0.851 -53.11   0
       229    566.3817    431.3047 300.2065589 +22.6603971     353.6836     72.38717      1.072     3.11     4.944562     20.44868     53.85866         5     0.725     0.455  72.56   0
       230    274.5938    428.9256 300.1165441 +22.5722508     675.7311     72.42413      1.401     3.28     4.607326     20.44868     89.45036        12     1.072     0.798   4.10   0
       231    114.1984    427.3981 300.0671836 +22.5237127     308.1536     72.25765      1.465     3.14     4.276724     20.44868      36.3724         5     0.723     0.463  16.58   0
       232    336.7306    424.7185 300.1372335 +22.5896723     3604.364     72.59022      1.402     2.45     4.655024     20.44868     504.1797        29     1.176     1.060  84.04   0
       233    283.9006    419.4915 300.1225008 +22.5723324     7522.629     72.64549      1.413     2.57     4.639768     20.44868     930.5369        39     1.224     1.116  56.40   0
       234    788.7417    420.3942 300.2793643 +22.7238787     154.2471      72.4426      1.138     3.45     4.281689     20.44868      28.3184         5     0.755     0.454 -17.32   0
       235    424.6949    413.7203 300.1681687 +22.6128823     4912.159     72.59022      1.356     2.34     4.632051     20.44868     710.0101        32     1.126     1.074  76.64   0
       236    668.9402    410.4458 300.2452687 +22.6851324     18690.66     72.51644      1.324     2.29     4.792489     20.44868     2730.993        53     1.218     1.127  71.39   0
       237    516.3859    411.8122 300.1973234 +22.6398147     331.0065     72.40565      1.354     3.99     4.807636     20.44868     51.59572         6     1.029     0.480  85.07   0
       238    686.5227    410.5794 300.2507022 +22.6904382     763.4637     72.47953      1.876     5.34     4.674115     20.44868     65.09769        17     1.591     0.746 -27.30   0
       239    866.4127    401.2018 300.3098049 +22.7416228     418.8554     72.29468      1.407     2.09     4.254755     20.44868     63.80208         6     0.672     0.590   6.04   0
       240    288.8771    397.6529 300.1311377 +22.5675535     433.4345     72.51644      1.338     2.68     4.644289     20.44868     48.69631         5     0.721     0.449  16.28   0
       241   1002.4882    393.1330 300.3548583 +22.7800457     872.6041     72.59022      1.729     3.57     4.205119     20.44868     77.29516        16     1.204     0.864 -36.05   0
       242    539.2196    392.2744 300.2107738 +22.6410439     367.2261     72.47953      1.370     2.68     4.747715     20.44868     39.88972         6     0.737     0.547  49.82   0
       243    223.5092    390.4272 300.1131590 +22.5458800     2012.004      72.4426      1.457     2.79     4.637741     20.44868       261.67        25     1.306     0.980  53.79   0
       244    609.5345    379.9132 300.2366792 +22.6585604     6739.547     72.57178      1.322     2.21     4.888305     20.44868     962.1456        35     1.157     1.051 -89.65   0
       245   1023.0746    380.1425 300.3654973 +22.7824722     1092.018     59.79412      1.347     3.20     4.245877     20.44868     127.2461        14     1.116     0.719  73.39  24
       246    324.4461    379.4459 300.1481093 +22.5729882     801.1461     72.51645      1.608     2.80     4.725332     20.44868     78.69189        12     0.961     0.775  61.11   0
       247    182.0049    372.7741 300.1059874 +22.5283666     456.3633      72.4426      1.369     3.43      4.39214     20.44868     60.07094         9     1.045     0.613 -48.57   0
       248    869.4842    371.6366 300.3203602 +22.7340419     318.5654     72.46107      1.141     2.55     4.234663     20.44868     59.94002         5     0.949     0.312  64.17   0
       249     29.4399    369.9374 300.0595036 +22.4817985      1349.11     72.47953      1.579     2.86     5.053801     20.44868     156.8996        19     1.096     1.046  88.29   0
       250    813.8059    368.9960 300.3038616 +22.7166094     1213.281     72.31319      1.432     2.81     4.231483     20.44868     163.3808        15     1.100     0.864  68.88   0
       251    723.1577    370.1328 300.2752450 +22.6897871     469.1512     72.46107      1.180     2.79     4.275584     20.44868     63.65593        10     0.875     0.743   4.35   0
       252    516.2063    366.1510 300.2120897 +22.6266422     6157.432     72.47953      1.305     2.32     4.652162     20.44868     811.9464        34     1.172     1.010  75.99   0
       253   1005.6227    360.9196 300.3662932 +22.7717190     584.3179     72.42413      1.526     2.44     4.319662     20.44868     82.50136         8     0.835     0.623  77.44   0
       254    908.3031    360.5583 300.3360592 +22.7424796     1532.671     72.47953      1.413     2.55      4.25276     20.44868     199.0423        17     1.044     0.982   5.19   0
       255    500.9079    354.9518 300.2109629 +22.6188403     453.0244     72.51644      1.197     2.33     4.614727     20.44868     75.44275         9     0.879     0.639  79.14   0
       256    583.5863    352.8092 300.2373970 +22.6429974     462.2572     72.38717      1.243     2.68     4.728359     20.44868     73.80159         8     0.880     0.663  15.14   0
       257    861.5943    351.8212 300.3243325 +22.7259816     415.1486     72.46107      1.579     2.18     4.218298     20.44868     38.41342         5     0.686     0.463  71.21   0
       258     27.7157    351.6264 300.0649109 +22.4760258     963.8455     72.46107      1.569     3.57      5.11437     20.44868     97.42226        16     1.057     0.969  27.95   0
       259    880.9626    348.2179 300.3315403 +22.7307448     597.8599     72.47953      1.360     3.05      4.23238     20.44868     74.46693         9     0.801     0.750  50.69   0
       260    403.8142    345.3885 300.1838522 +22.5869959     2435.053     72.40565      1.308     2.26     4.698932     20.44868     324.2423        22     1.062     0.958  75.72   0
       261    122.2187    342.5352 300.0972211 +22.5017576     1142.642      72.4426      1.559     3.05      4.65413     20.44868      135.254        18     1.058     1.035  23.05   0
       262    751.3159    339.8174 300.2938582 +22.6895062     447.0275      72.4426      1.743     2.25     4.220857     20.44868     46.04969         5     0.715     0.438 -74.14   0
       263    373.1259    334.7529 300.1777567 +22.5747431     29430.04     72.47953      1.358     2.43     4.834135     20.44868     3934.618        68     1.323     1.161  59.08   0
       264    907.7242    332.3566 300.3450323 +22.7341961      1450.57     72.46107      1.375     2.58      4.26731     20.44868     184.3834        20     1.191     0.916  70.61   0
       265    863.1767    330.0810 300.3318820 +22.7202040     334.5558      72.4426      1.188     2.40      4.22299     20.44868     53.17868         6     0.846     0.457  54.86   0
       266     69.4549    322.4966 300.0873299 +22.4801823     4932.007     72.57178      1.576     2.73     4.907987     20.44868     609.1165        39     1.356     1.176  56.91   0
       267    823.1824    321.2414 300.3222838 +22.7056868     554.4666     72.49799      1.390     3.06     4.224909     20.44868     64.30708         9     0.914     0.712   0.09   0
       268    471.7129    320.2077 300.2131523 +22.6001094     498.9453     72.38717      1.260     2.60     4.701534     20.44868     79.54299         9     0.937     0.631 -47.39   0
       269    247.4694    321.2755 300.1430515 +22.5332067     388.1982     72.55334      1.293     2.20     4.799311     20.44868     64.19637         5     0.689     0.470 -70.52   0
       270    783.6682    314.6546 300.3121062 +22.6919605     1954.112     72.51645      1.315     2.23     4.226188     20.44868     267.7647        21     1.030     0.964 -85.55   0
       271    591.7261    309.0793 300.2541236 +22.6328686     347.0361     72.59022      1.164     3.06      4.76489     20.44868     52.04634         7     0.775     0.600 -75.49   0
       272    998.7258    307.3091 300.3815418 +22.7542337     458.6534     72.64549      1.130     2.60     4.498593     20.44868     84.02112        10     0.941     0.654  51.77   0
       273    445.2956    299.0053 300.2118115 +22.5861016     2193.457     72.38717      1.502     3.13     4.805778     20.44868      214.609        23     1.336     0.925  65.14   0
       274    884.6249    292.1900 300.3508653 +22.7157289     605.3354     72.47953      1.205     2.72     4.262596     20.44868     91.31893         9     0.836     0.785 -89.31   0
       275     17.1755    290.4097 300.0815014 +22.4552932     910.9758     72.47953      2.346     6.47       4.8571     20.44868     96.26098        14     1.750     0.802 -40.62   0
       276    766.8319    289.7886 300.3149288 +22.6797693     379.0019     72.47953      1.322     1.97      4.23152     20.44868      67.5127         6     0.709     0.528  47.93   0
       277    521.1189    278.4800 300.2420703 +22.6029220     1065.933     72.60864      1.235     2.31     4.783892     20.44868     158.1138        14     0.990     0.791  71.64   0
       278    904.4736    271.7166 300.3636974 +22.7157826     306.8138     72.59022      1.134     3.41     4.323154     20.44868      44.5081         5     1.023     0.328  67.15   0
       279    766.2272    270.4041 300.3210302 +22.6740145     2102.523      72.4426      1.284     2.33     4.235052     20.44868     310.3275        22     1.069     1.058 -19.29   0
       280      1.4010    255.7943 300.0878322 +22.4406259     11982.49     56.64542      1.157     2.67      4.98042     20.44868     2952.891        43     1.613     0.767 -89.17  24
       281    474.2309    254.2899 300.2353246 +22.5819229     698.6901     72.42413      1.327     2.83     4.784139     20.44868      89.6697        11     0.950     0.716  73.81   0
       282    149.3109    248.4772 300.1361589 +22.4828744     1407.898     72.62708      1.747     3.66     4.799955     20.44868     138.3277        27     1.438     1.211 -56.36   0
       283    179.8495    248.3498 300.1456918 +22.4919928     583.5964     72.51644      1.357     2.76     4.801196     20.44868      67.6301         8     0.835     0.643  14.38   0
       284    886.9042    242.0975 300.3678293 +22.7020040     393.1592     72.66391      1.669     5.45     4.337519     20.44868     36.55219         8     1.113     0.753  13.73   0
       285    233.0903    240.2926 300.1648560 +22.5056381     571.1841     72.64549      1.456     3.79     4.908845     20.44868     68.00368        11     1.117     0.774 -79.91   0
       286    909.1861    234.1799 300.3773454 +22.7063964     375.4119      72.4426      1.278     2.13     4.397648     20.44868     49.59767         6     0.703     0.551  49.35   0
       287    837.8093    231.7490 300.3558813 +22.6843305     625.1424     72.47953      1.310     2.61     4.277617     20.44868     78.89569         9     0.861     0.645 -77.83   0
       288    427.8324    231.3730 300.2283202 +22.5614359     477.3145     72.47953      1.581     3.75     4.875124     20.44868     66.23119         9     1.087     0.615  64.07   0
       289    928.4318    225.1353 300.3862810 +22.7095552     330.0026     72.47953      1.460     3.69     4.456558     20.44868     41.16804         7     0.945     0.638  63.53   0
       290    935.9299    220.9321 300.3899828 +22.7105903     2110.435      72.5349      1.381     2.60     4.476662     20.44868     267.4892        27     1.135     1.115  74.87   0
       291    354.3849    218.1546 300.2097575 +22.5356303     2131.094     72.49799      1.386     2.60     4.880745     20.44868      227.462        23     1.108     1.036 -84.99   0
       292    432.1698    213.3566 300.2355141 +22.5575583     872.7051     72.51644      1.416     3.01      4.87011     20.44868     90.55766        14     1.010     0.849 -69.45   0
       293    834.3430    212.5920 300.3610154 +22.6777830     554.6045     72.46107      1.267     2.44      4.28337     20.44868     74.94193        10     0.832     0.752  -7.64   0
       294    184.0778    213.5308 300.1583007 +22.4832604        329.9     72.59022      1.193     3.52        4.912     20.44868     44.30268         6     0.785     0.495   5.86   0
       295    590.7531    212.2517 300.2852357 +22.6047456     163.7837     72.51645      1.290     3.89     4.826149     20.44868     27.40983         5     0.916     0.474 -45.11   0
       296    941.6797    209.7371 300.3954075 +22.7090906     414.9443     72.59022      1.253     4.89     4.513393     20.44868     56.40302        10     1.168     0.849  16.21   0
       297    249.1602    205.3208 300.1811962 +22.5004095     757.8908     72.46107      1.305     2.82     4.903731     20.44868     94.37181        14     1.045     0.796  52.59   0
       298     30.7082    206.5982 300.1128929 +22.4352903     440.0897     72.38717      1.756     3.29     5.025619     20.44868     40.29321         5     0.912     0.489   3.01   0
       299    367.1768    204.7872 300.2180727 +22.5356226     265.6994     72.47953      1.210     4.17      4.89224     20.44868     42.45656         8     0.969     0.640  60.47   0
       300    786.9975    202.0778 300.3496693 +22.6605851     1798.471     72.38717      1.415     2.52     4.267998     20.44868     227.4283        23     1.204     0.994  82.82   0
       301    851.9731    201.9814 300.3699530 +22.6800088      577.425     72.49799      1.294     1.99     4.304116     20.44868     101.3457         7     0.805     0.505  49.49   0
       302    270.5217    198.1277 300.1901714 +22.5047452     626.7509     72.59022      1.669     5.10     4.907904     20.44868     62.98061        14     1.266     0.925  61.22   0
       303    791.0480    193.7773 300.3536241 +22.6594105     777.0823     72.49799      1.492     2.58     4.272474     20.44868     105.0276        12     0.965     0.771  62.26   0
       304    711.4225    192.9973 300.3290656 +22.6353463     1329.598     72.42413      1.376     2.63     4.430907     20.44868     159.1477        17     1.007     0.876  67.68   0
       305    532.6744    189.2285 300.2746210 +22.5807318     385.6545     72.49799      1.450     2.90     4.884084     20.44868     37.02348         6     0.718     0.619  35.10   0
       306    637.7204    184.8227 300.3087590 +22.6109262     978.8613     72.42413      1.303     2.29     4.760973     20.44868     153.9122        14     0.987     0.810  33.20   0
       307    918.8846    183.6128 300.3967730 +22.6947526     770.3571     72.42413      1.350     3.55     4.481227     20.44868     122.7785        14     1.134     0.824  77.68   0
       308    906.9256    184.4554 300.3927706 +22.6914157     1385.785     72.51644      1.369     2.59      4.44514     20.44868     203.2159        15     0.986     0.896 -76.36   0
       309      9.2286    173.1884 300.1170564 +22.4192575     407.0062     72.47953      1.539     3.13     4.849982     20.44868     39.51289         6     0.766     0.537  42.11   0
       310     59.6133    170.5580 300.1335605 +22.4336081     509.8254     72.49799      1.602     4.05     4.928064     20.44868     57.41783         8     1.060     0.493  -3.45   0
       311    269.8414    166.8116 300.2001163 +22.4955448     643.2656     72.47953      1.347     3.37     4.938117     20.44868     87.41094        12     0.994     0.836 -85.92   0
       312    152.2565    165.8094 300.1638874 +22.4600159     276.3183     72.46107      1.312     3.66     4.969253     20.44868     36.51739         5     0.894     0.431 -43.30   0
       313    131.6713    161.7161 300.1588174 +22.4526700     2289.383     72.59022      1.532     2.98     4.972671     20.44868     257.0866        23     1.131     1.061  88.64   0
       314     81.3075    158.7309 300.1441358 +22.4367154     564.1464     72.60865      1.743     5.28     4.945432     20.44868     53.82088        11     1.361     0.662 -39.12   0
       315    954.8846    158.6096 300.4161092 +22.6983328     760.2653     72.42413      1.402     3.29      4.72521     20.44868     93.08235        12     1.015     0.853 -54.98   0
       316    289.0330    154.9751 300.2099227 +22.4978951     5583.764     72.46107      1.441     2.70     4.949053     20.44868     661.8663        32     1.268     1.040  58.41   0
       317    270.8215    156.1599 300.2038753 +22.4927783     275.7564     72.51644      1.137     3.38     4.942416     20.44868     42.50076         6     0.750     0.568 -48.60   0
       318     34.7404    150.5664 300.1323166 +22.4204106     256.3107     72.51644      1.603     4.50     4.970252     20.44868     33.80193         6     1.197     0.481  45.93   0
       319     73.3620    149.3117 300.1447216 +22.4316286     1327.215     72.46107      1.555     3.29     4.978157     20.44868     142.0594        17     1.182     0.892  58.26   0
       320    272.4955    145.5725 300.2078291 +22.4902381     657.3172     72.38717      1.702     2.68     4.938938     20.44868     70.69464        10     0.923     0.731  24.14   0
       321    933.1290    136.5975 300.4164630 +22.6854888     3650.918     72.42413      1.485     2.64      4.71644     20.44868     487.6173        31     1.232     1.086 -74.05   0
       322    482.4164    131.7930 300.2776035 +22.5491686     602.8279     72.40565      1.271     2.85     4.767671     20.44868     79.08814        11     0.892     0.838  66.14   0
       323    235.6634    132.5802 300.2005897 +22.4754682     240.9963     72.46107      1.132     3.20     4.920108     20.44868     42.39804         5     0.713     0.471  16.05   0
       324    596.7801    129.7793 300.3138600 +22.5828403     349.7175     72.47953      1.334     2.64     4.905599     20.44868     41.66922         6     0.726     0.560  40.00   0
       325    406.9023    123.6303 300.2567510 +22.5242026      613.927     72.42413      1.731     2.03     4.621414     20.44868      74.6078         7     0.696     0.614   2.27   0
       326    173.0478    120.7194 300.1849704 +22.4532959     512.5591     72.49799      1.429     3.68     4.927125     20.44868     58.56377        11     1.004     0.866  11.01   0
       327    533.9861    119.0134 300.2977998 +22.5609402     1690.582     72.40565      1.368     2.68     4.876066     20.44868      223.374        19     1.125     0.901  49.00   0
       328    462.0072    119.7119 300.2751689 +22.5395828     534.4096     72.38717      1.362     2.95     4.675835     20.44868     73.69353         9     0.925     0.652  52.26   0
       329     70.5324    119.2135 300.1536017 +22.4221365     284.0767     72.49799      1.507     5.73     5.128864     20.44868     42.03805         7     1.171     0.788  66.61   0
       330    357.9929    115.2012 300.2442680 +22.5071281     272.7714     72.29468      0.999     3.90     4.871006     20.44868     31.36998         6     1.479     0.294  60.32   0
       331    277.6962    114.3164 300.2195810 +22.4828161     347.4769     72.64549      1.256     3.17     4.928825     20.44868     58.10177         7     0.930     0.549  70.18   0
       332    822.3188    108.7467 300.3909462 +22.6443130     267.6742     72.49799      1.129     1.93     4.684066     20.44868     64.84238         5     0.658     0.461 -81.62   0
       333    968.4094    102.9131 300.4383888 +22.6863532     390.5396     72.40565      1.610     4.76      5.00256     20.44868     32.29003         8     0.953     0.674  35.96   0
       334    308.0237     98.9423 300.2339970 +22.4874852     5982.437     72.47953      1.428     2.53     4.917706     20.44868     753.4269        34     1.266     1.071  75.73   0
       335    814.3956     99.7583 300.3913910 +22.6393558     413.1605     72.49799      1.181     2.64     4.735103     20.44868     57.06574         7     0.791     0.610  64.13   0
       336    159.3158     98.7811 300.1878151 +22.4428784     720.4124     72.40565      1.511     2.76      4.90907     20.44868     72.92658        12     0.936     0.800 -22.10   0
       337    937.2324     96.4220 300.4307700 +22.6751565      262.123     72.47953      1.207     2.47     4.969717     20.44868     48.12038         5     0.682     0.489   8.42   0
       338      2.5814     95.0326 300.1403330 +22.3948225     734.9008     63.04033      1.771     5.13     6.007997     20.44868      66.5639        18     1.220     1.152  46.37  24
       339    279.8464     93.0134 300.2271564 +22.4773392     339.6613     72.47953      1.273     4.87     4.910082     20.44868     50.73576         9     0.963     0.768  24.82   0
       340    323.2842     90.1892 300.2415811 +22.4895418     203.7647      72.4426      1.122     2.53     4.864223     20.44868     49.86253         6     0.722     0.575  36.91   0
       341     69.8660     88.9270 300.1632136 +22.4132383     350.1467     72.51644      1.330     4.66     5.253605     20.44868     38.79227         7     0.998     0.617 -71.74   0
       342    554.0928     84.2645 300.3153259 +22.5569710     6140.407     72.59022      1.353     2.44     4.872049     20.44868       823.66        35     1.228     1.028  67.03   0
       343    439.7042     84.0299 300.2797970 +22.5226459     573.6036     72.42413      1.240     2.89     4.398404     20.44868     92.65491         8     0.841     0.654  73.05   0
       344    611.1443     79.0175 300.3347916 +22.5725453      269.697     72.46107      1.235     2.37      4.96369     20.44868     51.09933         5     0.762     0.469 -23.91   0
       345    806.5041     74.5779 300.3970952 +22.6297499     883.1406     72.38717      1.763     4.87     4.947922     20.44868     95.38464        17     1.698     0.796 -70.71   0
       346    898.9719     72.8050 300.4264963 +22.6569120      147.428      72.4426      0.443     2.60     4.895179     20.44868     76.62582         8     0.841     0.747  25.54   0
       347    246.9067     68.1597 300.2249710 +22.4603282      600.951     72.49799      1.515     3.23     4.873328     20.44868     56.06574        10     0.909     0.720  -5.79   0
       348    682.4550     64.3798 300.3617479 +22.5896852     6220.154     72.46107      1.350     2.40     5.071656     20.44868     753.2545        38     1.247     1.101  78.61   0
       349    605.7090     66.7800 300.3370663 +22.5673989     430.6977     72.40565      1.297     2.30     4.991557     20.44868      76.2232         9     0.810     0.694 -71.99   0
       350    457.2539     63.3233 300.2919712 +22.5219498     1426.287     72.51644      1.305     2.41     4.384325     20.44868     172.6431        16     1.023     0.827  45.73   0
       351    723.5731     61.8116 300.3753905 +22.6012551     908.6487     72.47953      1.386     2.36      5.13618     20.44868     124.0305        11     0.867     0.767  -4.63   0
       352    739.4834     58.0309 300.3815734 +22.6049300     498.7654     72.49799      1.227     2.32      5.18393     20.44868     76.34789         8     0.732     0.678  33.72   0
       353     53.1798     56.6730 300.1684850 +22.3989729     307.5797     72.49799      1.377     4.19     5.470971     20.44868     38.59774         5     1.009     0.513 -36.62   0
       354   1009.3736     55.4304 300.4665611 +22.6849434      596.503     72.47953      1.606     4.27     5.107314     20.44868     66.46426        13     1.179     0.893  54.10   0
       355    206.4815     55.6704 300.2164513 +22.4446270     598.0476     72.59022      1.422     3.43     4.902842     20.44868     77.29877        14     1.150     0.909 -49.59   0
       356    778.0137     53.4110 300.3950778 +22.6151335     425.1282     72.38717      1.159     2.41     5.198942     20.44868     61.84621         7     0.712     0.632 -18.97   0
       357    726.6693     49.3497 300.3803949 +22.5985972     2624.054     72.47953      1.285     2.32     5.239207     20.44868     388.9515        23     1.126     0.935  74.43   0
       358    367.3129     50.1418 300.2682589 +22.4912217     359.8735     72.55334      1.105     2.42     4.407931     20.44868     60.16478         7     0.707     0.642 -75.64   0
       359    741.8515     48.0855 300.3855353 +22.6027779     976.7871     72.49799      1.685     5.33     5.264772     20.44868     93.87901        15     1.499     0.772  45.19   0
       360     20.2387     43.4078 300.1625517 +22.3852893     783.9352     72.49799      1.540     3.86     5.882892     20.44868      85.5732        14     1.085     0.983  45.33   0
       361    813.0955     40.7502 300.4101158 +22.6219903     1549.004      72.5349      1.449     2.70     5.224206     20.44868      213.297        20     1.168     0.929  59.16   0
       362    890.8478     35.7625 300.4359714 +22.6438218     342.8327     72.49799      1.321     3.17     4.865955     20.44868     41.63305         6     0.752     0.555  42.16   0
       363    556.7023     33.3913 300.3326298 +22.5431243     1191.393     72.35019      1.500     2.79     4.760539     20.44868     133.6709        18     1.073     0.948  59.66   0
       364    751.1969     34.0046 300.3930117 +22.6015244     703.9197     72.29468      1.299     2.51     5.381171     20.44868     106.4473        11     0.877     0.775  26.87   0
       365    129.7610     33.2849 300.1998607 +22.4152059      645.363     72.46107      1.626     3.02     4.923466     20.44868     86.29213         9     0.996     0.689 -39.19   0
       366    460.7337     31.4282 300.3033928 +22.5138225      902.919     72.46107      1.539     3.02     4.244603     20.44868     90.66467        16     1.041     0.934 -32.72   0
       367    842.9890     30.3024 300.4228206 +22.6279299     362.6953     72.36868      1.282     3.04       5.0555     20.44868     60.90136         6     0.848     0.558  54.06   0
       368    290.6208   1018.3542 299.9299312 +22.7461879     1397.513      72.5349      2.897     6.41     69.04645     20.44868     69.90375        22     1.557     1.334  89.90  18
       369    799.9591     21.9356 300.4121200 +22.6126458     608.1441      72.4426      1.358     4.31     5.502903     20.44868     89.72636         8     1.210     0.533  55.31   0
       370     24.3677     21.5818 300.1709082 +22.3802580     325.6852     72.46107      1.377     4.61     5.859861     20.44868     41.33842         6     1.088     0.606  24.42   0
       371    557.5774     18.2629 300.3378056 +22.5390359     379.3524     72.46107      1.357     4.70     4.734814     20.44868      56.1517         7     1.252     0.500  50.84   0
       372    547.2586   1017.9702 300.0098964 +22.8230994     407.5984     72.49799      2.194     5.46     2.683034     20.44868     38.44007         6     1.279     0.658  74.17  16
       373    416.4836   1015.9692 299.9698522 +22.7832825     627.7316     72.49799      1.982     5.08     3.593158     20.44868     36.61821         9     1.152     0.633  85.57   2
       374    758.8653     13.5141 300.4020428 +22.5979246      310.871     72.57178      1.518     2.43     5.559023     20.44868     44.71654         5     0.722     0.459  20.68   0
       375     15.7354    976.9743 299.8579796 +22.6517875     578.9467     72.46107      2.342     4.37    0.6289545     20.44868     36.66043         7     0.803     0.677  74.89   0
       376    607.7221   1009.1223 300.0315996 +22.8387009     2323.115     72.60865      1.834     4.33     3.733999     20.44868     153.0521        29     1.356     1.281  15.76   0
       377    694.1989   1004.4886 300.0600382 +22.8633116     8201.337     72.38717      1.906     4.21     3.761356     20.44868     518.0147        47     1.543     1.391  38.50   3
       378    699.6846   1002.1976 300.0624926 +22.8642995     9618.455     72.40565      1.973     4.30      3.76059     20.44868     518.9814        56     1.579     1.503  58.67   3
