#   1 NUMBER                 Running object number                                     
#   2 X_IMAGE                Object position along x                                    [pixel]
#   3 Y_IMAGE                Object position along y                                    [pixel]
#   4 ALPHA_J2000            Right ascension of barycenter (J2000)                      [deg]
#   5 DELTA_J2000            Declination of barycenter (J2000)                          [deg]
#   6 FLUX_APER              Flux vector within fixed circular aperture(s)              [count]
#   7 FLUXERR_APER           RMS error vector for aperture flux(es)                     [count]
#   8 FLUX_RADIUS            Fraction-of-light radii                                    [pixel]
#   9 FWHM_IMAGE             FWHM assuming a gaussian core                              [pixel]
#  10 BACKGROUND             Background at centroid position                            [count]
#  11 THRESHOLD              Detection threshold above background                       [count]
#  12 FLUX_MAX               Peak flux above background                                 [count]
#  13 ISOAREA_IMAGE          Isophotal area above Analysis threshold                    [pixel**2]
#  14 A_IMAGE                Profile RMS along major axis                               [pixel]
#  15 B_IMAGE                Profile RMS along minor axis                               [pixel]
#  16 THETA_IMAGE            Position angle (CCW/x)                                     [deg]
#  17 FLAGS                  Extraction flags                                          
         1    714.1851     19.2759 300.3929610 +22.6015200     625.3854     72.42641      1.269     4.06     5.843237     20.42849     85.84961        12     1.190     0.769 -78.00   0
         2    763.1124      7.3899 300.4120630 +22.6127383     512.3591     72.35262      1.200     2.70     5.986183     20.42849     84.89736        10     0.955     0.679 -34.93   0
         3    194.9636      6.4579 300.2354678 +22.4424011     3896.257     72.40797      1.684     3.42     5.452918     20.42849       400.46        36     1.462     1.185  52.43  16
         4    617.8343      4.0064 300.3678844 +22.5682959      290.153     68.98904      1.333     4.17     6.048544     20.42849      45.8264         7     1.011     0.528 -55.83  16
         5    520.4617      4.1483 300.3375089 +22.5391947     390.1717     69.43282      1.333     4.01     5.001753     20.42849     45.03577         7     1.023     0.530  45.83  16
         6    379.1354   1001.1966 299.9698241 +22.7832370     326.3327     72.40797      1.445     5.55     4.671749     20.42849     35.68024        10     1.193     0.777 -35.21   0
         7    271.5856   1017.7764 299.9309727 +22.7557210     2738.539     72.40797      6.872    37.89     35.22467     20.42849     64.08707       242     7.907     5.038  68.17  27
         8    224.3787    988.6906 299.9257543 +22.7332126     4270.973     72.33416      8.629    38.56     66.99933     20.42849     81.62421       390     8.751     4.716 -84.46  19
         9    244.4636    987.9526 299.9322400 +22.7390285     5927.706     72.42641     11.802    46.34     49.78828     20.42849     110.1478       735    10.023     7.400 -75.07  19
        10    261.9980    977.2689 299.9411683 +22.7412263     9118.521     72.37107     12.800    40.46     29.69591     20.42849     176.6889      1073    13.743     5.595  67.38  19
        11    521.8496    978.5508 300.0216124 +22.8195501     343.2747     72.44485      1.611     3.84     4.338426     20.42849     37.38598         5     0.955     0.672  77.90   0
        12      3.8587   1022.4728 299.8462274 +22.6767014     1769.431     58.85674      4.048    14.51    -33.80896     20.42849     65.15787        49     4.098     1.430 -12.09  27
        13    139.0052    974.0106 299.9039874 +22.7033799     1047.008     72.26027      6.816     9.16     60.43677     20.42849     43.70471        17     2.379     0.985 -74.38   1
        14    950.1745    973.8489 300.1566311 +22.9466084     664.5887     72.42641      2.088     7.65     4.092358     20.42849      44.8103        16     1.541     1.114  12.02   0
        15    102.9136    952.0423 299.8999149 +22.6862479     5454.783     72.37107     26.943   109.30     33.50261     20.42849       1298.9      3318    22.415    14.789 -83.12  19
        16    187.9391    969.6696 299.9206114 +22.7168219      657.986     72.44485      2.250     6.94     56.23359     20.42849     36.64158        10     1.546     0.873   7.34   0
        17    167.9966    958.5917 299.9180146 +22.7076600     1480.518      72.2233      3.774    11.05     50.69608     20.42849     44.05166        33     2.091     1.629  34.37   2
        18    153.3701    959.7880 299.9130786 +22.7036132     1065.184     72.40797      5.978    10.12     51.25014     20.42849     38.68892        19     2.042     1.399  60.00   3
        19    149.0612    961.7582 299.9110984 +22.7028849     797.1264     72.38953      4.173     5.05     52.11443     20.42849     37.51793         5     1.152     0.632  78.08   3
        20    148.9895    954.6580 299.9133854 +22.7008274     1230.723     72.37107      9.817     9.68     46.19085     20.42849     40.72378        17     2.235     1.169  29.57   3
        21    141.5222    950.8570 299.9123005 +22.6974963       1432.6     72.44485      3.526     3.43     41.24955     20.42849     43.37098         5     1.024     0.331 -47.19   2
        22    570.4641    994.5621 300.0315420 +22.8387252     2271.773     72.38953      1.948     4.42     4.101647     20.42849     136.4741        32     1.431     1.327  -4.85   0
        23    656.9938    989.7648 300.0600554 +22.8632965       8595.5     72.40797      2.030     5.25     3.741895     20.42849     509.9437        49     1.596     1.480  16.03   3
        24      3.6434   1000.8570 299.8531924 +22.6704411     2645.507     67.67968     11.988    41.95    -25.42269     20.42849     61.71489       356     7.555     6.464 -38.78  27
        25    266.3950    950.5009 299.9512425 +22.7348681     716.6856     72.29723      2.077     5.92     16.85952     20.42849     50.34683        14     1.352     1.032  38.66   0
        26    187.5941    951.1832 299.9265168 +22.7114169     643.8766     72.35262      3.053     5.01     39.83588     20.42849      30.9609         5     1.119     0.634 -27.99   0
        27    662.5576    987.5131 300.0625213 +22.8643184     9483.269     72.40797      1.979     4.84     3.744524     20.42849     508.3095        51     1.616     1.490  20.31   3
        28    583.9336    947.4344 300.0510673 +22.8292383     1537.027     72.40797      1.834     4.49     3.907568     20.42849     100.6528        26     1.338     1.236 -43.13   0
        29    477.5663    944.0233 300.0190567 +22.7963599     903.4612     72.42641      1.674     4.67     4.497807     20.42849     75.01515        21     1.234     1.209 -45.82   0
        30    408.2271    941.8760 299.9981729 +22.7749455     6610.445     72.40797      1.866     4.18     4.579667     20.42849     521.7961        40     1.451     1.353  16.58   0
        31    675.3200    956.8900 300.0764594 +22.8593541     7100.849     72.53696      1.939     4.26     3.795063     20.42849     415.3208        46     1.495     1.446  17.36   0
        32    441.3150    929.1736 300.0126022 +22.7812256     485.3612     72.38953      1.581     4.37     4.533348     20.42849     50.32262         7     0.916     0.594 -51.84   0
        33    127.6491   1019.1819 299.8857635 +22.7129226     5687.183     72.44485      6.898    33.11     98.10808     20.42849     108.4013       367     6.886     4.420  16.52  27
        34    955.5804    920.9590 300.1755218 +22.9330350     1549.611     72.44485      1.801     5.92     4.097379     20.42849     110.3829        20     1.582     0.946  72.73   3
        35    953.0000    921.0326 300.1746929 +22.9322830     1113.293     72.35262      1.464     4.68     4.098456     20.42849     100.9542        11     1.322     0.621  81.63   3
        36    604.6367    918.3917 300.0669614 +22.8271095     428.2319     72.40797      1.851     6.23     3.860075     20.42849     36.13929        10     1.234     0.884 -61.69   0
        37    637.4097    915.2918 300.0781784 +22.8360458      354.713     72.35262      1.626     3.90      3.86503     20.42849     36.79312         6     0.957     0.454   0.87   0
        38    743.3054    909.5150 300.1130537 +22.8661326     714.7491     72.59216      1.834     5.30      4.12768     20.42849     54.33974        14     1.357     0.871  66.46   0
        39    777.9868    903.8561 300.1257040 +22.8749027     1086.276     72.38953      1.864     5.14     4.354365     20.42849     68.42013        23     1.411     1.170  78.04   0
        40    555.9194    904.3524 300.0563545 +22.8084717     327.6899     72.42641      1.665     4.00     4.039016     20.42849     29.37913         6     1.050     0.435  11.89   0
        41    106.7026   1020.9326 299.8786838 +22.7071366     6138.441     69.22093      8.334    31.26     97.70219     20.42849     134.3802       366     7.123     5.723  55.39  27
        42    800.4876    897.5607 300.1347655 +22.8798385     11443.66     72.38953      1.840     4.14     4.501235     20.42849     735.9767        52     1.500     1.405 -22.43   0
        43    991.7830    897.7603 300.1943614 +22.9372164      636.519     72.42641      2.566     5.01     3.990123     20.42849     42.78514         9     1.324     0.778 -60.92   0
        44    845.6641    897.0784 300.1490074 +22.8932389     318.0575     72.50013      1.561     4.60     4.249058     20.42849     35.62774         6     0.840     0.717  81.90   0
        45     98.9222    921.1574 299.9087186 +22.6761941      4484.79     72.38953     21.742    67.80     10.51294     20.42849     84.96291      1353    15.934     8.298 -25.03   3
        46      5.3123    975.6903 299.8618969 +22.6637283     2156.784     72.38953     14.889    25.73    -14.68581     20.42849     50.41647       101     5.194     3.538  57.73  27
        47    231.3916    893.8231 299.9587887 +22.7081078     842.5421     72.40797      6.736     6.58     8.603786     20.42849     30.82065         8     1.715     0.709  58.33   0
        48    111.7930    889.0056 299.9231737 +22.6708371     1016.967     72.26027      5.266     6.39     9.309885     20.42849     55.39132        18     1.456     1.185  77.39   0
        49    506.1963    885.7142 300.0469327 +22.7882117     575.2321     72.33416      2.355     6.33     4.353556     20.42849     37.96136         8     1.345     0.836  39.20   2
        50      3.3445   1016.5280 299.8480017 +22.6748430     3141.458     66.40485      8.381    35.70    -33.15355     20.42849     67.31878       236     8.977     3.941   0.29  27
        51    852.6345    885.2294 300.1550342 +22.8919242     361.9603     72.42641      1.717     3.46     4.178172     20.42849     28.46335         5     0.768     0.451 -74.23   0
        52    757.4095    990.2361 300.0911929 +22.8935383     611.0587     72.40797      2.084     7.89     4.104145     20.42849     39.83741        16     1.457     1.196 -14.89   0
        53    809.0980    879.7176 300.1432524 +22.8772943      1503.75     72.57377      1.806     4.29     4.462697     20.42849     106.7178        25     1.357     1.181 -11.14   0
        54    191.2347    981.3223 299.9178457 +22.7211526     1756.129     72.37107      3.746    13.16     65.22459     20.42849     49.75924        41     2.478     1.944 -60.61   2
        55    990.9644    878.3738 300.2004106 +22.9314009     380.9801     72.42641      1.816     4.56     3.910381     20.42849     31.14635         6     0.906     0.652 -34.96   0
        56    662.3202    876.8986 300.0984244 +22.8324908     482.1819     72.53696      1.887     3.90      4.00883     20.42849     40.00107         6     1.037     0.419  77.52   2
        57    846.8416    873.0319 300.1571944 +22.8866847     926.8903     72.46328      2.170     5.64     4.190611     20.42849     62.32223        16     1.304     0.972 -49.11   0
        58    955.8532    870.7460 300.1919369 +22.9186906     318.3565     72.44485      1.573     5.34      3.97306     20.42849     33.52322         6     1.059     0.761  15.52   0
        59    895.5679    864.4578 300.1751775 +22.8988221     633.1672     72.42641      2.151     6.97     4.044064     20.42849     46.17654        14     1.298     1.048   5.43   0
        60    747.1456    863.4375 300.1292345 +22.8540514     727.6838     72.40797      1.853     4.71     4.149732     20.42849     45.84864        14     1.163     0.925 -14.08   0
        61    459.3505    859.6533 300.0408228 +22.7666835     4250.525     72.44485      1.735     3.73     4.556619     20.42849     353.9715        37     1.386     1.306  21.37   0
        62    758.3350    860.4158 300.1337047 +22.8565371     524.0361     72.38953      1.633     4.85     4.239827     20.42849     48.43972        15     1.200     0.891  33.62   0
        63    238.1439    848.8066 299.9755250 +22.6972201     336.6226     72.38953      1.493     3.75     5.686948     20.42849      38.3123         5     0.921     0.438 -46.43   0
        64    503.2101    847.9760 300.0582735 +22.7764840     315.8763     72.40797      1.472     4.97     4.463302     20.42849     31.09161         8     1.188     0.588  46.29   0
        65    185.0948    845.2271 299.9601934 +22.6802770     950.9731     72.33416      1.850     4.04     6.561033     20.42849     78.09811        14     1.193     0.796 -10.29   0
        66    161.7800    842.1584 299.9539426 +22.6724012     1654.165     72.44485      1.899     4.25     6.868588     20.42849     140.7484        28     1.425     1.357  78.10   0
        67    987.9985    830.1311 300.2151718 +22.9166500     2151.424     72.35262      1.866     4.46     3.892269     20.42849     137.0607        28     1.361     1.275 -21.98   0
        68    693.4458    830.5329 300.1231980 +22.8285067     401.0356     72.40797      1.651     5.81     4.262886     20.42849     36.40347         8     1.124     0.846 -71.94   0
        69    771.4848    823.8851 300.1496807 +22.8499858     634.6526     72.53696      1.699     5.95      4.44155     20.42849     56.87983        12     1.085     0.917   2.07   0
        70    193.9696    824.1292 299.9698113 +22.6768876     359.8316     72.40797      1.418     5.04     5.651923     20.42849     39.59665         8     1.140     0.631 -27.08   0
        71    639.5060    817.7679 300.1105420 +22.8086731     4815.731     72.33416      1.683     3.54      4.30243     20.42849     401.9652        36     1.298     1.269  37.77   0
        72    129.7474    818.4913 299.9516787 +22.6560011     364.8957     72.46328      1.592     5.58     5.574667     20.42849     43.93621         7     1.022     0.858 -60.97   0
        73    441.7661    814.6876 300.0499678 +22.7485042     485.3253     72.37107      1.402     4.31     4.759657     20.42849     57.55581        13     1.126     0.887 -64.70   0
        74    189.6072    811.4347 299.9725814 +22.6719371     1383.421     72.40797      1.802     4.09     5.239379     20.42849     116.8588        20     1.205     1.166 -65.75   0
        75    660.1066    810.5613 300.1193027 +22.8127786      671.945     72.42641      1.641     3.93     4.348634     20.42849       65.019        16     1.255     0.983  73.37   0
        76    209.0083    808.1335 299.9796868 +22.6768106     397.0916     72.40797      1.662     6.18     4.930624     20.42849     45.38866        10     1.445     0.743  71.31   0
        77    815.5703    797.6313 300.1719589 +22.8556547     4209.874     72.40797      1.707     3.80     4.522308     20.42849     324.0749        37     1.338     1.272  -9.14   0
        78    223.9352    791.6778 299.9896771 +22.6765674     437.9966     72.50013      1.451     5.21     4.573104     20.42849     55.36416         9     1.024     0.798  13.61   0
        79    532.4930    789.9069 300.0862685 +22.7685935     482.0607     72.57377      1.525     5.80     4.560213     20.42849     57.93064        13     1.318     0.747 -33.02   0
        80    179.1558    787.7266 299.9770379 +22.6620001      1043.64     72.38953      1.727     4.23     4.955138     20.42849     96.91103        19     1.263     1.104  49.12   0
        81    594.0706    783.4977 300.1075288 +22.7852129     560.7501     72.53696      1.424     4.74     4.511746     20.42849      71.0939        10     0.962     0.877  21.91   0
        82    328.5764    780.0167 300.0260145 +22.7046085     54090.43     72.40797      1.688     3.46     4.738678     20.42849     4898.753        97     1.480     1.440  11.10   0
        83    586.3239    779.2642 300.1064920 +22.7816751     1673.158      72.4817      1.637     3.37     4.543411     20.42849     148.9713        23     1.161     1.141 -73.63   0
        84    999.3730    778.8024 300.2354074 +22.9053060      984.729     72.35262      1.855     4.91     4.303091     20.42849     66.60126        18     1.204     1.178  75.64   0
        85    256.7842    778.3287 300.0042315 +22.6825910     611.5457     72.40797      1.820     5.54     4.564464     20.42849     54.84173        11     1.113     0.777 -15.75   0
        86    302.5088    778.1019 300.0185275 +22.6962407     289.5011     72.59216      1.719     4.96      4.62564     20.42849     37.99808         6     0.988     0.705 -35.81   0
        87    615.3690    775.0793 300.1168993 +22.7891797     873.6411     72.40797      1.542     3.72     4.538372     20.42849     82.75948        16     1.105     0.958 -58.86   0
        88     14.7972    774.4836 299.9302607 +22.6088852     921.2227     72.33416      2.019     6.09     4.587262     20.42849     51.81458        19     1.443     1.177 -32.62   0
        89    626.1260    773.4573 300.1207773 +22.7919382     518.0653     72.44485      1.505     4.21     4.539375     20.42849     63.77121        10     1.156     0.736  27.49   0
        90    946.3044    770.6666 300.2214951 +22.8870727     330.9232     72.53696      1.610     5.39     4.792694     20.42849     42.02752         8     1.025     0.799  43.25   0
        91    731.6095    770.0360 300.1547568 +22.8225689     409.8638     72.40797      1.464     5.08     4.545147     20.42849     40.38757        10     1.068     0.683  27.26   0
        92    769.4261    760.1348 300.1697618 +22.8310565      823.222     72.38953      1.609     3.79     4.565166     20.42849     68.50576        16     1.141     0.943  42.67   0
        93    378.2809    757.2759 300.0488706 +22.7129878     31767.54     72.51855      1.640     3.12     4.859411     20.42849      3063.64        70     1.377     1.361  58.56   0
        94    392.5913    757.7021 300.0531853 +22.7174014     1890.717     72.27876      1.621     3.26     4.862134     20.42849     199.6012        25     1.258     1.109  75.25   0
        95    901.5094    753.3420 300.2131535 +22.8686762     2960.092     72.46328      1.744     3.74     4.811619     20.42849     232.5634        31     1.337     1.256 -30.66   0
        96    389.3167    752.0734 300.0539956 +22.7148038     600.9803     72.53696      1.541     3.75     4.865114     20.42849      68.3001        11     1.222     0.616 -16.88   0
        97    880.2506    750.2117 300.2075408 +22.8614085      231.313     72.44485      1.320     4.86     4.635464     20.42849     37.32021         7     0.974     0.820  72.63   0
        98    659.4675    749.3826 300.1389892 +22.7950170     962.0837     72.40797      1.548     3.18     4.603046     20.42849      99.0131        15     1.030     0.915 -18.37   0
        99    260.8105    749.1898 300.0149536 +22.6754372      963.986     72.29723      1.829     4.46     4.564464     20.42849     78.54171        19     1.337     1.106 -31.62   0
       100    495.3252    749.3583 300.0878748 +22.7458089     359.6652     72.38953      1.379     4.44     4.947684     20.42849     45.49353         8     0.934     0.647  22.95   0
       101    553.4553    747.4944 300.1065810 +22.7626998     354.4139     72.46328      1.372     4.22     4.822814     20.42849     33.75243         5     1.179     0.431  35.30   0
       102     65.7408    744.8380 299.9557236 +22.6156691     585.6481     72.42641      1.888     3.90     4.947476     20.42849     63.26573         6     1.067     0.526 -17.38   0
       103    506.4628    744.0429 300.0930699 +22.7476217     798.6636     72.40797      1.494     3.56     4.948352     20.42849     84.35222        13     1.086     0.789  21.03   0
       104    907.7166    741.2747 300.2190115 +22.8670677     467.5665     72.50013      1.591     4.94     4.926787     20.42849     48.29128         8     1.087     0.636   6.96   0
       105    408.3355    740.4456 300.0636931 +22.7171689     267.5892     72.42641      1.264     3.02     4.878787     20.42849     36.00799         5     0.778     0.676 -49.54   0
       106    364.8111    739.6338 300.0504125 +22.7038848     315.0638     72.38953      1.442     3.30     4.865328     20.42849     48.89811         7     0.970     0.630  70.95   0
       107    452.4484    739.4697 300.0777404 +22.7301151     355.8676     72.38953      1.543     3.79     4.958134     20.42849     40.31164         6     0.995     0.414 -17.91   0
       108     94.5464    738.3611 299.9667802 +22.6224540     614.8641     72.40797      1.755     3.36     4.988394     20.42849     67.91609         5     0.774     0.438  68.19   0
       109    886.1761    736.1463 300.2139601 +22.8591417     471.0171     72.42641      1.926     4.49     4.725459     20.42849     47.84943         7     1.063     0.657  64.57   2
       110    258.4857    733.2762 300.0194019 +22.6701733     624.8364     72.51855      1.624     3.45     4.586551     20.42849     65.23688        10     1.081     0.654  20.61   0
       111    581.5657    724.1800 300.1229122 +22.7644307       540.37     72.42641      1.906     5.81     4.906099     20.42849      35.7997        11     1.327     0.717 -21.79   0
       112    551.4883    722.4142 300.1141188 +22.7549084     619.9135     72.35262      1.606     4.64     4.988351     20.42849     54.58196        15     1.162     0.995 -12.28   0
       113    573.4103    719.6750 300.1218361 +22.7606926     1253.853     72.40797      1.464     3.20     4.951693     20.42849     141.4729        16     1.043     0.946  53.58   0
       114    460.9512    721.2652 300.0863030 +22.7274378     385.0347     72.42641      1.427     2.69     5.027987     20.42849     51.05424         7     0.786     0.680  67.23   0
       115    967.8781    718.7108 300.2451115 +22.8786022     4433.701     72.53696      1.696     3.62       5.2579     20.42849     332.8581        37     1.391     1.256 -28.98   0
       116    493.0045    719.0894 300.0969887 +22.7364224     365.0729      72.3157      1.404     4.73      5.07079     20.42849     55.83583         7     0.911     0.697  22.28   0
       117    956.2515    709.9557 300.2443294 +22.8726037     1661.317     72.44485      1.674     4.16      5.25099     20.42849     124.0697        27     1.339     1.263  83.42   0
       118    185.2287    704.5500 300.0059554 +22.6399573     284.0015     72.42641      1.407     4.62     4.933477     20.42849     37.81618         6     0.965     0.629 -66.23   0
       119    319.3161    703.7734 300.0479101 +22.6799491     863.2741     72.38953      1.542     3.35     4.813893     20.42849     98.22016        15     1.027     0.987  17.40   0
       120    987.5316    700.2917 300.2572289 +22.8791936     1683.533     72.53696      1.732     3.93     5.289928     20.42849     135.7606        22     1.308     1.126  66.28   0
       121    782.8805    701.2951 300.1930776 +22.8181831     2706.841     72.51855      1.680     3.39     4.759918     20.42849     227.1609        31     1.467     1.137 -10.92   0
       122      5.1697    691.7217 299.9541617 +22.5822589     910.6493     72.01962      1.937     5.14     4.870391     20.42849     100.7653        16     1.482     0.900   1.49  24
       123    865.2212    687.4336 300.2232547 +22.8388662     638.4474     72.40797      1.814     5.01     4.710679     20.42849     58.27773        12     1.269     0.795  39.52   0
       124    167.8474    687.7556 300.0060078 +22.6299247     660.6635     72.42641      1.688     3.80     5.042574     20.42849     58.31828        13     1.121     0.828 -23.20   0
       125    901.1577    678.2765 300.2374376 +22.8469981     149019.9     72.38953      1.623     3.24     5.049361     20.42849     12757.38       168     1.518     1.495  79.15   0
       126    663.4913    682.3235 300.1620339 +22.7769611     450.4124     72.55537      1.791     4.54     4.977128     20.42849     39.33196         7     0.872     0.672 -16.62   0
       127    753.4881    678.7747 300.1912330 +22.8029068     695.3345     72.35262      1.561     3.70     4.777919     20.42849     68.32349        14     1.098     0.896 -86.97   0
       128    933.5957    670.9288 300.2499430 +22.8546011      374.216     72.35262      1.800     6.50     5.293524     20.42849     39.58934         9     1.446     0.821  75.98   0
       129    587.4059    666.9669 300.1433210 +22.7497495     1580.829     72.40797      1.401     2.93     5.278101     20.42849     182.0488        20     1.120     0.992  56.66   0
       130    768.6177    664.3802 300.2006257 +22.8033035     9474.752     72.40797      1.528     2.94      4.87072     20.42849     978.6625        44     1.250     1.227  69.50   0
       131    270.0084    659.2521 300.0470363 +22.6523841     4968.228     72.40797      1.567     3.17     4.907176     20.42849     492.3256        36     1.309     1.214  45.43   0
       132    352.2570    657.4660 300.0732035 +22.6765336     1145.587     72.46328      1.504     3.19     4.969741     20.42849     122.1388        18     1.088     1.019  41.06   0
       133    227.8188    654.9315 300.0353185 +22.6384919     452.2272     72.40797      1.789     3.96     4.950877     20.42849     49.26347         7     1.082     0.727  -1.56   0
       134    560.3070    652.8821 300.1394567 +22.7375827     756.4258     72.55537      1.509     3.23     5.388585     20.42849     81.47143        14     1.046     0.856  45.32   0
       135    552.0729    645.1778 300.1393952 +22.7329022     3245.191     72.44485      1.371     2.81     5.445831     20.42849     329.0753        25     1.094     1.033  25.08   0
       136    542.3232    638.8884 300.1384021 +22.7281738     1433.716     72.55537      1.362     2.84     5.478587     20.42849     168.5899        18     1.047     0.969  84.88   0
       137    470.8067    638.2114 300.1163545 +22.7065444       297.38     72.27875      1.255     3.59     5.248659     20.42849     42.24765         5     0.916     0.406 -45.46   0
       138    935.8229    636.9380 300.2616808 +22.8454976      488.007     72.38953      1.498     4.44     5.274991     20.42849     49.60229        10     0.976     0.761  64.76   0
       139    205.7141    635.2708 300.0348311 +22.6262201     715.1132     72.51855      1.661     4.39     4.968844     20.42849     69.76529        14     1.165     0.936  51.96   0
       140    219.7320    633.3082 300.0398276 +22.6298607     536.5001     72.53696      1.478     5.03     4.957523     20.42849     61.84864        12     1.055     0.952  76.95   0
       141    989.3965    630.4407 300.2805055 +22.8596717     586.6611     72.42641      1.737     5.59     5.041853     20.42849     46.70465        10     1.013     0.870   0.22   0
       142    467.0370    628.6510 300.1182865 +22.7026691     1752.191     72.42641      1.403     2.72     5.248594     20.42849     198.0405        20     1.063     1.032 -86.80   0
       143    245.6272    630.2603 300.0488706 +22.6367513       469.74     72.42641      1.435     3.33     4.934474     20.42849     74.85964         8     1.112     0.577 -24.71   0
       144    566.4346    628.9833 300.1491285 +22.7325548     360.8831     72.40797      1.331     3.02     5.550778     20.42849      62.5352        10     0.961     0.793 -20.44   0
       145    121.0142    623.4043 300.0123528 +22.5974116     19887.08     72.26027      1.694     3.29      4.98468     20.42849     2114.132        65     1.464     1.379  44.89   0
       146    551.9961    623.8101 300.1463123 +22.7267419     994.1965     72.24179      1.429     3.30     5.587139     20.42849     107.8301        15     1.098     0.918  65.75   0
       147     42.3121    624.9995 299.9873755 +22.5742615     835.8115      72.3157      2.094     3.64     4.952881     20.42849     70.74427        11     1.001     0.851 -23.27   0
       148    587.7027    623.2481 300.1576156 +22.7372808     207.2812     72.44485      0.975     3.25     5.588979     20.42849     47.50982         5     0.814     0.477 -43.53   0
       149    970.1207    610.3079 300.2810312 +22.8481120     1080.133     72.51855      1.682     4.07     5.044979     20.42849     92.51382        14     1.125     0.953 -21.29   0
       150    635.4501    611.6654 300.1762514 +22.7482607     278.8214     72.44485      1.405     3.91      5.56256     20.42849     32.56656         6     0.931     0.470  -3.08   0
       151     67.0783    607.4831 300.0007604 +22.5766649     1658.661     72.51855      2.120     5.03     4.949893     20.42849     125.3446        31     1.679     1.265 -81.16   0
       152    836.7765    608.3267 300.2400843 +22.8076113     415.4129     72.44485      1.457     4.98     4.945853     20.42849     42.05414         9     1.040     0.764 -79.72   0
       153    133.8489    608.1653 300.0212917 +22.5968880     489.8181     72.44485      1.363     2.48      4.94686     20.42849      53.6573         6     0.724     0.560 -45.56   0
       154    515.3002    604.8473 300.1410444 +22.7102980     336.7554     72.42641      1.224     3.05     5.516279     20.42849     48.44012         9     0.889     0.672  23.02   0
       155    308.3489    603.6058 300.0770374 +22.6479067     367.4389     72.38953      1.309     3.12     4.932267     20.42849     56.12189         7     0.877     0.598 -55.30   0
       156    910.2870    603.1069 300.2647049 +22.8281256     822.2994     72.57377      2.128     3.62     5.142931     20.42849     69.93312        11     1.136     0.718  30.44   0
       157    472.3651    596.7849 300.1302953 +22.6951146     566.8911     72.40797      1.262     2.91     5.316093     20.42849     88.70266        12     1.020     0.747  -9.92   0
       158    619.8768    595.5638 300.1766296 +22.7389688     426.1679     72.37107      1.404     4.01     5.600786     20.42849     56.29502        12     1.091     0.874  22.58   0
       159    667.3467    594.2848 300.1918343 +22.7528237     441.6655     72.46328      1.303     2.48     5.449834     20.42849     56.95227         8     0.848     0.609  -3.20   0
       160    637.8152    593.7544 300.1828057 +22.7438236      558.066     72.42641      1.261     2.71     5.538876     20.42849     91.14341        10     0.866     0.805  47.81   0
       161    516.3305    592.7571 300.1452919 +22.7071343     912.8432     72.37107      1.431     2.66     5.501062     20.42849     101.7576        14     0.931     0.872  14.39   0
       162    950.2581    588.3898 300.2819537 +22.8358634     3300.982     72.37107      1.576     3.16     5.090335     20.42849     324.2686        31     1.245     1.194  26.10   0
       163    481.8563    588.0927 300.1360731 +22.6954628     1716.605     72.46328      1.483     3.17     5.362072     20.42849     197.3894        23     1.132     1.056   9.90   0
       164    847.1090    585.4732 300.2507290 +22.8041371     303.0493     72.57377      1.218     4.18     4.912737     20.42849     32.78133         6     1.000     0.499   1.42   0
       165     43.7891    581.5411 300.0019480 +22.5622354     5194.293     72.35262      1.750     3.66     4.968055     20.42849     520.9081        39     1.379     1.336   6.66   0
       166    511.0656    578.8257 300.1481771 +22.7015549     355.2069     72.38953      1.311     5.05     5.461647     20.42849     46.16071         7     1.025     0.703   0.48   0
       167    989.1196    578.2078 300.2973853 +22.8445711     268.9125     72.33416      1.276     4.05     4.907699     20.42849     38.36317         6     0.933     0.731  57.93   0
       168    345.2799    574.8017 300.0978818 +22.6507086     9088.153      72.3157      1.472     2.79     4.972425     20.42849     1115.722        43     1.250     1.186  66.69   0
       169    467.7605    571.8694 300.1369534 +22.6865788     8951.735     72.37107      1.419     2.70     5.338903     20.42849     1176.122        43     1.194     1.182 -23.64   0
       170    232.7873    568.9927 300.0647752 +22.6153145     293.8423     72.29723      1.359     3.79     4.926303     20.42849     31.73977         5     0.814     0.506 -33.16   0
       171    879.5950    565.9542 300.2671990 +22.8082547     1900.758     72.40797      1.558     3.22      4.93019     20.42849     184.3403        25     1.279     1.077 -77.58   0
       172    964.1518    563.4107 300.2944009 +22.8328414     12652.22     72.42641      1.593     3.12     4.962183     20.42849     1241.918        52     1.334     1.310 -65.81   0
       173    528.3178    561.4916 300.1591783 +22.7017458     11760.22     72.55537      1.381     2.50      5.46689     20.42849     1466.353        41     1.179     1.146  74.14   0
       174    698.0599    557.4571 300.2133649 +22.7514425     452.4637      72.4817      1.230     2.72     5.257892     20.42849     67.09721         8     0.887     0.649 -79.68   0
       175    255.7312    556.9175 300.0758321 +22.6187273     1448.763     72.51855      1.573     3.14     4.897685     20.42849     166.4913        20     1.136     1.018  12.71   0
       176    713.6038    556.6733 300.2184635 +22.7558734     303.1819     72.33416      1.634     3.87      5.14684     20.42849     29.67139         5     1.020     0.421  74.44   0
       177    413.8381    555.9322 300.1253441 +22.6658404     174.9684     72.37107      1.271     2.27     5.230775     20.42849     48.51507         5     0.746     0.485 -36.13   0
       178    502.7219    554.8090 300.1533783 +22.6921561     475.0135     72.37107      1.515     3.61     5.420711     20.42849     51.78675         7     0.762     0.653  69.99   0
       179    459.9579    549.6364 300.1417442 +22.6778547     4515.146      72.4817      1.440     2.74     5.354462     20.42849     487.1474        29     1.210     1.070  61.06   0
       180    803.1093    549.8622 300.2485750 +22.7807241     887.5048     72.50013      1.427     3.43     4.955238     20.42849     107.2451        14     1.134     0.842 -38.24   0
       181    438.4358    548.0697 300.1355533 +22.6709546      1169.35     72.40797      1.360     2.59     5.312069     20.42849     142.4146        14     0.936     0.857  46.65   0
       182    192.7177    547.2087 300.0593885 +22.5970466     774.9184     72.35262      1.598     3.18     4.891645     20.42849     77.64432        13     1.023     0.888 -38.11   0
       183    879.7639    545.3561 300.2739408 +22.8023837     1560.911     72.46328      1.550     3.19     4.924514     20.42849       154.53        19     1.088     1.006 -39.91   0
       184    576.6541    537.2335 300.1821087 +22.7092604     203452.3     72.42641      1.393     2.53     5.472898     20.42849     24303.33       194     1.442     1.396 -21.32   0
       185    980.1897    543.6756 300.3058136 +22.8319683     215.1172     72.38953      1.467     3.42     4.903158     20.42849     39.79662         5     1.131     0.299  54.91   0
       186    760.2480    542.2383 300.2376890 +22.7656960     854.5632     72.42641      1.491     3.46     4.986006     20.42849     95.87587        16     1.139     0.944 -84.59   0
       187    400.3062    543.3530 300.1252171 +22.6581720     380.7294     72.42641      1.368     3.71     5.194704     20.42849     46.68326         7     0.929     0.653   8.23   0
       188    853.6115    540.8425 300.2672507 +22.7932550     310.8455     72.40797      1.167     3.73     4.920354     20.42849     37.96956         5     0.880     0.551 -41.47   0
       189    262.6852    537.1251 300.0844215 +22.6151299     3578.912     72.51855      1.522     2.95     4.915606     20.42849     388.5986        32     1.231     1.162  55.74   0
       190    829.6053    538.2071 300.2606208 +22.7853087     347.9276     72.26027      1.421     3.40     4.930385     20.42849     32.84423         5     1.191     0.281  34.94   0
       191    537.5246    537.9323 300.1696955 +22.6977369     209.6047      72.4817      1.717     4.24     5.463843     20.42849     30.48794         5     1.167     0.439 -27.55   0
       192    344.8010    537.4489 300.1098618 +22.6398394     209.6349     72.38953      1.179     4.37      4.98983     20.42849     38.41434         6     1.146     0.475 -44.42   0
       193    828.8497    533.7437 300.2618346 +22.7837994     436.1306     72.44485      1.414     4.16     4.929478     20.42849     56.58112         8     0.917     0.747  66.96   0
       194    847.2600    531.5864 300.2682757 +22.7886923     336.9521     72.37107      1.502     3.39     4.918446     20.42849     37.82876         5     0.792     0.421 -22.40   0
       195    608.0660    524.0236 300.1961822 +22.7148760     364.1274     72.38953      1.731     3.73      5.52783     20.42849     52.80866         5     0.760     0.525  -0.30   0
       196    467.2468    517.4974 300.1544486 +22.6708078     2730.182     72.44485      1.425     2.42     5.353304     20.42849     315.0297        24     1.177     0.979  74.41   2
       197    311.6425    519.6187 300.1053345 +22.6247799     477.9493     72.42641      1.390     2.78     5.044933     20.42849     52.99738         9     0.949     0.617  87.60   0
       198    884.7987    515.9733 300.2850520 +22.7954438     267.7771     72.35262      1.278     3.83     4.903431     20.42849     26.92212         5     0.834     0.505  33.85   0
       199    624.0175    514.9692 300.2040912 +22.7170531     331.0275     72.38953      1.512     3.32      5.54805     20.42849     31.29938         5     0.624     0.607   1.50   0
       200    878.7382    514.4391 300.2836600 +22.7931881     327.2768     72.40797      1.353     3.63     4.899439     20.42849     44.23708         7     0.961     0.495   2.71   0
       201    697.9740    513.4414 300.2276304 +22.7387677     297.5631     72.46328      1.318     2.97     5.344341     20.42849     50.03938         5     0.748     0.449 -20.83   0
       202    784.6753    506.1480 300.2570222 +22.7626382     614.4283     72.42641      1.579     4.18     4.997018     20.42849     57.67971        12     1.297     0.695 -38.34   0
       203    864.3475    503.6380 300.2826790 +22.7857740     1650.042     72.42641      1.486     3.06     4.886827     20.42849     199.3036        22     1.155     1.056 -26.72   0
       204    735.4198    501.3565 300.2432242 +22.7465098         2538     72.44485      1.322     2.47     5.184703     20.42849     321.4481        22     1.090     0.973  58.57   0
       205    980.0733    499.1864 300.3202231 +22.8191400      319.437     72.42641      1.248     3.42     4.895796     20.42849     49.46209         8     0.819     0.669 -39.12   2
       206    978.6213    494.7650 300.3212056 +22.8174339     850.5297     72.42641      1.698     4.41     4.895318     20.42849     87.92216        15     1.174     0.975  29.98   2
       207    944.9621    498.5717 300.3094684 +22.8084526     297.0143     72.40797      1.196     4.88     4.903724     20.42849     39.76709         8     1.314     0.512  44.84   0
       208    640.3052    498.1743 300.2146181 +22.7171062     523.3514     72.35262      1.410     3.46     5.579843     20.42849     58.29203        11     1.020     0.777  68.22   0
       209    522.8917    497.1049 300.1783944 +22.6816234     674.8355     72.59216      1.333     2.72     5.587075     20.42849     86.29873        10     0.862     0.736  14.70   0
       210    992.8221    495.5226 300.3253905 +22.8219026     1354.198     72.38953      1.546     3.12     4.892852     20.42849     128.7426        19     1.099     1.012 -14.45   0
       211    864.5708    493.9439 300.2858960 +22.7830537     2053.939     72.40797      1.562     3.82     4.877979     20.42849      235.285        28     1.529     0.996  72.62   0
       212    617.8978    492.0824 300.2096152 +22.7086433     797.0427     72.57377      2.042     2.84     5.651979     20.42849     87.53207        11     0.998     0.707  77.32   2
       213    455.9346    490.8997 300.1595621 +22.6597777     388.9468     72.50012      1.405     4.77     5.319402     20.42849     64.17896         7     1.140     0.565  -0.24   0
       214    902.6689    489.0003 300.2993831 +22.7930388     4343.517     72.35262      1.479     2.95     4.889024     20.42849      422.801        31     1.186     1.146  57.04   0
       215    544.1311    488.2989 300.1878673 +22.6854570     179.9987     72.50013      1.175     4.35     5.755439     20.42849     29.33792         7     0.885     0.608 -27.35   0
       216    640.2017    485.5004 300.2187005 +22.7134331     242.7337     72.27875      1.125     3.38      5.61774     20.42849     40.99739         5     0.768     0.431  23.56   0
       217    563.2556    484.6265 300.1950155 +22.6901315      451.291     72.40797      1.430     3.09     5.758673     20.42849     60.15549        10     0.878     0.823  61.36   0
       218    134.6634    479.1644 300.0634298 +22.5601067     1099.436     72.40797      1.628     3.09     4.962965     20.42849      128.642        16     1.117     0.929 -79.52   0
       219    994.4861    479.6806 300.3310530 +22.8178446     641.6017     72.57377      1.454     3.00     4.895429     20.42849     77.15365        13     0.955     0.883 -89.53   0
       220    795.8737    473.4958 300.2711140 +22.7566053     413.2388     72.55537      1.503     3.79     4.968664     20.42849     35.12121         6     0.824     0.500   1.16   0
       221    991.0726    468.7007 300.3335524 +22.8136650     339.3728     72.55537      1.342     4.12     4.922798     20.42849     40.60868         7     0.931     0.794 -26.11   0
       222    127.3904    469.3214 300.0643639 +22.5551004     342.8935     72.37107      1.186     3.19     5.039842     20.42849     51.72068         6     1.003     0.465  -2.94   0
       223    735.0670    463.5933 300.2553737 +22.7355497     566.8967     72.38953      1.513     2.51     5.261672     20.42849     75.07683         8     0.905     0.553  40.06   0
       224    623.9092    461.1259 300.2215371 +22.7015482     407.3347     72.57377      1.360     3.96      5.54861     20.42849     37.88944         6     0.768     0.584 -54.83   0
       225    676.0756    459.5038 300.2383170 +22.7167070     783.5945     72.55537      1.300     2.56     5.441019     20.42849     101.8713        10     0.838     0.763 -41.08   0
       226    464.4108    457.6935 300.1729799 +22.6527785     116.7985     72.35262      0.988     3.36      5.30473     20.42849     36.35384         5     0.720     0.468 -73.89   0
       227    991.0173    451.8068 300.3390193 +22.8087896     644.5455     72.35262      1.584     3.39     4.965221     20.42849     69.80534        14     1.047     0.928  62.70   0
       228    736.9060    451.6606 300.2598203 +22.7326703      785.724     72.50013      1.278     2.44     5.255057     20.42849     132.2036        12     1.081     0.723  64.34   0
       229    894.0432    447.9860 300.3100070 +22.7786630     1054.125     72.42641      1.472     2.71     4.891122     20.42849     131.4732        12     0.903     0.828 -13.07   0
       230    878.5762    444.3845 300.3063521 +22.7729970     707.1588     72.40797      1.340     3.19     4.879695     20.42849     84.18548        12     1.000     0.837 -35.37   0
       231    858.8466    444.4708 300.3001712 +22.7671152     387.6831     72.38953      1.538     4.81     4.874861     20.42849     36.27351         9     1.160     0.878 -13.09   0
       232    852.5916    445.2817 300.2979574 +22.7654757     252.0145     72.35262      1.166     2.83     4.882054     20.42849     42.49703         5     0.725     0.443 -68.13   0
       233    622.7125    442.1467 300.2273248 +22.6957353     3248.166     72.44485      1.344     2.55      5.42454     20.42849     393.5064        25     1.073     1.024  54.84   0
       234    983.0381    441.3873 300.3399117 +22.8034046     484.3446     72.40797      1.353     4.25     4.983949     20.42849     64.19009         7     0.889     0.580  27.70   0
       235    462.5336    429.3170 300.1816057 +22.6440637     438.8446     72.51855      1.381     4.43     5.285281     20.42849     66.85058         9     1.250     0.663 -87.75   0
       236    394.8440    430.4333 300.1601738 +22.6241022      337.756     72.44485      1.363     1.88     5.267101     20.42849     63.17341         5     0.700     0.451  22.50   0
       237    906.0020    421.0209 300.3224895 +22.7744885     372.8453     72.33416      1.246     3.21     4.914757     20.42849     62.01667        10     0.896     0.813  53.88   0
       238    992.3076    419.9364 300.3497666 +22.8000091     907.1938     72.51855      1.545     3.55     5.046741     20.42849     96.66098        14     1.152     0.829  61.48   0
       239    642.3513    417.9643 300.2412918 +22.6946673     221.3052     72.44485      1.278     4.53     5.269464     20.42849     46.93296         6     0.868     0.672 -79.12   0
       240    529.0455    416.7442 300.2063952 +22.6603777     444.6039     72.44485      1.242     3.21     5.273345     20.42849      70.4012        10     0.981     0.762 -25.99   0
       241    733.3565    415.9676 300.2702989 +22.7213469     962.9737     72.44485      1.377     2.90     5.256235     20.42849     116.2406        14     0.975     0.864  39.67   0
       242    237.2339    413.9312 300.1164945 +22.5721271     697.7179     72.40797      1.492     4.31      5.26525     20.42849     77.30965        13     1.113     0.927  14.34   0
       243    299.6627    409.9165 300.1372159 +22.5896853     3685.359     72.50013      1.469     2.71     5.268108     20.42849     476.9607        29     1.174     1.084  62.57   0
       244    246.8480    404.6964 300.1224815 +22.5723568     7608.982     72.44485      1.480     2.79     5.298851     20.42849     925.1578        40     1.291     1.139  59.47   0
       245    387.7091    398.9726 300.1681632 +22.6129267     4780.302     72.37107      1.393     2.41     5.245528     20.42849     665.6028        32     1.156     1.072  65.46   0
       246   1012.8303    399.6458 300.3627560 +22.8003143      1783.67     72.44485      1.542     2.83      5.04121     20.42849     205.9835        22     1.156     1.048 -33.95   0
       247    631.9291    395.7340 300.2452592 +22.6851564     18666.34     72.44485      1.351     2.49     5.262868     20.42849     2730.173        52     1.231     1.106  78.69   0
       248    648.3497    396.6854 300.2500664 +22.6903476     567.9143     72.38953      1.492     3.56      5.26637     20.42849     56.39853         8     0.960     0.634  36.18   3
       249    650.9619    395.0000 300.2514272 +22.6906455     545.8976     72.38953      1.435     2.96      5.26713     20.42849     63.23015         8     0.876     0.741  55.61   3
       250    479.7411    397.2386 300.1973732 +22.6400025     300.3076     72.42641      1.229     2.41      5.26869     20.42849     44.30904         5     0.792     0.642 -36.15   0
       251    875.9163    392.4600 300.3223751 +22.7572690      336.757     72.51855      1.397     3.80     4.878123     20.42849     38.93538         6     0.839     0.493   6.43   0
       252    829.1562    386.3439 300.3097780 +22.7415124     358.8159     72.40797      1.388     4.43     4.903364     20.42849     43.36353         7     1.004     0.557 -22.90   0
       253    251.8342    382.9073 300.1311026 +22.5675937     403.8141     72.35262      1.677     3.37     5.380023     20.42849     53.54246         7     0.967     0.544 -73.46   0
       254    965.4240    378.5635 300.3548055 +22.7800627     848.5959     72.42641      1.656     3.12     4.945747     20.42849     104.6799        12     1.053     0.796  26.49   0
       255    675.2348    377.2593 300.2647472 +22.6928148     333.7385     72.42641      1.376     3.73     5.271602     20.42849     37.07983         5     0.886     0.452  45.61   0
       256    186.4289    375.7163 300.1130959 +22.5459247      2000.16     72.40797      1.534     2.97     5.457444     20.42849     244.3502        24     1.206     1.024  29.32   0
       257    842.1790    368.0027 300.3197905 +22.7401366      324.501     72.35262      1.128     2.03     4.887705     20.42849     48.22707         5     0.745     0.461 -32.49   0
       258    572.5575    365.1011 300.2367047 +22.6585701     6759.258     72.38953      1.331     2.47     5.267501     20.42849     828.0206        36     1.200     1.067  89.54   0
       259    986.1344    365.4959 300.3655078 +22.7825016     1197.844     72.51855      1.474     3.13     4.929976     20.42849     155.5777        20     1.176     1.039  64.19   0
       260    287.5233    364.3269 300.1482326 +22.5729530     730.1446      72.4817      1.463     2.67     5.431637     20.42849     96.46562        11     0.929     0.764 -25.57   0
       261    145.3787    357.9540 300.1060958 +22.5285193     528.1997     72.46328      1.453     2.43     5.486917     20.42849     65.67812         7     0.714     0.645 -83.33   0
       262    832.5718    357.0944 300.3203342 +22.7341237     358.0267      72.3157      1.264     3.03     4.893192     20.42849     47.35233         6     0.879     0.531  22.73   0
       263    776.7333    354.1666 300.3038748 +22.7165659     1213.862     72.40797      1.448     2.93     5.047085     20.42849     133.4043        19     1.181     0.931  61.99   0
       264    686.3894    355.5883 300.2752549 +22.6899251     468.4853     72.29723      1.214     2.80     5.270131     20.42849     82.86469        11     0.958     0.775 -46.31   0
       265    197.8241    353.4311 300.1238695 +22.5429406     243.8423     72.40797      1.183     4.17      5.50874     20.42849     33.79817         6     0.910     0.653 -81.90   0
       266    479.1229    351.3915 300.2120571 +22.6266434     6355.673     72.37107      1.337     2.42     5.251956     20.42849     823.5394        34     1.216     1.029  58.36   0
       267    968.7151    345.9993 300.3663989 +22.7716802     632.4123     72.27875      1.525     3.82     4.968667     20.42849      64.7888        12     1.070     1.037 -30.82   0
       268    871.2755    345.8322 300.3360580 +22.7424700     1577.212     72.40797      1.487     2.88      4.90801     20.42849     188.3491        16     1.014     0.918 -34.69   0
       269    464.1280    340.0493 300.2110685 +22.6188923     503.3603     72.38953      1.393     2.46     5.263696     20.42849     68.14384        10     0.818     0.759   6.23   0
       270    546.4394    338.0376 300.2373510 +22.6429692     509.6119      72.4817      1.413     3.30      5.28877     20.42849     56.61964         8     0.793     0.714  -5.70   0
       271    824.2079    336.7611 300.3243235 +22.7257726     253.7473     72.42641      1.530     4.69     4.997035     20.42849     32.66839         6     0.937     0.665 -73.75   0
       272    526.8384    336.1667 300.2318539 +22.6365607     325.1663     72.44485      1.344     2.52     5.286609     20.42849     49.38448         6     0.743     0.543 -41.42   0
       273    843.9232    333.5272 300.3315204 +22.7307439      627.875     72.50013      1.481     3.79     4.992749     20.42849      60.8021         9     0.934     0.749   6.40   0
       274    366.8234    330.5610 300.1838603 +22.5870150     2654.125     72.42641      1.402     2.48     5.252864     20.42849     341.0438        26     1.148     1.038  60.65   0
       275     85.2646    327.8828 300.0971651 +22.5018646     1092.501     72.51855      1.559     2.88     5.447014     20.42849     122.0738        16     1.009     0.958 -74.11   0
       276    714.1890    325.8231 300.2935755 +22.6896911     299.0676     72.40797      1.363     2.37     5.359386     20.42849     46.82512         5     1.017     0.484  33.59   0
       277    336.0887    319.9499 300.1777389 +22.5747579     30270.54     72.40797      1.425     2.87     5.321896     20.42849     3374.719        67     1.336     1.204  71.00   0
       278    870.8443    317.5906 300.3450862 +22.7342181     1384.792     72.42641      1.460     2.65     5.055866     20.42849     169.2613        19     1.067     0.997 -55.67   0
       279    826.3599    315.3650 300.3319361 +22.7202633     247.7403     72.44485      1.129     3.40     5.128475     20.42849     43.87153         5     0.756     0.459  76.51   0
       280     32.4314    307.6729 300.0873016 +22.4802235     5119.292     72.40797      1.728     3.09     5.416984     20.42849     609.3304        39     1.452     1.249  66.48   0
       281    786.0465    306.7587 300.3221589 +22.7057211     490.6618     72.46328      1.349     2.50     5.270394     20.42849     91.85818        10     0.931     0.712  74.15   0
       282    210.6168    306.4726 300.1430811 +22.5332881     325.7874     72.40797      1.289     4.00     5.509015     20.42849     55.54319         9     0.928     0.838 -31.93   0
       283    434.2368    305.2618 300.2130486 +22.5999417     483.5278     72.42641      1.296     2.47     5.316131     20.42849     78.40842         7     0.740     0.699  16.12   0
       284    746.4344    299.7704 300.3120775 +22.6918535     1854.922     72.42641      1.362     2.86     5.439524     20.42849     240.7812        19     1.141     0.889  75.14   0
       285    961.8628    293.0067 300.3814532 +22.7543845     572.1249     72.37107      1.402     3.53       5.4132     20.42849     78.14417        13     1.040     0.894 -65.92   0
       286    554.9293    294.5168 300.2541134 +22.6330028     264.7365     72.53696      1.183     2.31     5.335086     20.42849     45.02622         6     0.742     0.500   0.42   0
       287    408.2737    284.2885 300.2117703 +22.5861374     2134.506     72.57377      1.544     3.26     5.339397     20.42849     236.6723        24     1.413     0.921  61.52   0
       288    839.4622    278.2704 300.3480547 +22.7135159     380.1472     72.44485      1.854     5.38     5.283245     20.42849     42.16009         7     1.426     0.573  51.57   0
       289    847.7369    277.2682 300.3509602 +22.7157041     589.5592     72.46328      1.182     2.86     5.270803     20.42849     84.29469         9     0.864     0.735  13.30   0
       290    747.0286    274.7463 300.3203798 +22.6848352      271.074     72.40797      1.299     4.19     5.485406     20.42849     38.44489         6     0.866     0.596  88.95   0
       291    729.5902    274.6779 300.3149666 +22.6795953     261.8895     72.37107      1.234     5.19     5.505229     20.42849     54.54499        11     1.255     0.800 -85.13   0
       292    484.2920    263.9013 300.2420471 +22.6030479     1263.849     72.59216      1.350     2.48      5.34618     20.42849     161.6791        15     0.958     0.851 -73.25   0
       293    995.4969    260.4909 300.4024948 +22.7550925     332.5849     72.59217      1.486     3.70     5.571085     20.42849     31.42103         6     0.951     0.415  19.04   0
       294    867.2699    257.2170 300.3635553 +22.7157821     282.9248     72.42641      1.208     2.53     5.300753     20.42849     46.02876         6     0.710     0.575  43.17   0
       295    729.0798    255.5961 300.3209965 +22.6739551     2221.353      72.3157      1.407     2.60     5.507132     20.42849     319.8097        22     1.083     0.971  76.88   0
       296    990.3445    250.1595 300.4042379 +22.7505782     3117.091     72.38953      1.450     2.75     5.515715     20.42849     361.4886        27     1.205     1.066 -88.17   0
       297    437.6258    239.6165 300.2353948 +22.5820914     693.9792     72.42641      1.428     2.23      5.35321     20.42849     90.73344        10     0.803     0.748  36.97   0
       298    143.0929    234.0799 300.1455639 +22.4922595      632.074     72.51854      1.540     4.59      5.37616     20.42849     66.91297        11     1.131     0.834  -3.70   0
       299    112.2407    233.6743 300.1361045 +22.4828969     1339.002     72.38953      1.719     3.81     5.368072     20.42849      131.372        21     1.369     0.987 -15.79   0
       300   1006.4834    230.7345 300.4155739 +22.7498168     561.4353     72.51855      1.373     3.07     5.470427     20.42849     76.01923        11     0.992     0.759 -21.57   0
       301    849.9406    227.3957 300.3678225 +22.7020175     316.1932     72.37107      1.367     4.74     5.387699     20.42849     39.45292         8     1.211     0.525  22.07   0
       302    196.0563    225.7493 300.1647330 +22.5057378     496.5819     72.44485      1.428     3.48     5.420379     20.42849     59.99836        11     0.993     0.819 -17.50   0
       303    991.6884    223.3175 300.4133625 +22.7432563     430.2589     72.51855      1.426     5.46     5.433095     20.42849     42.10065         9     1.222     0.695 -11.24   0
       304    872.8439    219.6059 300.3774914 +22.7066302     457.3579     72.40797      1.793     3.86     5.392889     20.42849     46.78254         7     1.044     0.640  40.89   0
       305    800.7678    217.2155 300.3557910 +22.6843733     588.7648     72.38953      1.277     3.66      5.40729     20.42849     75.03329        10     1.055     0.634  70.22   0
       306    390.9387    216.3642 300.2284031 +22.5614251     440.1729     72.42641      1.401     4.04     5.369237     20.42849     53.37899        11     0.968     0.837 -48.64   0
       307     75.5424    209.8558 300.1324208 +22.4650576     153.4965      72.4817      1.189     3.46     5.394515     20.42849     31.21013         5     1.214     0.284 -35.37   0
       308    898.9056    206.2495 300.3899511 +22.7105857     2010.723     72.46328      1.416     2.71     5.398727     20.42849     260.7142        23     1.208     0.992 -61.59   0
       309    317.3477    203.4012 300.2097064 +22.5356563     2096.406     72.37107      1.387     2.37     5.425933     20.42849     263.0885        24     1.096     1.050  34.62   0
       310    395.2056    198.5783 300.2354981 +22.5575915     1086.583     72.38953      1.648     3.33     5.383724     20.42849     108.4433        18     1.189     0.938  37.28   0
       311    797.1290    197.9261 300.3609113 +22.6777357     537.7919      72.4817      1.460     2.21     5.446682     20.42849     74.99359         8     0.799     0.612  30.45   0
       312    904.0916    194.5900 300.3953494 +22.7087827     428.2188     72.35262      1.564     3.06     5.403776     20.42849     51.91461         9     1.048     0.557 -63.54   0
       313    330.1949    190.3923 300.2179215 +22.5357664     252.5585     72.26027      1.083     3.56     5.415171     20.42849     42.34043         5     0.948     0.386 -84.11   0
       314    212.3206    190.7088 300.1811521 +22.5005447     846.6946     72.53696      1.516     3.01     5.479524     20.42849     86.68703        11     0.961     0.737 -58.83   0
       315    814.8435    187.2135 300.3699080 +22.6799552      595.892     72.42641      1.426     3.95     5.447375     20.42849     72.81132        10     1.114     0.647  53.63   0
       316    750.0334    187.5734 300.3495862 +22.6606630     1617.898     72.42641      1.353     2.38     5.500659     20.42849     274.6846        20     1.070     0.945  66.70   0
       317    233.4870    184.0022 300.1899092 +22.5049594     534.5106     72.33416      1.417     2.63     5.489501     20.42849     86.15863        10     0.897     0.805  33.99   0
       318   1021.5203    180.1847 300.4366583 +22.7397672     845.5671     67.00544      1.777     3.42     5.494605     20.42849     88.06055        15     1.146     0.971 -45.90  24
       319    523.0971    180.3825 300.2812130 +22.5906603     403.2039      72.3157      1.552     3.58      5.41925     20.42849     40.90042         7     0.867     0.618  77.10   0
       320    753.9920    179.0013 300.3535995 +22.6593821     779.9269      72.2233      1.440     3.65     5.501958     20.42849     97.17027        14     1.212     0.792  55.31   0
       321    674.6314    178.5179 300.3290222 +22.6354900     1207.853     72.40797      1.304     2.21     5.516535     20.42849     160.4997        20     1.128     0.936 -30.39   0
       322    495.7217    174.9252 300.2744579 +22.5808944     449.7746     72.51855      1.435     2.99     5.391242     20.42849     57.70639         7     0.864     0.547 -50.71   0
       323     72.4155    174.0170 300.1430682 +22.4538274     261.4663     72.37107      1.428     4.48     5.481963     20.42849     25.88015         5     1.407     0.406  78.01   0
       324    870.0286    169.8432 300.3927490 +22.6914707      1469.26     72.42641      1.430     2.90     5.395153     20.42849     188.8122        19     1.135     0.989  39.34   0
       325    600.6655    169.8526 300.3087864 +22.6108564     1011.543     72.44485      1.334     2.51      5.44399     20.42849     148.2956        16     1.015     0.923 -12.92   0
       326    882.0182    168.9755 300.3967696 +22.6948084     901.0039     72.42641      1.427     3.22     5.401675     20.42849     98.99655        12     1.027     0.770  57.12   0
       327    998.6489    159.3107 300.4362887 +22.7269181     1289.653     72.40797      1.618     3.43     5.492483     20.42849     126.2389        21     1.241     1.037  71.93   0
       328     22.4024    156.0401 300.1333534 +22.4336757     590.7485     72.40797      1.929     3.93     5.304458     20.42849     52.81578         9     0.972     0.676  34.59   0
       329    233.1389    152.5750 300.1999892 +22.4958254     696.5236     72.40797      1.333     3.30     5.484641     20.42849     82.52657        12     1.082     0.757 -41.04   0
       330     94.5626    146.7933 300.1587768 +22.4526447     2195.909     72.42641      1.639     3.30     5.590424     20.42849     251.5621        27     1.245     1.206   1.56   0
       331    917.6409    143.9769 300.4159855 +22.6982725     657.5901     72.44485      1.301     4.51     5.436477     20.42849     82.87862        11     1.340     0.626  41.59   0
       332     44.1511    144.0914 300.1439849 +22.4367618     573.4489     72.44485      1.836     2.61     5.414865     20.42849     52.05981         8     0.817     0.633 -34.10   0
       333    252.0596    140.2436 300.2098713 +22.4979501      5693.69     72.40797      1.484     2.78     5.449841     20.42849     611.1975        37     1.319     1.157  60.59   0
       334    233.7779    141.3252 300.2038346 +22.4927844     276.1486     72.40797      1.260     3.89     5.458802     20.42849     46.02458         5     0.898     0.483 -47.34   0
       335     36.2363    134.4733 300.1446429 +22.4316274       1342.5     72.35262      1.708     3.17       5.4095     20.42849     158.7174        22     1.253     1.150  63.11   0
       336    235.4364    131.1768 300.2076400 +22.4903651     699.6932     72.42641      1.694     3.83     5.437733     20.42849     61.33627        13     1.083     0.892  65.40   0
       337    999.9056    120.7900 300.4491686 +22.7162069     2864.938     72.35262      1.554     3.10     5.476578     20.42849     292.9229        29     1.330     1.111  66.41   0
       338    896.2617    121.9511 300.4164568 +22.6855384     3393.161     72.46328      1.454     2.85      5.44787     20.42849     388.3568        29     1.206     1.073  76.88   0
       339    445.7898    117.3996 300.2775600 +22.5494053     693.4365      72.2233      1.420     2.26     5.401422     20.42849      88.8446        10     0.836     0.686 -77.95   0
       340    369.9329    108.8886 300.2567076 +22.5242434     847.9916     72.51854      1.961     4.83     5.411642     20.42849     77.34566        14     1.443     0.662 -30.76   2
       341    135.9302    105.8677 300.1849010 +22.4532827     600.5274     72.46328      1.387     3.19     5.430401     20.42849     65.18066        11     0.892     0.834 -63.19   0
       342     33.6957    105.3497 300.1532925 +22.4225009     307.9608      72.4817      1.308     3.53      5.46988     20.42849     46.00015         7     1.066     0.647  34.64   0
       343    497.0336    104.2224 300.2977853 +22.5609597     1685.787     72.42641      1.386     2.79     5.395285     20.42849     221.1632        22     1.178     0.995  77.30   0
       344    425.1092    105.1199 300.2751023 +22.5396826     532.1489     72.53696      1.439     2.42     5.412054     20.42849     62.79137         8     0.780     0.644 -40.59   0
       345    558.6750    103.8266 300.3171099 +22.5792995     385.0956     72.40797      1.325     1.61     5.413024     20.42849     67.85107         5     0.656     0.443  71.65   0
       346    240.6994     99.9994 300.2193818 +22.4829825     425.7258     72.24179      1.207     2.17     5.377777     20.42849     77.01912         7     0.799     0.578 -20.73   0
       347    785.1664     93.9568 300.3908865 +22.6442453      360.642     72.46328      1.226     4.23     5.761461     20.42849      50.1022         8     1.130     0.545 -58.35   0
       348    370.3939     89.2489 300.2632163 +22.5187360     267.1759     72.38953      1.233     3.49     5.390127     20.42849     32.44218         5     0.775     0.455  73.51   0
       349    271.0415     84.0621 300.2339847 +22.4874906     6280.625     72.38953      1.484     2.93     5.402894     20.42849     654.2047        35     1.324     1.130  66.66   0
       350    122.3521     83.5534 300.1879115 +22.4428037     819.7605     72.42641      1.704     5.37     5.444629     20.42849     75.30733        16     1.378     1.204  17.39   0
       351    900.3285     81.9573 300.4306883 +22.6752454     266.9944     72.37107      1.455     5.83      5.52752     20.42849     36.84391         8     1.200     0.797  41.39   0
       352    243.1718     78.1652 300.2272268 +22.4774484     522.0997     72.42641      1.636     3.99     5.386957     20.42849     50.05954         6     1.145     0.496 -27.71   0
       353    746.8483     75.6153 300.3848856 +22.6275028     209.0652     72.44485      1.236     3.35     5.792839     20.42849      42.1225         5     0.805     0.403  23.06   0
       354    286.5514     75.7133 300.2415152 +22.4897364     296.7788     72.40797      1.169     2.71     5.418915     20.42849     55.37712         6     0.862     0.452   1.47   0
       355     32.8481     74.6365 300.1629822 +22.4134247     431.0692     72.44485      1.506     2.38     5.487979     20.42849      48.2162         5     0.714     0.446  18.79   0
       356    517.1301     69.5116 300.3152925 +22.5569950     6383.965     72.57377      1.398     2.54     5.280187     20.42849     863.6246        35     1.263     1.053  79.02   0
       357    402.4411     69.4172 300.2796171 +22.5226311     651.4332     72.42641      1.337     2.50     5.207697     20.42849     83.84657        10     0.868     0.758   7.03   0
       358    270.6100     63.2914 300.2405814 +22.4813918     143.5241     72.35262      1.223     3.46     5.415788     20.42849     34.36427         5     0.738     0.469 -76.44   0
       359    711.1553     61.3398 300.3783867 +22.6127154     180.4111     72.42641      1.075     2.52      5.75766     20.42849     54.98447         5     0.717     0.449  15.79   0
       360    769.6010     59.2449 300.3972835 +22.6296006     674.5204     72.40797      1.345     2.92     5.860685     20.42849     94.82327        13     0.972     0.883  88.47   0
       361    861.8554     58.2957 300.4263569 +22.6569271     430.9842      72.4817      1.232     2.80     5.808191     20.42849     57.15119         7     0.815     0.595  33.93   0
       362     80.6084     55.5719 300.1840029 +22.4222581     347.9909     72.40797      1.887     4.82     5.487979     20.42849     26.83983         5     1.136     0.580  32.37   0
       363    210.1633     53.1503 300.2250666 +22.4603726     390.3116     72.42641      1.441     4.45     5.399124     20.42849     48.79921         8     0.932     0.751 -67.83   0
       364    568.8076     52.0421 300.3370480 +22.5674399     504.9017     72.42641      1.329     3.08     5.492325     20.42849     62.80836         9     0.862     0.763   7.38   0
       365    645.4988     49.6127 300.3617267 +22.5896941     6351.016      72.3157      1.426     2.51     5.713104     20.42849     844.7092        36     1.263     1.077  73.31   0
       366    420.4497     48.6247 300.2919602 +22.5220451     1458.028     72.42641      1.443     2.45     4.953012     20.42849     184.6765        20     1.085     1.019  75.96   0
       367    686.7084     47.1337 300.3753713 +22.6013131     844.0223     72.55537      1.285     2.51     5.742017     20.42849     120.4074        11     0.850     0.788  46.99   0
       368    756.8359     45.0540 300.3979027 +22.6216982     319.0033     72.42641      1.376     3.94     5.874762     20.42849     33.79415         6     0.978     0.455 -53.23   0
       369    702.7050     43.1106 300.3816602 +22.6049424     544.8307     72.59216      1.275     2.34     5.778674     20.42849     83.24291         8     0.875     0.574 -28.05   0
       370    169.3384     41.2950 300.2162129 +22.4447372     647.3575     72.50013      1.411     3.29     5.429782     20.42849     87.22253        14     1.066     0.931 -22.67   0
       371    972.4794     40.6966 300.4665687 +22.6849492       617.54     72.51855      1.467     3.46     5.465996     20.42849     79.11905        11     1.140     0.667  27.75   0
       372   1011.2720     40.2552 300.4788169 +22.6964230     346.1992     72.42641      2.043     3.74     5.465996     20.42849     30.93046         5     0.907     0.442  44.64   0
       373    741.1946     38.5323 300.3951402 +22.6151418     553.0287     72.37107      1.385     2.26     5.852912     20.42849     79.12001         7     0.810     0.600 -27.55   0
       374    689.7275     34.4604 300.3804187 +22.5985705     2842.639     72.44485      1.473     2.64     5.776055     20.42849     401.2169        25     1.204     0.998  82.49   0
       375    704.8260     33.5767 300.3854105 +22.6028341     883.8896     72.37107      1.684     4.54     5.800256     20.42849     92.45746        14     1.506     0.659  46.90   0
       376    330.3615     34.8173 300.2683973 +22.4911011      428.479     72.42641      1.562     4.62     5.421017     20.42849     64.63936         8     1.007     0.601  78.55   0
       377    776.1909     26.2169 300.4100402 +22.6220686     1633.602     72.35262      1.399     2.71     5.972473     20.42849     176.9564        19     1.117     0.931  69.61   0
       378    318.9556   1015.2571 299.9465266 +22.7692134     1580.833     72.42641      2.390     5.39     9.651218     20.42849     95.33289        27     1.445     1.343 -53.27  16
       379    519.7134     18.5759 300.3326016 +22.5431201      1185.69     72.37107      1.566     2.89     5.067744     20.42849     144.1566        17     1.202     0.897  59.91   0
       380     92.4289     18.6460 300.1996409 +22.4151901     604.4836     72.44485      1.470     3.64     5.487979     20.42849     62.55488        10     0.987     0.774 -40.83   0
       381    423.5946     16.7815 300.3032567 +22.5138308     756.9081     72.35262      1.263     2.47     4.645802     20.42849     113.2886        11     0.878     0.788   6.06   0
       382    805.9265     15.5598 300.4227641 +22.6278975      281.863     72.38953      1.243     3.04     6.088193     20.42849     51.80697         6     0.782     0.495  -3.42   0
       383    154.0953   1012.2381 299.8962428 +22.7188703     1495.581     72.38953      3.459    12.36     95.01879     20.42849     45.29721        30     2.432     1.748 -22.33  18
       384    197.7180   1002.6147 299.9129351 +22.7292042     2603.742     72.38953      5.572    21.18     83.34235     20.42849      77.9585       104     4.678     2.665  17.01  18
       385    510.2024   1003.1203 300.0099932 +22.8231071     370.6788      72.3157      1.515     4.84     4.443026     20.42849     33.38263         5     1.211     0.549  61.51   0
