#   1 NUMBER                 Running object number                                     
#   2 X_IMAGE                Object position along x                                    [pixel]
#   3 Y_IMAGE                Object position along y                                    [pixel]
#   4 ALPHA_J2000            Right ascension of barycenter (J2000)                      [deg]
#   5 DELTA_J2000            Declination of barycenter (J2000)                          [deg]
#   6 FLUX_APER              Flux vector within fixed circular aperture(s)              [count]
#   7 FLUXERR_APER           RMS error vector for aperture flux(es)                     [count]
#   8 FLUX_RADIUS            Fraction-of-light radii                                    [pixel]
#   9 FWHM_IMAGE             FWHM assuming a gaussian core                              [pixel]
#  10 BACKGROUND             Background at centroid position                            [count]
#  11 THRESHOLD              Detection threshold above background                       [count]
#  12 FLUX_MAX               Peak flux above background                                 [count]
#  13 ISOAREA_IMAGE          Isophotal area above Analysis threshold                    [pixel**2]
#  14 A_IMAGE                Profile RMS along major axis                               [pixel]
#  15 B_IMAGE                Profile RMS along minor axis                               [pixel]
#  16 THETA_IMAGE            Position angle (CCW/x)                                     [deg]
#  17 FLAGS                  Extraction flags                                          
         1    448.2945     43.1576 300.3423177 +22.5346152     469.8884     72.47595      1.189     2.63     5.468875     20.44246     81.33823        10     0.938     0.697  60.25   0
         2    515.2265     15.2126 300.3722106 +22.5466275     1892.888      72.4575      1.276     2.42     5.230938     20.44246     257.7707        18     1.008     0.866  80.03   0
         3    238.2019     12.6106 300.2868670 +22.4629085     753.1968     72.27271      1.497     2.80     5.403104     20.44246     89.04021        12     1.004     0.758  84.17   0
         4    472.6146      9.0015 300.3609600 +22.5320828     1252.158     72.30971      1.224     2.31     5.743303     20.44246      178.795        15     0.954     0.802  74.17   0
         5    577.9377      5.7770 300.3947943 +22.5626915      1250.97     72.43904      1.272     2.13      5.31562     20.44246     214.4443        12     0.908     0.732  61.37  16
         6    173.0867      4.5920 300.2692229 +22.4410964     599.9871     70.72028      1.577     3.62     5.358298     20.44246     64.45001        10     1.026     0.635 -60.45  16
         7    403.3005      2.5096 300.3414939 +22.5094599     323.2993     62.78732      1.455     3.91     5.939664     20.44246     34.98892         6     0.929     0.660  71.25  24
         8    222.2439      2.5464 300.2851677 +22.4552368     527.9286     62.87246      1.388     3.97     5.353164     20.44246     61.64336        10     1.044     0.755  -5.77  24
         9    918.8312      1.9672 300.5022584 +22.6636184     129.8417     59.91002      1.067     3.14     5.880905     20.44246     49.82951         5     0.654     0.581  -3.52  24
        10    195.8039   1005.1602 299.9512712 +22.7349597     567.0615     72.47595      1.662     4.83     11.83808     20.44246     56.07245        12     1.234     0.805 -22.76   0
        11    186.7179   1010.1182 299.9468334 +22.7336524     2429.984     72.58658     11.461    28.35     14.12061     20.44246     63.27579       155     6.428     3.471  26.37  19
        12    189.7038   1021.8892 299.9439297 +22.7379219     4915.149      65.5996      7.414    29.42     14.71073     20.44246     133.7961       193     9.832     2.444  27.46  27
        13    181.7914   1023.0535 299.9410916 +22.7358798     2968.156     59.79831      9.305    21.95     16.69126     20.44246     98.56164       106     6.927     1.931  19.85  27
        14    164.1190   1021.2487 299.9361870 +22.7300563     719.6318      68.1001      4.756     4.99     20.60172     20.44246     38.75614         5     1.259     0.560 -30.50  19
        15    160.4291   1023.3541 299.9343550 +22.7295515     571.0409     58.21186      6.543     6.62     21.96163     20.44246     37.52319         8     1.831     0.672  35.17  27
        16    155.8514   1022.9098 299.9330771 +22.7280497     1120.868     60.62009      4.344     8.03     23.30303     20.44246     38.75882        13     2.795     0.646  84.63  26
        17    148.9594   1021.0432 299.9315430 +22.7254454     1532.367     68.86167      5.403     8.77      25.2395     20.44246      44.1798        23     1.784     1.205  85.66  26
        18    132.1279   1022.9844 299.9256810 +22.7209473     497.4261     60.22171      4.459     4.73     31.35138     20.44246     28.62454         5     0.873     0.768 -82.66  24
        19    120.4731   1023.4871 299.9218961 +22.7175915     799.1783     57.54181      7.301     6.71     35.37556     20.44246     40.65825         9     2.075     0.608  20.63  27
        20    116.2302   1023.5775 299.9205484 +22.7163433     898.7278     56.88737      5.263     6.35     37.02931     20.44246      54.5981        13     1.541     0.736  33.93  27
        21     59.9794   1022.2196 299.9035157 +22.6990613     624.0221       63.948      2.908     4.61     63.47691     20.44246     28.07477         5     1.224     0.494  72.04  24
        22     49.3249   1015.5071 299.9023913 +22.6939385     1293.492     72.62341      8.914    13.77     65.64825     20.44246     34.93208        38     3.293     1.602   3.47  19
        23     35.1928    988.9376 299.9066500 +22.6820829     1029.837     72.42058      7.103     8.66     52.67879     20.44246     44.19523        20     1.767     1.185 -26.33   3
        24     31.0584    991.9432 299.9043876 +22.6817022      1094.23     72.53129      5.995    10.54     56.44787     20.44246     46.21009        22     2.398     1.291   4.84   3
        25     43.2606   1021.4076 299.8985870 +22.6938074     1829.354      67.4688      6.096    17.80     72.31282     20.44246      52.7921        69     4.392     2.006  12.93  27
        26     28.1618    994.9396 299.9025128 +22.6816907     1402.959     72.47595      5.322     9.95     59.96711     20.44246     65.23232        26     2.242     1.283  33.98   3
        27     32.3756   1001.1501 299.9018001 +22.6847353     2403.311     72.47595      5.487    20.23     63.00555     20.44246     56.56992        94     4.280     2.658  32.26  19
        28     33.6676   1015.5842 299.8975031 +22.6892581     1481.764      72.4575      3.187     6.83     73.51603     20.44246     69.52473        21     1.602     1.122  49.37  19
        29     34.9812   1009.8930 299.8997636 +22.6880223     2673.679     72.38364      5.592    22.22     68.47758     20.44246     57.05383       118     4.651     2.948  31.39  19
        30    513.0079   1001.8253 300.0510154 +22.8292109     1582.814      72.4575      1.588     3.32     2.685142     20.44246     142.5872        23     1.244     1.079 -14.75   0
        31     51.5658    996.0115 299.9094330 +22.6890266     721.3884     72.43904      5.855     7.02     51.10352     20.44246      34.4299        11     1.268     1.089  19.08   3
        32     65.0889    995.5869 299.9137718 +22.6929661     1175.799     72.40211      6.123    10.92     45.87176     20.44246     48.73135        19     2.273     1.461  70.96   2
        33    690.0399    998.5870 300.1071911 +22.8813906     253.4185      72.4575      1.435     4.84     3.345857     20.44246        36.09         6     1.020     0.651  55.64   0
        34    406.7841    998.2542 300.0191241 +22.7963113     1153.511     72.42058      1.710     3.85     3.313215     20.44246     103.6674        18     1.171     1.037 -31.06   0
        35    337.4321    996.3879 299.9981596 +22.7749616     6465.521     72.43904      1.686     3.14     3.770579     20.44246     607.7774        42     1.354     1.305 -60.60   0
        36     44.7582    984.0686 299.9112057 +22.6835607     829.9871     72.43904      2.929     7.12      45.6252     20.44246     38.77433        14     1.460     0.972  87.16   0
        37    370.0290    983.4252 300.0125174 +22.7810291     477.9214      72.4575      1.543     3.41     3.569234     20.44246     60.97997        11     0.989     0.906  19.92   0
        38     41.0444    962.9156 299.9169364 +22.6763853     1250.059     72.42058      7.138    13.74     31.91229     20.44246     38.60907        30     3.108     1.689 -59.56   3
        39     48.6554    961.7758 299.9196713 +22.6783443     924.1316     72.47595      3.921     8.45     29.63728     20.44246     36.71801        14     1.952     1.021 -63.27   2
        40     32.6494    979.6562 299.9088808 +22.6786602     1702.045      72.4944      9.122    12.53     46.51745     20.44246     56.06979        47     2.518     1.901   5.37   3
        41     37.2040    975.8527 299.9115333 +22.6789383     1581.264      72.4575      6.159    15.36     42.33786     20.44246     42.36201        38     3.750     1.749  17.47   3
        42     25.8140    972.5747 299.9090625 +22.6745786     1466.525      72.4575      5.777    12.71     43.00013     20.44246     39.03519        30     2.912     1.543 -89.46   3
        43     30.6519    965.2729 299.9129414 +22.6739397     2051.278      72.4575      5.170    17.32     35.47595     20.44246      53.0257        58     3.539     2.354 -19.61   3
        44    883.7213    975.0641 300.1752034 +22.9327204     2058.121     72.54972      1.659     3.89     3.782777     20.44246     134.1936        25     1.256     1.177  61.06   0
        45    533.6465    972.4128 300.0670133 +22.8269682     346.7784     72.47595      1.336     3.90     3.121475     20.44246     46.94528         7     1.222     0.500 -56.91   0
        46    381.7651    970.9914 300.0202150 +22.7809866     248.8336     72.43904      1.101     3.72     3.567837     20.44246       39.227         5     0.819     0.485 -43.08   0
        47    672.5929    964.2623 300.1129298 +22.8663104     625.0184     72.42058      1.624     5.35     3.570421     20.44246     68.15838        16     1.394     0.889  62.12   0
        48    301.4154    963.1890 299.9977648 +22.7546344     450.7081     72.40211      0.707     0.34     4.188571     20.44246     222.9816         6     0.688     0.486  47.80   0
        49    999.3965    962.6227 300.2153245 +22.9638245     352.8147     72.42058      1.464     5.12     3.731312     20.44246     48.45676        11     1.083     0.945  -3.21   0
        50    707.2640    958.1012 300.1257348 +22.8749412     958.8431     72.54972      1.515     4.14     3.656757     20.44246     93.45333        14     1.190     0.817 -52.00   0
        51    485.0065    959.3820 300.0561157 +22.8086378     443.7738     72.42058      1.351     4.97     3.239155     20.44246     53.86791        12     1.107     1.023 -33.31   0
        52    794.1821    959.0383 300.1525111 +22.9012748     205.5543      72.4575      1.293     4.49      3.82792     20.44246      29.7726         6     0.814     0.706  81.54   0
        53    864.2260    955.3380 300.1755467 +22.9212140     323.1845      72.4575      1.582     4.21     3.864207     20.44246     29.95185         6     0.742     0.681 -63.20   0
        54    729.5391    951.7854 300.1347297 +22.8798093     11318.96     72.42058      1.553     3.12     3.741339     20.44246     1066.583        49     1.285     1.257  85.33   0
        55    920.7780    951.5225 300.1944196 +22.9370723     553.0956     72.43904      1.785     6.04     3.791906     20.44246     37.12376        12     1.094     0.937  -5.94   0
        56    775.2397    951.4971 300.1490627 +22.8934308     537.9935     72.43904      1.657     4.41     3.838791     20.44246     44.83529        12     1.027     0.893   0.30   0
        57    862.6110    945.3925 300.1782803 +22.9178753     275.7056     72.32819      1.576     5.05     3.899715     20.44246     27.32427         8     0.874     0.827  51.38   0
        58     41.3926    943.6959 299.9232991 +22.6709834     413.8394     72.34668      1.463     4.15     18.31399     20.44246     44.01118         7     1.013     0.485  86.33   0
        59    434.6230    940.1186 300.0467069 +22.7879962      454.082     72.42058      1.426     3.45     3.528434     20.44246     55.73363        12     1.031     0.786 -35.60   0
        60    781.4816    939.5078 300.1549099 +22.8918620     321.6844       72.605      1.310     4.57     3.925586     20.44246     38.68439         7     0.898     0.660  13.40   0
        61    738.0286    933.9106 300.1431922 +22.8772261     1331.208     72.43904      1.453     3.53     3.914604     20.44246     137.0438        19     1.159     0.980 -30.42   0
        62    921.1337    932.8352 300.2006127 +22.9318146     455.1483      72.4575      1.606     6.19     3.818662     20.44246     38.56372        13     1.140     0.958 -25.53   0
        63    590.1924    931.1297 300.0980528 +22.8320901     618.1802     72.43904      1.554     3.25     3.699676     20.44246     69.81126         9     0.944     0.727 -84.73   0
        64    776.1934    927.3636 300.1572143 +22.8867912     780.1542      72.4575      1.506     3.56     3.999643     20.44246     65.16962        13     1.044     0.845 -79.04   0
        65    115.4950    926.9806 299.9517583 +22.6884442     550.4034     72.36517      3.475     4.11     7.304118     20.44246     49.08251         6     1.023     0.683 -84.34   0
        66    824.6301    918.7244 300.1751208 +22.8988342      588.937      72.4575      1.471     3.59     4.021625     20.44246      57.3923        12     0.991     0.845  35.93   0
        67    675.8553    917.6465 300.1291171 +22.8539146      645.894      72.4944      1.388     3.19     3.837059     20.44246     75.77592        12     0.961     0.817  59.25   0
        68    388.5335    914.0174 300.0408617 +22.7666819     4177.074     72.43904      1.484     2.72     3.771237     20.44246       494.77        32     1.194     1.142  39.54   0
        69    687.3958    914.7806 300.1336444 +22.8565531     462.6812     72.42058      1.400     3.68     3.872064     20.44246     61.81528        11     1.049     0.823  17.91   0
        70    432.2378    902.4163 300.0582335 +22.7764687     381.7997      72.4575      2.076     5.12      3.71132     20.44246     37.70101         7     1.280     0.578  49.11   0
        71     50.7273    902.7589 299.9395187 +22.6620569     525.4111     72.43904      2.358     4.54     6.504647     20.44246     42.48943         8     1.245     0.777  32.71   0
        72     30.7872    901.9332 299.9335939 +22.6558330     463.4167     72.43904      2.236     4.38     6.391724     20.44246     33.63511         6     1.181     0.462 -17.53   0
        73    113.8844    899.6334 299.9601560 +22.6801237     840.1326     72.42058      1.676     3.27     6.210845     20.44246     84.51012        12     1.078     0.805  43.84   0
        74     90.7010    896.7226 299.9539002 +22.6723292     1759.295     72.58658      1.857     4.35      6.35742     20.44246     143.9805        26     1.513     1.285  73.02   0
        75     22.6727    898.6633 299.9321376 +22.6524595     729.4448      72.4944      2.550     3.55     6.242164     20.44246      44.0246        10     0.932     0.752 -47.83   0
        76    962.7398    885.6932 300.2289282 +22.9307509     1998.073     72.54972      1.522     3.03     3.970867     20.44246     192.0636        24     1.226     1.019 -29.67   0
        77    916.9186    884.2173 300.2151198 +22.9165939     2225.929     72.43904      1.572     2.95     4.012349     20.44246     189.6596        24     1.124     1.087  15.93   0
        78    623.0762    883.8926 300.1236631 +22.8284014     360.1125       72.605      1.426     3.96     3.809201     20.44246     41.91534         6     0.780     0.575 -34.61   0
        79    700.3957    877.9946 300.1496637 +22.8498958     730.4468     72.30971      1.538     4.16     4.006052     20.44246     77.44294        14     1.231     0.890 -36.25   0
        80    123.2815    878.1181 299.9700756 +22.6767787     381.1757       72.605      1.520     4.54     5.217175     20.44246     47.19366         9     0.997     0.794  54.11   0
        81    568.5268    872.0982 300.1105158 +22.8086570      4815.79     72.58658      1.409     2.59       3.8085     20.44246     574.9248        32     1.173     1.081 -21.66   0
        82     58.3392    872.9506 299.9515809 +22.6558007     487.9117     72.51285      1.610     3.54     5.191704     20.44246     64.47252         6     0.954     0.688  81.71   0
        83    370.6277    869.1332 300.0498955 +22.7484383     782.4481     72.43904      1.699     3.46      3.88954     20.44246     85.93928        16     1.074     1.030 -43.64   0
        84    118.7030    865.9861 299.9725998 +22.6719271     1248.191     72.34668      1.548     3.36     4.778886     20.44246     127.5922        20     1.175     1.044  14.53   0
        85    588.8225    864.6884 300.1192454 +22.8126184     759.4401     72.38364      1.376     2.97     3.810622     20.44246     79.90815        11     0.928     0.779 -57.15   0
        86    387.2976    864.2260 300.0566775 +22.7520328     350.6877     72.40211      1.333     3.79     3.886509     20.44246     58.26188         5     0.793     0.657 -25.69   0
        87    137.9086    863.6740 299.9793196 +22.6770298     363.3151     72.62341      1.423     4.89     4.679883     20.44246     44.31641         9     1.152     0.617 -38.77   0
        88    505.5471    855.0135 300.0964694 +22.7848653     290.9741      72.4944      1.202     2.73     3.856627     20.44246     50.28479         6     0.892     0.496  15.69   0
        89    961.4700    852.1421 300.2394487 +22.9207367     1167.938     72.47595      1.620     3.36     4.070068     20.44246     106.3561        17     1.088     1.045  29.41   0
        90    744.5494    851.8547 300.1719240 +22.8556328     4285.205      72.4944      1.443     2.55     4.090161     20.44246     481.1771        34     1.189     1.127 -73.41   0
        91    999.4564    851.4964 300.2515065 +22.9319346     412.1048     72.54972      1.534     5.23     4.070004     20.44246     38.59051        11     1.125     0.933 -66.17   0
        92    153.3154    845.9295 299.9898795 +22.6765684     390.6829     72.56815      1.541     4.38     4.612265     20.44246     52.80404         7     0.996     0.549  36.84   0
        93    461.5369    844.4124 300.0862215 +22.7686226     773.6237     72.43904      1.553     3.57     3.902526     20.44246     98.43274        14     1.193     0.931 -32.76   0
        94    107.9953    842.5815 299.9768863 +22.6620046     1064.213     72.40211      1.629     3.70     4.713741     20.44246     95.30051        18     1.145     1.065 -49.10   0
        95    257.5805    834.4990 300.0260067 +22.7045847     52851.85     72.38364      1.527     2.73     4.332541     20.44246     6011.151       107     1.416     1.397  75.18   0
        96    523.0120    837.6818 300.1075437 +22.7851319     551.8796     72.43904      1.356     3.53     3.916146     20.44246     60.21524        10     0.865     0.847  33.86   0
        97    928.5473    832.5797 300.2355463 +22.9052531     822.7526     72.43904      1.403     3.15     4.070276     20.44246     94.35217        15     0.991     0.954  36.52   0
        98    515.5291    833.4211 300.1066005 +22.7816652     1547.232      72.4575      1.235     2.43     3.933652     20.44246     195.3835        17     0.980     0.915  72.46   0
        99    185.9752    832.6209 300.0043587 +22.6825563     373.0536     72.43904      1.386     3.28     4.584808     20.44246     53.48525         8     0.969     0.730  57.08   0
       100    544.3737    829.3192 300.1169135 +22.7891398     925.9444     72.43904      1.450     2.76     3.947657     20.44246     102.2266        16     0.980     0.952 -62.05   0
       101    555.3712    827.8378 300.1208190 +22.7920132     581.6046     72.47595      1.315     2.83     3.942178     20.44246     79.74035        10     0.906     0.761  47.37   0
       102    660.5583    824.2715 300.1547328 +22.8225335     438.5099     72.43904      1.321     3.41     4.001358     20.44246     58.72955         9     0.969     0.774 -72.67   0
       103    455.8891    821.4163 300.0919445 +22.7603320     327.3812     72.38364      1.297     3.50     3.977175     20.44246     39.50874         5     0.840     0.420 -20.71   0
       104    698.4280    814.4261 300.1697312 +22.8310626     751.1415     72.42058      1.166     2.35     4.049874     20.44246     93.69611        13     0.891     0.806  24.93   0
       105    307.3112    811.7464 300.0488707 +22.7129836     31075.39      72.4944      1.429     2.54     4.006806     20.44246     3924.477        76     1.327     1.282  71.73   0
       106    321.4940    812.2307 300.0531238 +22.7173780     2029.592     72.38364      1.473     2.58     4.007451     20.44246     244.4572        24     1.148     1.007  45.73   0
       107    830.4747    807.4175 300.2131567 +22.8686352     2720.668      72.4575      1.349     2.56     4.194816     20.44246     298.6343        23     1.096     0.998 -72.25   0
       108    859.6157    805.6063 300.2228295 +22.8768495     319.3983     72.38364      1.620     3.80      4.19533     20.44246      35.4162         5     1.039     0.398  73.09   0
       109    318.3362    806.0262 300.0541597 +22.7146512      634.977     72.43904      1.429     2.75      4.00053     20.44246     71.27866        10     0.874     0.750   8.33   0
       110    588.3493    803.6523 300.1389533 +22.7949637     884.2562      72.4944      1.373     2.28     3.978492     20.44246     133.9407        14     0.891     0.858  12.41   0
       111    424.6540    803.8810 300.0879290 +22.7459324     579.6285      72.4944      1.450     2.91     4.024972     20.44246     62.62651         6     0.850     0.528  -5.36   0
       112    189.7249    803.5757 300.0149712 +22.6753548     826.2327     72.47595      1.333     3.01     4.551775     20.44246     102.3524        14     0.948     0.919  82.48   0
       113    435.3160    798.2722 300.0930706 +22.7475219     882.8441     72.56815      1.292     2.83     4.058499     20.44246     102.0384        13     0.933     0.869  54.55   0
       114    583.5909    795.7546 300.1400405 +22.7912706     268.7341     72.47595      1.336     5.29     3.996657     20.44246     33.27153         8     1.014     0.779  52.16   0
       115    836.5331    795.2635 300.2189985 +22.8669617     524.7961     72.51285      1.287     3.15     4.218646     20.44246     68.54633         9     0.954     0.691  16.36   0
       116    337.4047    794.3793 300.0638781 +22.7170323      371.438     72.42058      1.504     5.39     4.016369     20.44246     39.64693         8     1.239     0.662  62.88   0
       117    293.4035    793.7705 300.0503923 +22.7036557     308.4914     72.42058      1.202     2.10     3.969654     20.44246     46.96766         5     0.679     0.462 -70.53   0
       118     23.0738    793.0538 299.9666145 +22.6223163     487.8516     72.47595      1.820     4.99      4.03065     20.44246     57.67987        11     1.106     0.904  14.26   0
       119    589.5328    792.8886 300.1428227 +22.7922300     315.8662     72.56815      1.106     2.55      3.99118     20.44246     62.62118         8     0.856     0.610  34.29   0
       120    381.4406    793.1577 300.0779727 +22.7298931     367.4961     72.54972      1.294     2.59     4.057494     20.44246     58.70882         7     0.789     0.625   7.82   0
       121    814.4315    789.6035 300.2139507 +22.8587122     384.0784     72.42058      1.440     4.30     4.232334     20.44246     48.15225         7     0.928     0.781  65.36   0
       122    187.5167    787.8588 300.0193963 +22.6701861     560.0396     72.56815      1.564     3.02     4.429882     20.44246     75.90937        10     0.994     0.735  72.04   0
       123    510.7057    777.9326 300.1231473 +22.7642991     305.5685       72.605      1.298     3.70     4.168655     20.44246      53.5403        10     0.963     0.745  28.66   0
       124    480.3032    776.3506 300.1141994 +22.7547270       616.47     72.51285      1.190     2.40     4.278144     20.44246     95.63031         9     0.826     0.662 -75.13   0
       125    502.2596    774.0110 300.1217938 +22.7606409     1318.232     72.42058      1.277     2.41     4.222408     20.44246     187.7435        15     0.954     0.837  49.59   0
       126    389.7332    775.1628 300.0864047 +22.7272193     316.5946     72.43904      1.304     4.13     4.142054     20.44246     46.94279         7     0.783     0.654 -77.81   0
       127    896.8368    772.7867 300.2451082 +22.8785807     1895.866      72.4575      1.376     2.63      4.24464     20.44246     563.2292        31     1.148     1.069  72.18   0
       128    422.1474    773.4594 300.0970431 +22.7364540     419.1945     72.51285      1.245     3.41     4.235843     20.44246     49.78951         5     0.763     0.441  21.96   0
       129    630.3588    769.1541 300.1632547 +22.7976606     323.4077     72.51285      1.222     3.40     4.000506     20.44246     30.32491         5     0.758     0.442  72.30   0
       130    584.1305    768.7773 300.1489823 +22.7836911     358.7954     72.47595      1.230     3.69     4.020623     20.44246     51.23929         6     0.791     0.525 -43.43   0
       131    885.3702    764.2545 300.2443081 +22.8726944     1589.834      72.4575      1.366     2.56     4.302796     20.44246     178.8241        16     0.977     0.881 -82.37   0
       132    248.1567    758.0990 300.0479243 +22.6798500     832.1788      72.4575      1.375     3.14     4.087929     20.44246     107.0243        12     0.909     0.850  42.88   0
       133    711.8069    755.4946 300.1930660 +22.8181584     2506.984     72.34668      1.408     2.46     4.112803     20.44246     322.0008        27     1.332     0.996 -10.68   0
       134    916.4886    754.3042 300.2572465 +22.8791619     1609.405     72.64182      1.423     2.66     4.284207     20.44246      169.977        18     1.034     0.941  79.17   0
       135    930.1810    745.3792 300.2644186 +22.8807015     203.8778      72.4575      1.026     4.49     4.292765     20.44246      32.2128         5     1.139     0.502 -59.92   0
       136    794.0027    741.2802 300.2232997 +22.8387154     558.7003     72.36517      1.347     3.27     4.354574     20.44246     76.55874         9     0.985     0.622  42.74   0
       137     97.0730    742.0405 300.0061898 +22.6299064     680.2081     72.43904      1.416     3.34     4.523531     20.44246     67.56779        11     0.990     0.752  46.59   0
       138    830.0493    732.4266 300.2374133 +22.8469764     147393.8     72.47595      1.338     2.36     4.406516     20.44246      19481.6       147     1.335     1.305 -78.07   0
       139    592.3456    736.0621 300.1621789 +22.7767658     291.0098     72.51285      1.121     4.13      4.04384     20.44246     45.91733         7     0.781     0.624  77.46   0
       140    977.0192    734.1846 300.2826661 +22.8915197     1259.914     72.43904      1.385     2.85     4.148334     20.44246     140.8983        18     1.050     0.935 -57.58   0
       141    682.3888    732.6246 300.1913389 +22.8027747     902.1085      72.4575      1.433     2.56     4.054759     20.44246     121.1069        15     0.972     0.885 -63.84   0
       142    862.9419    725.0674 300.2500596 +22.8547203     400.7228      72.4944      1.251     3.06     4.422366     20.44246     66.29695         9     0.901     0.710  74.87   0
       143    516.3265    721.3205 300.1433060 +22.7497408     1674.017     72.56815      1.193     2.16     4.434373     20.44246     232.8382        18     0.980     0.883  49.19   0
       144    697.4802    718.5668 300.2006109 +22.8032632     9327.478     72.43904      1.241     2.16     4.106659     20.44246     1249.503        40     1.111     1.074 -21.96   0
       145    199.0079    713.8800 300.0470231 +22.6524223     4865.087     72.40211      1.367     2.57     4.133306     20.44246     605.5376        30     1.128     1.050  40.22   0
       146    280.9760    711.9172 300.0731443 +22.6764524     1008.261     72.42058      1.300     2.48     4.009924     20.44246     147.0945        15     1.003     0.833  29.89   0
       147    179.3302    720.7661 300.0386681 +22.6484924     320.4241      72.4575      1.482     4.20     4.085393     20.44246     35.58504         6     0.741     0.680  14.53   0
       148    156.6271    709.7044 300.0352085 +22.6385079     447.4683     72.38364      1.375     3.87     4.194182     20.44246     46.40903         8     0.945     0.650 -84.85   0
       149    489.2597    707.2945 300.1394418 +22.7375994     687.7435     72.53129      1.131     2.07     4.642138     20.44246     117.0185        11     0.787     0.759  87.79   0
       150    480.9217    699.5497 300.1393648 +22.7328766     3145.378      72.4575      1.245     2.28     4.689215     20.44246     450.5446        24     1.031     0.910  63.64   0
       151    471.1785    693.1514 300.1384127 +22.7281189     1479.955      72.4575      1.285     2.09     4.681626     20.44246     221.8862        17     1.009     0.851  88.03   0
       152    399.9882    692.5283 300.1164638 +22.7065900     279.6281     72.47595      1.169     2.07     4.529562     20.44246     51.33925         6     0.733     0.499  -1.77   0
       153    864.8015    690.8781 300.2617558 +22.8454590     486.6915     72.34668      1.293     2.57      4.36488     20.44246       72.518         8     0.823     0.622 -38.46   0
       154    382.4271    690.1610 300.1117702 +22.7006438     396.3503     72.47595      1.411     3.65     4.475623     20.44246     45.06602         6     0.825     0.626  56.65   0
       155    134.3478    689.4528 300.0348685 +22.6260155     608.1541      72.4944      1.355     3.07     4.410792     20.44246     89.13726        10     0.927     0.776  74.97   0
       156    148.6950    688.0071 300.0397970 +22.6299062     591.0116     72.34668      1.366     3.50     4.374352     20.44246     76.76246        12     0.980     0.911 -31.89   0
       157    174.2701    684.7695 300.0487978 +22.6366519      565.381      72.4575      1.550     3.77      4.35795     20.44246     77.12575        12     1.046     0.904  58.95   0
       158    917.9419    684.1351 300.2805162 +22.8594443     578.7138      72.4944      1.324     2.47     4.336207     20.44246     78.60754        10     0.869     0.710   4.19   0
       159    396.0594    683.0424 300.1183253 +22.7026902      1755.31     72.43904      1.232     2.05     4.552979     20.44246     290.1978        18     0.967     0.852  69.21   0
       160    205.8112    684.6844 300.0586291 +22.6460911     264.8807     72.42058      1.218     2.68     4.341378     20.44246     45.72044         5     0.743     0.430  16.83   0
       161    495.2210    683.5794 300.1490071 +22.7325818      507.082      72.4575      1.121     2.67     4.681571     20.44246       74.375         7     0.875     0.484   7.56   0
       162    429.9588    681.9819 300.1292172 +22.7125526     351.4131     72.47595      1.439     3.54     4.639604     20.44246     33.58259         5     0.643     0.590  -0.66   0
       163    971.8174    680.1949 300.2985985 +22.8744528     749.6001     72.40211      1.298     2.89     4.381948     20.44246     97.11428        11     0.909     0.782  53.81   0
       164     49.9235    678.0262 300.0123532 +22.5974036     19643.99     72.47595      1.503     2.89     4.331157     20.44246     2020.694        60     1.363     1.280  42.20   0
       165    480.9047    678.2266 300.1462916 +22.7267528     1073.411     72.40211      1.348     2.34     4.716336     20.44246     139.6075        15     0.951     0.873  44.47   0
       166    516.0335    677.0320 300.1576136 +22.7369435     287.4105     72.47595      1.228     2.62     4.679519     20.44246     71.03613         8     0.899     0.622  88.47   0
       167    536.1946    670.5721 300.1659894 +22.7411346     398.4431      72.4575      1.418     2.97     4.699183     20.44246     44.46026         5     0.716     0.477 -14.27   0
       168    234.3879    669.7932 300.0723532 +22.6503940     262.7395     72.32819      1.135     3.28     4.366104     20.44246     35.86498         5     0.720     0.470 -76.25   0
       169    564.0571    666.0957 300.1761186 +22.7482035      144.493     72.53129      1.127     3.39     4.574623     20.44246     36.17629         5     0.636     0.594 -83.80   0
       170    898.8337    664.2274 300.2810302 +22.8480013     990.6119     72.47595      1.264     2.66     4.344856     20.44246     129.8773        17     1.036     0.904 -45.16   0
       171    765.6735    662.3713 300.2401274 +22.8075678     511.1255     72.47595      1.253     3.03      4.29439     20.44246     68.82594         8     0.888     0.710 -68.09   0
       172     62.1574    662.7755 300.0211107 +22.5967028     412.8994     72.51285      1.643     3.58     4.428906     20.44246     51.22837         7     0.968     0.662 -59.33   0
       173    444.3099    658.9535 300.1411685 +22.7102486     439.5346     72.43904      1.054     1.86     4.701193     20.44246     94.16617         7     0.697     0.610 -73.20   0
       174    237.1277    657.8968 300.0770719 +22.6478039     172.7015     72.58658      1.399     3.30     4.368566     20.44246     36.47452         6     0.904     0.591  67.42   0
       175    839.2946    657.0193 300.2648120 +22.8280921     857.3842     72.38364      1.520     2.64     4.350035     20.44246     98.57713        10     0.878     0.712  27.57   0
       176    592.4566    654.8043 300.1886314 +22.7534765     317.2674     72.42058      2.360     4.28     4.380538     20.44246     27.55406         5     0.912     0.572  42.03   0
       177    583.7502    655.6655 300.1856405 +22.7511137      267.914      72.4575      1.253     2.23     4.445071     20.44246     50.72826         5     0.712     0.440  17.80   0
       178    401.0000    651.2095 300.1302101 +22.6950385     703.9451     72.27271      1.265     3.06     4.638803     20.44246     101.2901        12     1.051     0.709  72.22   0
       179    549.0677    649.6974 300.1767824 +22.7390029     375.5943     72.54972      0.997     1.90     4.762543     20.44246     81.26501         7     0.686     0.601  11.93   0
       180    596.1250    648.1251 300.1919447 +22.7526590     492.9066     72.54972      1.292     4.29     4.357072     20.44246     65.40797         8     0.969     0.733  11.14   0
       181    566.6541    647.6234 300.1829318 +22.7436800     595.7783     72.47595      1.153     2.34     4.612963     20.44246     92.60404         9     0.894     0.598   6.62   0
       182    445.3533    646.9691 300.1453886 +22.7071225     1024.078      72.4944      1.403     2.84     4.724002     20.44246     132.0852        12     0.991     0.765  24.62   0
       183    878.9974    642.3862 300.2819457 +22.8357849      3339.41     72.29121      1.289     2.28     4.372239     20.44246     455.3253        24     1.026     0.968  69.12   0
       184    410.7605    642.5791 300.1360519 +22.6954892     1778.117      72.4944      1.280     2.28     4.664639     20.44246     238.9228        18     0.982     0.883 -17.15   0
       185    977.1223    640.5723 300.3131338 +22.8646590     692.4842     72.47595      1.317     2.95     4.436774     20.44246      91.7605        12     1.009     0.752 -35.19   0
       186    761.3364    638.2297 300.2466234 +22.7993357     263.5168     72.47595      1.100     2.18     4.332451     20.44246     47.10838         5     0.695     0.452  74.91   0
       187    386.6174    637.5660 300.1301701 +22.6868105     169.1386     72.43904      1.067     3.89     4.643676     20.44246     45.15674         6     0.891     0.486 -89.25   0
       188    440.0771    633.2238 300.1482145 +22.7015959      379.531     72.47595      1.157     2.90     4.736829     20.44246     63.21054         7     0.823     0.678   8.44   0
       189    918.3063    632.2714 300.2974897 +22.8446557     389.3245     72.56815      1.350     2.60     4.384685     20.44246     54.00941         6     0.688     0.632 -74.92   0
       190    274.2083    629.2610 300.0979080 +22.6507133      9225.21     72.43904      1.290     2.29     4.330548     20.44246     1155.166        39     1.167     1.055  81.54   0
       191    396.6024    626.2587 300.1369515 +22.6865604     9013.819     72.42058      1.250     2.17     4.675769     20.44246     1277.925        39     1.136     1.048  68.59   0
       192    643.0769    622.7795 300.2148043 +22.7594569     384.3433      72.4575      1.349     2.53     4.226299     20.44246     51.47862         7     0.753     0.678 -62.44   0
       193   1001.1534    621.4822 300.3268347 +22.8663722     971.6299     72.43904      1.381     3.06     4.472965     20.44246     112.0036        15     1.080     0.839  60.65   0
       194    892.9251    617.5067 300.2943748 +22.8328109     12454.11       72.605      1.291     2.15      4.40211     20.44246     1842.363        44     1.137     1.097  84.79   0
       195    808.2142    620.1113 300.2671214 +22.8081794     1863.557     72.40211      1.274     2.05     4.379376     20.44246     292.8518        20     1.055     0.916 -85.16   0
       196    457.2198    615.8116 300.1592080 +22.7017394     11621.36     72.42058      1.235     2.09     4.813051     20.44246     1865.105        42     1.118     1.043  73.94   0
       197    626.9490    611.4737 300.2134560 +22.7513770     508.2166     72.47595      1.310     2.97     4.251578     20.44246     82.05294         9     0.936     0.676 -43.28   0
       198    184.6536    611.3974 300.0758726 +22.6187247     1214.913     72.42058      1.221     2.18     4.456345     20.44246     187.4238        15     0.907     0.883  41.96   0
       199    342.3990    610.3290 300.1252674 +22.6657344      333.575     72.36517      1.233     3.91     4.651722     20.44246     57.74628         6     0.724     0.691 -44.68   0
       200    431.3668    608.9404 300.1533963 +22.6920155     517.3073      72.4944      1.341     2.49     4.748195     20.44246     68.85118         7     0.812     0.539 -60.80   0
       201    491.6403    606.8114 300.1728453 +22.7094765     264.7359      72.4575      1.006     2.04     4.924874     20.44246     47.49809         5     0.693     0.448  70.96   0
       202    388.8517    604.0126 300.1417700 +22.6778527     4377.015      72.4944      1.266     2.11     4.715243     20.44246     732.0516        27     1.091     0.950  67.73   0
       203    731.9694    604.0428 300.2485845 +22.7807181     894.2939      72.4944      1.317     2.11     4.362792     20.44246     138.9991        10     0.833     0.700  -7.58   0
       204    367.2043    602.4709 300.1355369 +22.6709187     1329.577     72.40211      1.223     2.18     4.728224     20.44246     182.0574        14     0.896     0.804 -86.09   0
       205    121.2488    601.9137 300.0592497 +22.5969824     722.8218     72.43904      1.290     2.73     4.546227     20.44246     119.7238        15     1.040     0.891  45.35   0
       206    505.4828    591.5709 300.1821066 +22.7092521     199282.5     72.47595      1.183     2.03     4.991433     20.44246     29828.88       198     1.371     1.347 -50.95   0
       207    808.6618    599.4852 300.2739646 +22.8023894     1540.644     72.58658      1.246     2.35       4.3822     20.44246     206.4172        17     1.003     0.859 -16.95   0
       208    329.0425    597.6005 300.1252496 +22.6580767     232.1901      72.4575      1.017     2.17     4.637983     20.44246     70.74225         7     0.849     0.526  56.00   0
       209    689.1724    596.4821 300.2377087 +22.7657217     774.9448      72.4575      1.095     2.14      4.26045     20.44246     130.2117         9     0.764     0.701  44.88   0
       210    782.6071    594.6199 300.2674257 +22.7931854     302.6622     72.42058      1.480     3.62     4.368024     20.44246     41.92144         5     0.941     0.436  74.65   0
       211    191.6863    591.6188 300.0844858 +22.6151614     3123.309     72.40211      1.331     2.28     4.573894     20.44246     511.8978        25     1.079     1.022 -60.25   0
       212    757.6191    587.5282 300.2619436 +22.7836614     654.3176      72.4944      1.174     2.69     4.345769     20.44246     72.51099         7     0.883     0.514 -48.60   0
       213    975.6840    584.2338 300.3309964 +22.8480413     132.4806     72.42058      1.077     3.80     4.447784     20.44246     38.31365         5     1.059     0.392 -75.25   0
       214    537.0527    578.2861 300.1962507 +22.7149029     322.4823      72.4944      1.444     2.72     5.060731     20.44246     39.70749         7     0.708     0.674  16.91   0
       215    396.1520    572.1349 300.1544000 +22.6708940     2712.636      72.4944      1.355     2.07     4.763534     20.44246     436.0112        27     1.285     0.974 -81.26   0
       216    240.3220    574.5176 300.1051618 +22.6248448     521.6392     72.56815      1.346     3.14     4.775878     20.44246     55.01166         7     0.919     0.487   8.35   0
       217    846.1415    571.8058 300.2946422 +22.8056676     249.2397     72.42058      1.086     2.73     4.395819     20.44246     57.90817         6     0.770     0.514 -34.98   0
       218    807.5342    568.1158 300.2838074 +22.7930414     576.6597     72.56815      1.459     2.37      4.35775     20.44246     64.46275         6     0.757     0.498 -87.31   0
       219    626.9374    567.2864 300.2278120 +22.7386868     338.9741     72.56815      1.149     2.54     4.547099     20.44246     43.78994         7     0.699     0.667  34.49   0
       220    713.1951    560.2304 300.2569728 +22.7625103     395.5065     72.43904      1.225     2.56     4.252155     20.44246     62.77756         8     0.776     0.661 -39.00   0
       221    793.0526    557.9636 300.2825929 +22.7857866     1577.726     72.47595      1.178     1.89     4.332122     20.44246     324.3797        15     0.894     0.793  20.83   0
       222    664.2770    555.7112 300.2432027 +22.7465535     2479.433       72.605      1.161     1.89     4.306373     20.44246     441.0417        18     0.916     0.865 -88.67   0
       223     24.5652    556.2885 300.0440376 +22.5548890     310.6834     72.43904      1.352     4.16     4.455008     20.44246      34.0014         6     0.912     0.543  47.59   0
       224    908.4333    552.9652 300.3201849 +22.8189146     515.4743     72.53129      1.391     2.25     4.413312     20.44246      80.8041         8     0.798     0.640  44.82   0
       225    873.5331    552.2365 300.3095403 +22.8082513     282.8857      72.4575      1.115     2.97     4.413312     20.44246     47.03569         5     0.740     0.435  65.89   0
       226    569.0944    552.2142 300.2146977 +22.7170227     428.4921     72.38364      1.185     2.30     5.009503     20.44246     74.63324         8     0.770     0.649  30.42   0
       227    451.3881    551.6699 300.1782363 +22.6815818     836.5881     72.47595      1.344     2.34     4.931709     20.44246     122.8443        12     0.883     0.786 -74.02   0
       228    921.5466    549.5361 300.3253882 +22.8218570     1247.118     72.49441      1.221     2.17     4.413312     20.44246     179.7397        16     0.899     0.885  -0.56   0
       229    907.3616    548.4041 300.3213328 +22.8172831     751.7398      72.4944      1.310     2.50     4.413312     20.44246      92.2552        11     0.925     0.708 -40.81   0
       230    793.4272    548.3742 300.2858256 +22.7831444     2222.752     72.42058      1.241     2.07     4.321477     20.44246     279.2977        18     1.002     0.849  54.77   2
       231    546.7877    546.2565 300.2096886 +22.7086261      788.938      72.4575      1.649     2.07      5.12989     20.44246     103.6264         9     0.810     0.651  74.87   0
       232    332.7784    546.2086 300.1431103 +22.6444508     284.8751      72.4575      1.091     2.37     4.854227     20.44246      58.5633         6     0.702     0.623  87.94   0
       233    831.4582    543.0463 300.2994102 +22.7930073     4379.422     72.51285      1.224     2.10     4.370056     20.44246     631.0069        28     1.030     0.985  84.01   0
       234    385.1159    545.2369 300.1597062 +22.6598656     373.3858     72.43904      1.050     2.06      4.84722     20.44246     89.58283         9     0.842     0.610 -68.72   0
       235    492.1206    539.2125 300.1949604 +22.6902171     525.9598     72.43904      1.627     3.31     5.099702     20.44246     54.46198         6     0.848     0.568 -86.28   0
       236     63.3948    533.6998 300.0634378 +22.5600616      984.293     72.34668      1.451     2.83     4.452269     20.44246     140.7037        14     1.102     0.901  52.18   0
       237    923.1756    533.4880 300.3311105 +22.8177339     687.5425     72.42058      1.105     2.37     4.421104     20.44246     113.9564        10     0.843     0.697  62.87   0
       238    724.3804    527.2751 300.2711652 +22.7563971     325.0901      72.4575      1.027     2.67      4.24795     20.44246     50.72014         5     0.703     0.465  74.63   0
       239    110.9789    525.8367 300.0807762 +22.5720819     277.3181     72.47595      1.467     3.05     4.538527     20.44246     41.21581         5     0.892     0.630 -30.27   0
       240     55.8371    524.1697 300.0641858 +22.5550610     469.0064     72.47595      1.422     6.42     4.415094     20.44246      48.6687        13     1.375     0.842  60.26   0
       241    919.6669    522.3731 300.3336277 +22.8134893     361.1633     72.43904      1.212     2.91     4.428248     20.44246     45.11277         8     0.910     0.586  68.17   0
       242    663.8222    517.4313 300.2554982 +22.7354244     507.6392      72.4575      1.119     2.24      4.31786     20.44246     88.15108         9     0.829     0.644  76.89   0
       243    552.9271    515.6758 300.2215352 +22.7016865     360.2277     72.53129      1.155     2.58     4.913753     20.44246     57.94958         7     0.725     0.633  42.57   0
       244    604.8306    513.4808 300.2384092 +22.7166120     728.3466      72.4575      1.162     2.17     4.669204     20.44246     143.4937        13     0.989     0.760  88.98   0
       245   1012.4161    511.2366 300.3661734 +22.8380644     952.9699      72.4575      1.286     2.48     4.555166     20.44246     117.2443        13     0.946     0.774  52.23   0
       246    919.5869    505.8230 300.3389795 +22.8087098     696.6741     72.43904      1.250     2.23     4.438638     20.44246     104.2428         8     0.830     0.610 -88.75   0
       247    665.7389    505.9196 300.2598350 +22.7326928     929.2295     72.53129      1.243     2.08     4.306121     20.44246     152.0428        11     0.799     0.768 -89.53   0
       248    822.9058    502.0741 300.3100559 +22.7786749     963.6833       72.605      1.165     1.94     4.364967     20.44246     174.2274        11     0.870     0.685 -85.39   0
       249    807.1101    498.3436 300.3063445 +22.7728715     681.0195     72.51285      1.178     2.12      4.33565     20.44246      106.772         9     0.782     0.669  59.18   0
       250    787.6825    498.6494 300.3001903 +22.7671396     266.0193     72.47595      1.103     3.30     4.314981     20.44246       44.459         6     0.839     0.518 -46.59   0
       251    551.5361    496.4651 300.2273429 +22.6957538     3292.866     72.49441      1.118     2.00     4.783966     20.44246     461.4191        20     0.952     0.862 -84.35   0
       252    912.0935    495.1778 300.3401012 +22.8034067     435.8077     72.38364      1.157     2.59     4.445782     20.44246      71.2866         8     0.772     0.664 -43.22   0
       253     27.1387    487.4287 300.0672054 +22.5359137     383.1419      72.4575      1.453     5.72      4.34947     20.44246     41.15226         9     1.237     0.744  54.78   0
       254   1022.8981    484.2490 300.3782107 +22.8334463     520.5399     60.66419      1.280     2.82     4.657026     20.44246     75.75314        11     0.944     0.737  24.87  24
       255    556.8115    484.2679 300.2329472 +22.6938327     348.1722     72.47595      1.218     2.44     4.680431     20.44246     56.66354         6     0.718     0.603 -88.31   0
       256    391.4737    483.4499 300.1817559 +22.6440383     374.7945      72.4575      1.042     2.42     4.804593     20.44246     64.52081         6     0.775     0.497  -1.80   0
       257    962.8151    475.4027 300.3623427 +22.8129132     1329.789     72.29121      1.241     2.25     4.526514     20.44246     187.1361        18     0.981     0.943  47.39   0
       258    921.1420    474.0579 300.3497834 +22.8000475      979.621     72.53129      1.241     2.22     4.454873     20.44246     144.9259        12     0.901     0.732 -75.28   0
       259    834.6093    475.2731 300.3224101 +22.7744804     609.5083      72.4575      1.180     2.16     4.391486     20.44246     91.20391         8     0.823     0.581  24.85   0
       260    662.0357    470.3495 300.2702359 +22.7213674     1058.834     72.47595      1.180     2.02     4.340984     20.44246     187.3535        11     0.855     0.674  69.50   0
       261    457.8026    471.1061 300.2064039 +22.6603785     395.7904     72.36517      1.237     2.22     4.706112     20.44246     70.11409         6     0.705     0.557 -47.30   0
       262    165.8983    468.8318 300.1163593 +22.5722025     629.5267     72.43904      1.251     2.55     4.418795     20.44246     103.5843        11     0.900     0.763  18.38   0
       263    228.3988    464.4573 300.1372082 +22.5896914     3704.089     72.40211      1.277     2.30     4.665564     20.44246     471.5373        25     1.070     0.989  66.62   0
       264    961.5397    462.7071 300.3660688 +22.8088826     4300.901     72.53129      1.231     2.05      4.51483     20.44246     633.4988        29     1.092     0.979  62.82   0
       265    175.6433    459.2318 300.1225060 +22.5723709     7556.348     72.51285      1.330     2.34     4.482025     20.44246     984.4662        39     1.199     1.072  67.95   0
       266    941.4529    453.8415 300.3626839 +22.8003198     1998.915      72.4575      1.235     1.99     4.474064     20.44246     301.0758        19     1.092     0.845 -89.30   0
       267    316.4353    453.4463 300.1681592 +22.6129294     4724.578     72.49441      1.183     2.11     4.938915     20.44246     624.4141        27     1.027     0.965  57.18   0
       268    560.6099    450.0196 300.2452537 +22.6851367     18168.39     72.43904      1.183     1.93     4.653204     20.44246     3156.876        51     1.137     1.011  77.38   0
       269    578.2572    450.5439 300.2505780 +22.6905756     823.8879     72.53129      1.967     6.02     4.606157     20.44246     66.99687        18     1.635     1.005 -31.12   0
       270    554.5986    449.1403 300.2436678 +22.6830828     519.5103     72.42058      2.843     3.44      4.66929     20.44246     31.45056         5     0.763     0.449 -71.42   0
       271    757.1967    440.5442 300.3095634 +22.7413148     354.8015     72.42058      1.150     3.28     4.351682     20.44246     57.18173         6     0.787     0.608 -25.19   0
       272    181.0613    437.3228 300.1313050 +22.5677096     407.4968     72.51285      1.393     5.08     4.555056     20.44246     43.17558         9     1.117     0.654  44.44   0
       273    894.1200    432.3625 300.3549002 +22.7799731     845.1234     72.42058      1.356     2.25     4.454873     20.44246     120.2392        11     0.817     0.759  42.04   0
       274    431.1079    432.0948 300.2107667 +22.6411773     345.2307     72.62341      1.114     2.44     4.708553     20.44246     60.35976         7     0.834     0.521  46.39   0
       275    115.3331    430.2776 300.1131656 +22.5459758     2073.445     72.54972      1.345     2.50     4.406159     20.44246     237.2782        20     1.039     0.963 -87.30   0
       276    603.5750    430.9301 300.2648315 +22.6925293      408.101      72.4575      1.397     2.78     4.596875     20.44246     52.25537         8     0.838     0.667  34.72   0
       277    501.2835    419.5023 300.2366958 +22.6585945      6554.74     72.62341      1.162     2.02     4.676568     20.44246     997.9542        32     1.102     0.921  67.60   0
       278    914.8766    419.6522 300.3655002 +22.7825358     1151.524      72.4575      1.151     1.86     4.454873     20.44246      252.216        15     0.896     0.816 -44.63   0
       279    216.0289    418.9392 300.1481444 +22.5729204     612.7009     72.47595      1.225     2.44     4.714078     20.44246      89.5685         9     0.767     0.726  46.89   0
       280     73.4958    412.1648 300.1060477 +22.5282311     408.8799      72.4575      1.264     3.40     4.389793     20.44246     61.22953         9     0.924     0.650 -10.95   0
       281    760.9922    410.8655 300.3203845 +22.7339250     329.8409     72.43904      1.300     2.96     4.416831     20.44246     55.11696         6     0.859     0.636  69.25   0
       282    615.1501    409.6838 300.2753356 +22.6898954     488.9326     72.43904      1.133     1.98     4.619537     20.44246     92.47407         9     0.798     0.647  74.60   0
       283    705.3859    408.3849 300.3038642 +22.7165558     1255.037     72.40211      1.269     2.14     4.466657     20.44246     151.3297        16     0.995     0.777  65.27   0
       284    189.3916    408.1074 300.1433811 +22.5618246     233.9469     72.36517      1.175     2.99     4.641724     20.44246     43.78857         6     0.748     0.612 -24.76   0
       285    407.9055    405.7863 300.2120903 +22.6266696     6062.925     72.38364      1.243     2.04      4.74439     20.44246      1049.79        30     1.081     0.955  55.92   0
       286    799.9002    400.0846 300.3360107 +22.7424808     1383.044     72.62341      1.142     2.12     4.443338     20.44246     243.2252        14     0.883     0.841 -87.95   0
       287    897.1508    400.0059 300.3663529 +22.7715815     619.1322     72.43904      1.237     2.67     4.448752     20.44246     110.7995        10     0.878     0.731 -72.79   0
       288    392.5235    394.4182 300.2109958 +22.6187954     597.8284      72.4575      1.187     2.36     4.796279     20.44246     74.36221        10     0.886     0.681 -78.99   0
       289    475.2936    392.5822 300.2373478 +22.6430756     426.5147     72.38364      1.202     2.32      4.67739     20.44246     72.53445        11     0.883     0.763  13.39   0
       290    455.8919    390.0511 300.2321315 +22.6365343     162.1935     72.51285      1.179     2.86     4.684242     20.44246     44.80163         6     0.843     0.636  45.17   0
       291    772.7673    387.9445 300.3314968 +22.7308661     522.7645     72.47595      1.135     2.58     4.574146     20.44246     90.08289         9     0.861     0.658 -86.70   0
       292    295.4522    385.0961 300.1838282 +22.5870206     2343.692     72.53129      1.244     2.22     4.931735     20.44246       343.72        20     1.007     0.885  67.26   0
       293     13.8930    382.6547 300.0971137 +22.5018878     944.4001     72.51285      1.359     2.88      4.77168     20.44246     106.1949        15     0.973     0.928  53.84   0
       294    642.7188    379.4272 300.2937460 +22.6894639     277.2768      72.4575      1.270     3.27     4.602999     20.44246     45.00512         5     0.960     0.364  22.12   0
       295    264.7713    374.4715 300.1777370 +22.5747730     29570.96      72.4575      1.273     2.21     4.906181     20.44246     4186.547        73     1.236     1.179  71.87   0
       296    799.4677    371.8979 300.3450282 +22.7342517     1261.037     72.54972      1.098     1.86      4.68329     20.44246     218.1076        15     0.866     0.809  70.00   0
       297    754.9850    369.3235 300.3320015 +22.7201897     403.3589     72.47595      1.454     4.03     4.729867     20.44246     48.78481         8     1.133     0.700 -22.50   0
       298    139.2173    360.7571 300.1431595 +22.5331915     567.2509     72.47595      1.643     3.85     4.532381     20.44246     62.81321        11     1.080     0.847  69.32   0
       299    839.6218    360.0753 300.3613827 +22.7428789     358.3225     72.43904      1.852     4.58     4.612635     20.44246     32.12015         7     1.840     0.324 -44.11   0
       300    714.7636    360.5904 300.3223044 +22.7056336     537.9612      72.4575      1.126     2.57      4.74159     20.44246     98.86044        10     0.842     0.807 -75.07   0
       301    363.4161    359.7867 300.2131842 +22.6001283     550.6998     72.40211      1.202     2.18     4.896183     20.44246      100.523         9     0.919     0.556  28.66   0
       302    675.2542    354.0688 300.3121133 +22.6919255     2067.111      72.4944      1.262     2.07     4.679262     20.44246     334.0126        21     1.061     0.892  66.52   0
       303    483.4733    348.6894 300.2541441 +22.6329226     332.2491     72.62341      1.110     3.06     4.692148     20.44246     67.98736         6     0.909     0.473  55.52   0
       304    890.2412    346.9377 300.3814292 +22.7542598      584.717     72.43904      1.180     2.15     4.472126     20.44246     102.5333        10     0.805     0.709  23.54   0
       305    336.9709    338.8790 300.2117453 +22.5861992     2129.874      72.4575      1.421     2.67     5.017273     20.44246     303.8594        23     1.278     0.877  74.51   0
       306    549.1603    337.4933 300.2782263 +22.6493890      286.941     72.47595      1.279     3.76     4.740163     20.44246     46.88857         6     0.813     0.499   3.23   0
       307    776.3593    331.3990 300.3509745 +22.7156933     596.9178     72.47595      1.134     2.30     4.861431     20.44246     118.1126        12     0.929     0.741 -45.41   0
       308    675.7238    329.2664 300.3203114 +22.6849403     323.1785     72.54972      1.044     2.60     4.763442     20.44246     52.35936         6     0.714     0.577 -34.27   0
       309    658.4941    329.1816 300.3149719 +22.6797551     394.5937     72.38364      1.154     3.41     4.748041     20.44246     65.27589         6     0.784     0.499  87.65   0
       310    626.8398    328.6625 300.3052813 +22.6701239     308.7646      72.4575      1.123     2.81     4.726321     20.44246     48.60088         6     0.718     0.643 -42.59   0
       311    412.7456    318.2672 300.2420092 +22.6029915     1253.883      72.4944      1.307     2.29      4.88337     20.44246     173.9059        16     1.038     0.817  80.07   0
       312    497.7984    315.6197 300.2693377 +22.6277176     327.7852     72.38364      1.283     3.44     4.833703     20.44246     29.31428         5     0.768     0.445  18.05   0
       313    924.3171    313.7493 300.4028287 +22.7549215     366.6743     72.47595      1.159     2.43     4.463975     20.44246     79.40414         6     0.837     0.460 -84.24   0
       314    818.5770    310.7676 300.3708298 +22.7224060     202.8173      72.4575      1.165     3.40     4.832009     20.44246     29.82179         5     0.758     0.440  68.70   0
       315    657.6381    309.9406 300.3209510 +22.6739706      2211.93     72.47595      1.167     2.10      4.81091     20.44246     376.9327        21     0.959     0.908  58.63   0
       316    918.8571    304.2776 300.4042006 +22.7505641     3019.631      72.4944      1.188     1.94     4.511173     20.44246     507.0807        21     0.959     0.901  73.07   0
       317    979.8461    298.8543 300.4249821 +22.7672615     406.6053      72.4944      1.255     2.90     4.495378     20.44246     74.22971         6     0.879     0.532  23.19   0
       318    365.9633    293.8647 300.2353747 +22.5819644     447.2943      72.4575      1.184     2.46     5.329316     20.44246     96.85695        10     0.849     0.730  57.88   0
       319    988.3200    292.0778 300.4298249 +22.7678494     1612.787     72.56815      1.289     2.37     4.499426     20.44246     219.6044        18     1.038     0.875  58.13   0
       320     40.7163    288.2890 300.1360758 +22.4828592     1438.012     72.56815      1.630     3.47     5.006963     20.44246     142.5656        21     1.321     0.976 -37.91   0
       321     71.4575    287.9631 300.1457318 +22.4919840     637.1463      72.4575      1.389     3.40     5.009982     20.44246      78.9671        11     0.979     0.843  41.90   0
       322    934.7900    284.5655 300.4155675 +22.7496665     501.7757     72.42058      1.148     2.31      4.52055     20.44246     73.91896         7     0.784     0.582  79.19   0
       323    778.2180    281.5681 300.3677285 +22.7019289     275.6052     72.43904      1.213     3.72     4.893199     20.44246     49.27551         6     0.970     0.494  -2.61   0
       324    124.9064    280.1199 300.1648850 +22.5057596     512.0715     72.58658      1.340     2.90     4.968162     20.44246     73.37073        11     0.996     0.711 -86.12   0
       325    800.9314    273.5443 300.3774115 +22.7064238     337.5865      72.4944      1.017     1.80     4.892493     20.44246     63.58439         6     0.691     0.493  -8.66   0
       326    729.2469    271.5121 300.3557320 +22.6843746     702.0693     72.43904      1.116     2.23     4.897268     20.44246     99.41518         8     0.790     0.613  46.78   0
       327    319.6778    271.0470 300.2283825 +22.5615409     304.5287      72.4575      1.218     3.40     5.134742     20.44246     60.71177         7     0.769     0.602  65.50   0
       328    819.7045    264.2336 300.3862847 +22.7093684     285.4241     72.43904      0.899     2.50     4.878664     20.44246     59.36832         5     0.721     0.440 -77.94   0
       329      3.9053    263.3099 300.1327474 +22.4646528     283.5493      68.7645      1.273     3.33     4.934091     20.44246     43.07484         5     0.733     0.696  49.93  16
       330    827.4463    260.3398 300.3899615 +22.7105670     2056.127      72.4944      1.164     2.11     4.874629     20.44246     303.2184        19     0.984     0.860 -76.99   0
       331    245.9661    257.8974 300.2097271 +22.5356725     2111.952     72.43904      1.289     2.20      5.02061     20.44246     315.6717        18     0.991     0.846  57.01   0
       332    133.3192    258.4215 300.1745407 +22.5020543     183.4922     72.42058      1.689     3.54     5.135423     20.44246     38.97863         6     1.061     0.699 -78.48   0
       333    323.9591    252.7678 300.2356459 +22.5575755     1172.589     72.51285      1.520     2.72     5.106014     20.44246     136.1566        18     1.100     0.906  22.25   0
       334     75.7244    253.2164 300.1583330 +22.4832922     326.6326      72.4575      1.393     4.11     5.167277     20.44246     31.22513         6     0.748     0.645  11.82   0
       335    725.8108    252.0522 300.3609767 +22.6777531     569.0382      72.4575      1.195     2.08     4.902887     20.44246     111.3278        10     0.804     0.700  32.66   0
       336    371.4146    249.7627 300.2513827 +22.5709338     260.8021      72.4575      1.074     3.03     5.174768     20.44246     31.48476         5     0.716     0.465 -72.74   0
       337    833.2284    248.7933 300.3955110 +22.7089789     452.8423      72.4575      1.405     4.19     4.874091     20.44246     66.51343         6     0.995     0.504 -22.72   0
       338    258.7970    244.4848 300.2180689 +22.5356676      234.549     72.38364      1.320     3.62     5.021801     20.44246     39.18924         5     0.978     0.387  82.94   0
       339    140.7355    244.8857 300.1812376 +22.5003926     664.5921     72.54972      1.345     3.07      5.24057     20.44246     83.46727        12     1.036     0.791  49.50   0
       340    678.5634    241.9629 300.3495310 +22.6607049     1557.856     72.53129      1.155     1.99     4.905702     20.44246     272.8746        15     0.890     0.798  64.31   0
       341    743.4669    241.4550 300.3699170 +22.6799944     669.1627     72.51285      1.151     2.16     4.904712     20.44246     94.47292        10     0.839     0.691  23.34   0
       342    162.0866    238.0939 300.1900773 +22.5048439     552.1182     72.64182      1.396     3.57      5.28766     20.44246     61.58329        11     1.031     0.745  45.76   0
       343    950.0529    234.2406 300.4366597 +22.7397654     871.5376     72.43904      1.194     2.28     4.734045     20.44246     136.1857        10     0.849     0.695  62.03   0
       344    603.1600    232.6387 300.3290712 +22.6354429     1306.774     72.53129      1.204     2.18     4.938818     20.44246     223.0793        15     0.950     0.795  71.60   0
       345    452.0921    234.4869 300.2814425 +22.5907202     309.3374     72.62341      1.128     2.04     4.988405     20.44246     50.05634         6     0.720     0.499  -2.23   0
       346    682.4598    233.1417 300.3536072 +22.6593368     692.9839     72.53129      1.089     2.43     4.908231     20.44246     103.2117         9     0.782     0.728  47.43   0
       347    424.3463    229.2588 300.2745047 +22.5809057     291.6728     72.51285      1.184     2.27     5.009894     20.44246     60.57943         5     0.726     0.426  68.82   0
       348    798.5076    224.0813 300.3927075 +22.6914804     1340.249       72.605      1.153     2.13     4.893327     20.44246     220.0911        16     0.910     0.784  81.97   0
       349    529.3175    224.3638 300.3087644 +22.6109473     978.1008     72.43904      1.220     2.15     4.967568     20.44246     136.9462        14     0.926     0.776  28.13   0
       350    810.6246    223.0628 300.3968147 +22.6948152     730.7085     72.43904      1.161     2.22     4.889782     20.44246     107.0475         9     0.762     0.684 -33.69   0
       351    971.3687    213.8802 300.4499147 +22.7402901     1674.667      72.4575      1.278     2.30     4.723814     20.44246     263.2115        18     1.042     0.830  74.42   0
       352    927.2455    213.4071 300.4363070 +22.7269485     1114.707     72.47595      1.209     2.13     4.865264     20.44246     169.7632        17     1.088     0.845 -56.85   0
       353    161.3762    206.5572 300.2000884 +22.4955781     659.3381     72.51285      1.279     2.83     5.495206     20.44246     110.2332        13     1.069     0.752  66.85   0
       354     23.1530    201.4313 300.1588025 +22.4526680     2048.556      72.4944      1.429     2.47     5.185883     20.44246     256.0763        25     1.203     1.052  35.94   0
       355    846.2461    198.0014 300.4160501 +22.6982741     749.2744      72.4575      1.257     3.39     4.887268     20.44246     107.7306        11     1.053     0.668  67.26   0
       356    180.5952    194.7459 300.2098940 +22.4979482     5507.513     72.43904      1.363     2.40     5.503915     20.44246     736.9379        36     1.224     1.052  56.64   0
       357    162.2139    195.6113 300.2038998 +22.4926870     311.3177     72.36517      1.448     3.60     5.534441     20.44246     44.72374         7     0.827     0.658 -80.77   0
       358    164.0369    185.7176 300.2076759 +22.4903931     687.7023     72.42058      1.369     3.39     5.569617     20.44246     82.81014        12     1.047     0.766 -79.09   0
       359    979.4494    181.9668 300.4627896 +22.7335306      18218.2      72.4944      1.315     2.37     4.799703     20.44246     2470.773        57     1.284     1.108  75.34   0
       360    824.6689    176.1201 300.4164228 +22.6855242     3535.459     72.56815      1.243     2.21      4.90033     20.44246     506.8242        26     1.095     0.927  76.62   0
       361    928.3754    174.9421 300.4491391 +22.7162258     2751.009      72.4575      1.293     2.15     4.904506     20.44246     408.8629        24     1.070     0.956  63.29   0
       362    374.2224    171.5631 300.2776274 +22.5493164     591.8655     72.47595      1.234     2.46     5.091709     20.44246     93.95683         9     0.843     0.678  45.04   0
       363    127.1216    172.4687 300.2005006 +22.4755243     339.6838     72.56815      1.397     3.04     5.624041     20.44246       40.772         6     0.776     0.499   0.28   0
       364    488.7077    169.1311 300.3140422 +22.5829148     344.8318     72.58658      1.230     2.73      4.95505     20.44246     46.70705         7     0.743     0.640  88.91   0
       365    298.4449    163.0962 300.2568029 +22.5241795     933.5223     72.47595      2.211     3.73     4.918246     20.44246     76.27116        12     1.084     0.901 -63.26   0
       366     64.2500    160.0534 300.1849917 +22.4531135     639.9314      72.4944      1.470     3.49     5.624375     20.44246     71.56292        14     1.149     0.875  62.22   0
       367    425.5637    158.6750 300.2977824 +22.5609958     1759.012     72.40211      1.246     2.19     5.072803     20.44246     251.8642        20     1.027     0.945  46.90   0
       368    353.3585    158.8284 300.2752676 +22.5394076     427.1381     72.47595      1.191     4.14      5.09629     20.44246     60.60839         7     1.004     0.518  63.59   0
       369    487.0209    157.8896 300.3171637 +22.5791799     358.4866     72.38364      1.180     2.73     4.956551     20.44246     47.23281         5     0.631     0.579  87.89   0
       370    249.2624    154.6840 300.2442373 +22.5070256     205.4462     72.54972      1.272     4.34     5.390008     20.44246     30.18969         5     0.945     0.569  51.58   0
       371    168.8311    154.4615 300.2193047 +22.4828567     413.2528     72.47595      1.305     3.39     5.666502     20.44246      63.8097         8     0.950     0.638  36.53   0
       372    713.7682    148.0470 300.3909684 +22.6442538     341.2921      72.4944      1.304     2.06     5.051164     20.44246     73.97028         7     0.744     0.576  74.94   0
       373    859.6560    142.7513 300.4381543 +22.6864021     334.9518      72.4944      1.317     3.41      4.90835     20.44246     51.69357         7     0.947     0.578 -43.04   0
       374    990.0050    139.2356 300.4799442 +22.7243990     3703.751     72.47595      1.358     2.39     5.015232     20.44246     527.4152        28     1.155     1.013 -82.35   2
       375    199.5259    138.6282 300.2339816 +22.4875101     5907.739     72.47595      1.328     2.32     5.664397     20.44246     801.7657        34     1.204     1.013  66.17   0
       376    663.6091    138.8142 300.3783370 +22.6265821     118.2153     72.36517      0.959     2.80     5.165704     20.44246      34.6922         5     0.730     0.444  69.58   0
       377     50.6383    138.0047 300.1879141 +22.4427041     875.8008     72.47595      1.612     3.45     5.609278     20.44246     108.5369        13     1.062     0.892  75.93   0
       378    706.0663    138.5991 300.3916333 +22.6392321     394.3039     72.43904      1.023     1.62      5.10063     20.44246     77.09155         6     0.692     0.490  -2.38   0
       379    828.4297    135.7100 300.4307037 +22.6750312     325.3707     72.42058      1.123     2.89     5.017073     20.44246     61.73134         6     0.930     0.556 -48.37   0
       380    171.0610    132.6215 300.2270814 +22.4772545     269.0679     72.43904      1.106     3.45     5.666366     20.44246     42.18202         5     0.773     0.444 -17.95   0
       381    842.0183    128.3242 300.4373353 +22.6769747     191.3577      72.4575      1.629     5.63     4.993765     20.44246     34.01601         6     1.762     0.508  83.36   0
       382    675.1950    129.7076 300.3848998 +22.6274335     164.1969     72.34668      1.063     2.99     5.193249     20.44246     46.91984         5     0.911     0.390  85.15   0
       383    214.7808    129.8672 300.2415655 +22.4895661     373.5598     72.42058      1.257     2.61     5.663378     20.44246     51.86438         7     0.742     0.641  84.02   0
       384    445.6251    123.8942 300.3153064 +22.5570134     6292.687     72.38364      1.260     2.15     4.972753     20.44246     914.9011        32     1.110     1.020  76.94   0
       385    331.0312    123.5981 300.2797492 +22.5225992     531.9164     72.42058      1.083     2.24     5.125641     20.44246       115.23        10     0.921     0.598  65.46   0
       386    502.8283    118.1495 300.3349737 +22.5724963     298.2161     72.47595      1.305     3.39     4.898641     20.44246      56.7972         7     1.130     0.520  75.37   0
       387    697.9758    113.5342 300.3972423 +22.6296048     878.5298     72.43904      1.562     2.24      5.16806     20.44246      122.461        13     1.093     0.720 -81.22   2
       388    639.5123    115.0305 300.3785453 +22.6125311     260.2004     72.43904      0.951     1.94       5.0799     20.44246     62.76123         6     0.718     0.499 -86.53   0
       389    790.5431    112.0619 300.4265646 +22.6568916     416.5391     72.51285      1.294     2.43     5.266902     20.44246     62.28509         8     0.756     0.689 -13.25   0
       390    858.6798    110.2300 300.4483982 +22.6767582     312.9402      72.4575      1.595     2.99     4.934861     20.44246      49.3982         5     0.930     0.458 -83.52   0
       391    138.5653    107.7556 300.2250455 +22.4603759     448.1991     72.51285      1.307     3.57     5.665551     20.44246     54.75752         6     0.878     0.579 -20.83   0
       392    497.1091    106.6382 300.3369267 +22.5674758     502.1505     72.43904      1.291     2.06     4.912944     20.44246     68.59306         7     0.699     0.606 -31.24   0
       393    573.9764    103.9074 300.3617432 +22.5897106     6161.642     72.38364      1.273     2.19     4.843367     20.44246     1003.114        29     1.085     0.956  70.77   0
       394    348.9447    102.9588 300.2920148 +22.5220376     1523.039     72.42058      1.359     2.65     5.112048     20.44246     190.7198        20     1.184     0.934  66.89   0
       395    614.9463    101.3303 300.3753373 +22.6012378     854.3763      72.4944      1.295     2.83     4.990521     20.44246     134.7058        15     1.236     0.694  73.75   0
       396    684.6156     99.0598 300.3977744 +22.6214442     300.5875     72.42058      1.250     2.92     5.196196     20.44246     64.64428         6     0.933     0.480 -84.30   0
       397    630.8599     97.1022 300.3816647 +22.6047873     768.4915     72.53129      1.738     3.15     5.047724     20.44246     99.68713        13     0.994     0.920  -6.18   0
       398    900.9842     94.7735 300.4666012 +22.6849732     614.4171     72.47595      1.249     3.07     4.997184     20.44246     85.12756         9     0.965     0.660  76.58   0
       399     97.7610     95.3940 300.2163737 +22.4445970     709.9646      72.4944      1.504     3.02     5.657394     20.44246     70.83702        11     0.973     0.761 -45.80   0
       400    669.6386     92.8881 300.3951102 +22.6151862     548.3086     72.43904      1.280     2.13     5.203874     20.44246      76.5574         7     0.702     0.609  81.03   0
       401    633.3936     87.6169 300.3855298 +22.6028194     1016.927     72.40211      1.768     4.41     5.116381     20.44246     105.8725        17     1.545     0.831  60.03   0
       402    618.1371     88.8682 300.3803724 +22.5986112     2886.167     72.51285      1.296     2.09     5.064528     20.44246     469.0542        24     1.078     0.935  45.72   0
       403    259.0594     89.8354 300.2683149 +22.4913381     403.1085     72.47595      1.232     2.23     5.513498     20.44246     71.65971         8     0.757     0.669  39.32   0
       404    704.6017     80.3228 300.4100772 +22.6220408      1408.55     72.36517      1.139     2.20     5.279011     20.44246     207.7285        15     0.922     0.813  80.27   0
       405    864.8316     78.3063 300.4606691 +22.6694186      266.659     72.38364      1.101     3.84      5.09185     20.44246     53.97548         5     0.885     0.477 -48.74   0
       406    782.9757     75.2152 300.4361555 +22.6440319     315.5761     72.47595      1.375     4.90     5.420228     20.44246      38.1725         6     1.046     0.650 -47.04   0
       407    642.7267     73.6442 300.3929678 +22.6015973     809.8393     72.43904      1.316     2.67     5.231309     20.44246     112.1637        11     0.881     0.754  44.42   0
       408     20.8072     73.3856 300.1996017 +22.4152127     588.5078     72.36517      1.654     3.81     5.543324     20.44246     62.18433         9     1.023     0.693 -22.59   0
       409    448.1329     72.7635 300.3326681 +22.5430738      1142.24      72.4575      1.312     2.31     5.167949     20.44246     162.0456        14     0.987     0.822  58.99   0
       410    352.1056     71.0073 300.3033591 +22.5138060      788.467     72.34668      1.260     1.99     5.310177     20.44246     143.1914        11     0.799     0.789  34.64   0
       411    995.0486     67.6784 300.5047252 +22.7053241     2338.845      72.4575      1.375     2.53     5.467828     20.44246     344.9692        24     1.116     0.989 -88.62   0
       412    734.0678     69.4011 300.4227997 +22.6277212     409.1631     72.42058      1.176     4.05     5.352009     20.44246     60.98454         8     1.106     0.521  22.50   0
       413    123.4250     61.1779 300.2354433 +22.4424647     3828.171     72.42058      1.429     2.55     5.558138     20.44246     440.5983        29     1.220     1.036  59.69   0
       414    691.4764     61.4783 300.4120986 +22.6126941     654.4987     72.56815      1.103     2.89     5.356962     20.44246     103.0755        10     0.986     0.661  80.92   0
       415    253.8620     61.6121 300.2758502 +22.4816749     157.7918     72.42058      1.310     3.42     5.492736     20.44246       27.561         5     0.770     0.440  19.39   0
       416    449.1627     58.2689 300.3376884 +22.5392174     288.4843     72.43904      1.276     3.90     5.317937     20.44246     41.62557         6     0.898     0.486  35.26   0
       417    684.7442     53.4399 300.4126077 +22.6083678     823.8714     72.43904      1.178     2.46     5.385647     20.44246     139.2876        13     1.028     0.691  58.10   0
       418    239.4218     53.2280 300.2740785 +22.4749403      1137.59      72.4575      1.301     2.52     5.499628     20.44246     151.6552        18     1.090     0.876  77.88   0
       419    645.9449     48.5272 300.4021144 +22.5953405     535.0435      72.4575      1.428     3.35      5.38462     20.44246     68.50539         9     0.975     0.826 -59.95   0
       420    465.8711     50.3518 300.3454554 +22.5419464     196.2308     72.43904      1.082     2.94     5.383678     20.44246     42.25772         6     0.739     0.610  76.18   0
       421    722.4243     48.3210 300.4260070 +22.6181751     644.4619     72.43904      1.389     4.15      5.45276     20.44246     74.33277        11     1.145     0.636  82.31   0
       422    742.7183     44.7701 300.4334818 +22.6232285     2172.901     72.47595      1.236     2.16      5.49177     20.44246     356.9503        20     0.992     0.912  53.60   0
       423     95.8739   1012.1605 299.9179405 +22.7069593     1853.154     72.43904     10.342    18.07      39.4759     20.44246     60.50784        47     4.613     1.966  42.67  18
       424    917.5291     37.8182 300.4902292 +22.6735418     702.3152     72.47595      1.305     3.59     5.553423     20.44246     98.14659        11     1.060     0.720  89.15   0
       425    691.0861     37.2356 300.4198374 +22.6056075     918.1241     72.43904      1.290     2.69     5.463016     20.44246     125.9402        13     0.995     0.806  68.62   0
       426    398.2183     35.4880 300.3292216 +22.5174137     335.3862     72.40211      1.208     3.66     5.597639     20.44246     47.86215         7     0.863     0.643  79.12   0
       427    311.0186     31.4163 300.3034150 +22.4901246     143.1681     72.43904      0.999     2.94     5.516016     20.44246     39.87854         5     0.739     0.602  86.62   0
       428    141.8196     29.6291 300.2513883 +22.4389178       323.79      72.4575      1.508     3.63     5.454258     20.44246     34.19472         5     1.004     0.378 -85.55   0
       429    125.9367     40.2296 300.2430155 +22.4372023     858.5698     72.47595      1.263     2.66      5.49449     20.44246      121.732        16     1.108     0.884  77.42   0
       430    275.5204     27.0111 300.2938031 +22.4782250      377.107     72.43904      1.298     1.86     5.452185     20.44246     65.77391         6     0.713     0.499  87.46   0
       431    543.5802     22.0473 300.3788220 +22.5570817     848.8288      72.4944      1.228     2.44     4.845188     20.44246     123.2205        14     0.945     0.829  62.56   0
       432    775.5707     21.2320 300.4513511 +22.6262924     253.6749      72.4575      1.486     3.50     5.597866     20.44246     27.08718         5     0.776     0.455 -71.93   0
       433    278.1312     19.8176 300.2969470 +22.4769407     291.9569      72.4575      1.277     5.07     5.454073     20.44246     42.30009         7     1.086     0.693  -2.81   0
       434    152.9734     19.5802 300.2581125 +22.4393743     493.5432      72.4575      1.298     4.01     5.414382     20.44246     64.88639        10     0.947     0.840 -24.53   0
       435    678.8255     19.5449 300.4217532 +22.5968512     298.5533     72.47595      1.129     1.69     5.514808     20.44246      60.9118         5     0.660     0.460 -23.74   0
       436    337.5880     17.7764 300.3161012 +22.4941648     263.6383      72.4575      1.228     2.30     5.676298     20.44246     45.58198         5     0.701     0.450  68.20   0
       437    706.6116     16.9177 300.4312615 +22.6044128     775.5446     72.42058      1.263     2.73     5.583713     20.44246     113.0706        13     0.976     0.761  64.75   0
       438     81.5264   1015.2498 299.9124777 +22.7035357     1389.958      72.4575      5.883    11.14     47.87368     20.44246       46.729        23     2.225     1.554 -85.90  18
       439    604.4541   1011.0871 300.0764682 +22.8593031     6770.056      72.4944      1.657     3.27     3.244484     20.44246     586.4152        41     1.350     1.264  54.76   0
       440    121.0006   1016.8088 299.9242340 +22.7158365     908.7654     72.27271      7.115     7.81     33.26323     20.44246      41.0143        11     1.839     0.927 -41.88  17
       441    117.9837   1008.2156 299.9260937 +22.7124685     1078.909     72.42058      6.993     8.42     31.45808     20.44246      37.3083        14     1.777     1.116  35.40   1
       442     72.8390   1008.6566 299.9119252 +22.6990379     658.0874      72.4575      4.478     6.35     49.41714     20.44246      41.2498         8     1.781     0.635 -35.16   0
       443    756.1096   1004.6413 300.1258031 +22.9029432     393.0853      72.4575      1.582     6.22     3.368773     20.44246     33.53762         9     1.134     0.958 -81.09   0
       444    483.7016   1005.2284 300.0407868 +22.8213931      572.243     72.40211      2.113     5.96     2.659182     20.44246     47.69542        11     1.192     0.870  52.72   0
