#   1 NUMBER                 Running object number                                     
#   2 X_IMAGE                Object position along x                                    [pixel]
#   3 Y_IMAGE                Object position along y                                    [pixel]
#   4 ALPHA_J2000            Right ascension of barycenter (J2000)                      [deg]
#   5 DELTA_J2000            Declination of barycenter (J2000)                          [deg]
#   6 FLUX_APER              Flux vector within fixed circular aperture(s)              [count]
#   7 FLUXERR_APER           RMS error vector for aperture flux(es)                     [count]
#   8 FLUX_RADIUS            Fraction-of-light radii                                    [pixel]
#   9 FWHM_IMAGE             FWHM assuming a gaussian core                              [pixel]
#  10 BACKGROUND             Background at centroid position                            [count]
#  11 THRESHOLD              Detection threshold above background                       [count]
#  12 FLUX_MAX               Peak flux above background                                 [count]
#  13 ISOAREA_IMAGE          Isophotal area above Analysis threshold                    [pixel**2]
#  14 A_IMAGE                Profile RMS along major axis                               [pixel]
#  15 B_IMAGE                Profile RMS along minor axis                               [pixel]
#  16 THETA_IMAGE            Position angle (CCW/x)                                     [deg]
#  17 FLAGS                  Extraction flags                                          
         1    482.2088     15.6226 300.3326119 +22.5431411     939.9048     72.35145      1.537     3.60     6.700902     20.41254     98.74044        18     1.133     1.057   9.21   0
         2    385.9701     13.7005 300.3032639 +22.5137943      879.825     72.29614      1.618     3.47     6.594539     20.41254     99.09434        15     1.127     0.946  70.13   0
         3    157.5191      3.6942 300.2354108 +22.4425450     3780.822     67.86304      1.787     3.43     6.720071     20.41254     372.0746        37     1.382     1.339   9.92  24
         4    725.7803      4.8067 300.4120238 +22.6128792     758.0958     71.29327      1.701     3.10     6.748309     20.41254     74.77664        13     1.063     0.866 -60.69  16
         5    147.7777    997.9832 299.9097026 +22.7250862     877.2817     72.33302      2.486     8.84     80.51405     20.41254     38.61332        18     1.905     1.180  83.82   3
         6     71.6480   1010.5522 299.8819451 +22.7058507     5977.054      72.3883     16.422    68.48     71.18739     20.41254     151.7188      2063    16.264    11.021  38.10  27
         7     63.9657    953.6357 299.8980648 +22.6872261     5588.854     72.42513     29.625    33.33     32.15892     20.41254     1184.146      4835    23.540    18.726 -56.27  19
         8    152.0799    974.0081 299.9188368 +22.7195012     1292.626     72.29614      8.336    11.44     59.07191     20.41254     60.34167        29     2.500     1.459  24.51   3
         9    151.6327    969.9424 299.9200198 +22.7182011      1217.18     72.36988      7.350    10.49     55.49823     20.41254     46.26689        18     2.244     1.366  72.64   3
        10    912.2042    970.9296 300.1566153 +22.9464548     756.6542     72.29614      1.948     7.61     4.175244     20.41254     54.69871        15     1.546     1.048 -38.11   0
        11    130.3669    954.5965 299.9183967 +22.7074211     2257.558     72.35146     12.591    17.76     42.09689     20.41254     66.70436        79     3.132     2.798  50.29   3
        12    183.9458   1002.2349 299.9195679 +22.7371551     1878.033     72.36988      4.554    20.59     81.79407     20.41254     55.63738        78     3.519     3.348  28.99  19
        13    637.6104    953.9792 300.0765004 +22.8593233     6816.822     72.33302      2.160     5.19     4.521012     20.41254     334.5945        52     1.676     1.592  36.83   0
        14    546.2819    944.8530 300.0510117 +22.8293334     1532.837      72.3883      2.106     4.70     4.274918     20.41254     98.86888        26     1.382     1.294 -30.45   0
        15    185.8777    986.1639 299.9253951 +22.7331255     3947.036     72.31458      8.171    24.46     67.10389     20.41254     83.25524       289     5.189     5.015  69.71   3
        16    204.8533    985.1556 299.9316250 +22.7385279     4761.182     72.36988      8.587    29.89      64.1452     20.41254     95.04163       402     6.890     4.885 -54.25  19
        17    440.2410    941.0527 300.0192212 +22.7964576     979.7664     72.35145      2.010     5.46     4.500786     20.41254     54.49339        24     1.317     1.304 -29.75   0
        18    370.4269    939.0572 299.9981351 +22.7749551     6635.757     72.35145      2.148     4.91     4.675076     20.41254     383.0663        55     1.685     1.593  -3.35   0
        19    223.6778    973.4334 299.9412925 +22.7408118     7045.909     72.33302      7.589    29.25     51.00071     20.41254      151.655       637     9.472     4.836  58.73  18
        20    403.4637    926.0457 300.0126500 +22.7811257     554.9333     72.36988      1.758     6.41      4.57542     20.41254     45.53752        11     1.324     0.870 -84.28   0
        21    918.2228    918.7402 300.1754643 +22.9332641     1355.308     72.33302      1.992     5.81     4.245034     20.41254      82.8394        19     1.802     0.742 -77.49   3
        22    915.6169    918.5031 300.1747283 +22.9324156     1390.254     72.25925      1.773     5.97     4.244925     20.41254     109.8343        19     1.619     0.826 -73.83   3
        23    342.1154    999.0131 299.9698265 +22.7836687     409.6053     72.29614      1.611     3.84     5.139197     20.41254     35.76733         5     1.213     0.349 -22.78   1
        24    706.4330    907.1619 300.1131745 +22.8665011     676.0037      72.3883      1.967     5.52     4.718359     20.41254     46.65799        12     1.422     0.797  61.43   2
        25    703.6210    906.9379 300.1123707 +22.8655944      363.444     72.31458      1.094     3.53     4.718312     20.41254     36.88669         5     1.296     0.278  57.19   3
        26    136.8812   1005.8812 299.9037457 +22.7240823     388.6153     72.51712      1.467     5.06     87.66142     20.41254     39.41519         6     1.862     0.388  35.80   2
        27    740.2970    901.2830 300.1256434 +22.8749577     1131.702     72.51712      2.178     5.06     4.715831     20.41254      62.7724        23     1.519     1.097 -22.06   0
        28    198.9911    902.8638 299.9565575 +22.7131652     674.2286     72.33302      4.943     4.65     11.23441     20.41254      24.6453         5     1.220     0.504 -68.82   0
        29    532.6168    991.8034 300.0314871 +22.8387139     2214.593      72.2777      2.112     5.70     4.536694     20.41254     129.7174        38     1.566     1.546   9.23   0
        30    762.7814    894.7632 300.1347738 +22.8798205     11271.19     72.35145      2.052     4.72     4.688024     20.41254     565.3463        57     1.605     1.562 -28.96   0
        31    620.4815    987.0377 300.0604120 +22.8636809     9351.198     72.31458      2.468     8.35     4.318072     20.41254     361.5972        34     1.757     1.475 -10.49   3
        32    807.6373    895.3312 300.1485774 +22.8934195     307.2217     72.33302      1.692     4.24     4.613855     20.41254     25.85565         6     1.139     0.450   7.65   0
        33    953.4104    893.7684 300.1945639 +22.9366260     395.3194     72.35146      2.238     5.38     4.409492     20.41254     35.01006         7     1.374     0.595 -46.25   0
        34    216.3595    999.4932 299.9305415 +22.7460914     763.2554     72.36988      1.898     7.89     75.84177     20.41254     61.25302        17     1.929     1.057  68.42   0
        35    191.1865    891.4404 299.9578434 +22.7075477     762.8475     72.36988      5.386     5.21     10.83019     20.41254     27.03337         5     1.011     0.758 -83.91   0
        36    624.7245    984.7816 300.0624679 +22.8643048     10096.01     72.35146      2.478    12.72     4.373247     20.41254     471.4381        74     2.972     1.684  -3.71   3
        37     75.0884    886.2175 299.9234397 +22.6712290     798.1943      72.2777      3.780     5.70     11.68046     20.41254     51.63445        11     1.206     0.759 -86.15   0
        38    771.3177    877.0168 300.1432049 +22.8772801     1354.697     72.31458      2.033     5.28      4.67879     20.41254     92.72745        28     1.507     1.324  17.23   0
        39    953.0440    875.8324 300.2002806 +22.9313624     315.8016     72.40672      1.870     3.81     4.527679     20.41254     30.90693         5     0.836     0.498 -58.66   0
        40    809.4886    870.6972 300.1571632 +22.8868976     856.5926     72.53551      2.394     6.47     4.628301     20.41254     43.27813        17     1.260     1.069  61.64   0
        41    857.6890    861.4612 300.1752000 +22.8986796     669.1491     72.44353      2.081     5.75     4.580581     20.41254     45.23615        11     1.319     0.707 -61.66   0
        42    709.2361    860.8055 300.1291183 +22.8540275     711.8635     72.36988      2.011     6.30     4.722866     20.41254      44.7621        14     1.190     1.001   8.70   0
        43    421.7414    856.7540 300.0408658 +22.7667174     4136.935      72.3883      1.959     4.33      4.52811     20.41254     255.0789        39     1.457     1.435  70.99   0
        44    720.6475    857.6976 300.1336860 +22.8565531     633.7963      72.3883      1.916     5.99     4.725716     20.41254     45.92904        10     1.199     0.841   6.04   0
        45    101.3299    848.0289 299.9440102 +22.6681465     3410.225     72.35145      0.768     1.87     8.776002     20.41254     1216.322        12     0.845     0.412 -21.22   0
        46    146.7731    842.4672 299.9599482 +22.6801796     724.6634     72.33302      2.034     7.71     8.174268     20.41254     37.64642        15     1.400     1.186  69.33   0
        47     91.9559    841.3599 299.9432631 +22.6634222     855.7559     72.42513      0.664     0.70     8.056245     20.41254     510.9086         7     0.540     0.432  65.66   0
        48    124.1928    839.2961 299.9539571 +22.6724983     1442.983     72.24079      2.091     5.23     8.025133     20.41254     98.59192        28     1.560     1.296   7.51   0
        49    158.1589    996.8231 299.9133081 +22.7278677     3308.621      72.3883      6.876    23.95     79.62062     20.41254      79.2384       225     5.311     3.829  81.21  18
        50    995.9970    828.7278 300.2289984 +22.9306850     2076.107     72.29614      2.212     5.31     4.639571     20.41254     103.7104        36     1.620     1.475 -76.95   0
        51    950.2404    827.3909 300.2151518 +22.9166023     2193.833     72.35146      2.175     5.19     4.624066     20.41254     113.0553        33     1.509     1.405 -14.27   0
        52    733.6795    821.3765 300.1495545 +22.8500239     595.5755     72.31458      1.826     4.55     4.751722     20.41254     54.13749        10     1.070     0.867   8.20   0
        53    156.5337    820.9910 299.9699629 +22.6769454     530.9472     72.35146      1.935     7.03     6.420606     20.41254     37.73432        13     1.468     1.106   3.31   0
        54    601.8436    815.0087 300.1105315 +22.8087024     4750.871     72.36988      1.856     4.07      4.50506     20.41254     324.6162        39     1.412     1.394 -12.38   0
        55    404.4148    812.0083 300.0500136 +22.7486802     587.8583     72.25925      1.861     5.49     4.560934     20.41254     54.58447        11     1.231     1.002 -79.57   0
        56    152.0020    808.4131 299.9726408 +22.6719780     1342.499      72.1854      1.876     5.12     5.400574     20.41254     109.8235        29     1.562     1.249  46.91   0
        57    622.6367    807.6550 300.1194008 +22.8128198     784.3893     72.36988      1.853     5.08      4.59061     20.41254      48.8878        15     1.221     0.873 -19.17   0
        58    153.6327    979.2437 299.9176172 +22.7214685      1989.42      72.3883      3.610    11.29     63.53902     20.41254     60.12322        49     2.561     1.760 -37.24   3
        59    996.2750    795.5712 300.2398613 +22.9212382      619.588     72.36988      1.603     5.44     4.690759     20.41254     52.15271        12     1.199     0.699 -78.61   3
        60    993.5543    795.2335 300.2391218 +22.9203267      689.513      72.3883      1.503     5.21     4.694681     20.41254     58.05596        11     1.308     0.585 -89.13   3
        61    777.8688    794.8581 300.1719514 +22.8556404     4162.675     72.36988      1.930     4.27     4.690896     20.41254     233.0646        45     1.536     1.453   6.44   0
        62    187.1741    788.8740 299.9899288 +22.6769181     457.2477     72.36988      1.659     3.98     4.746702     20.41254     37.80671         6     0.780     0.580 -56.37   0
        63    868.9832    787.4202 300.2027878 +22.8807871     5399.761     72.33302      0.578     0.89      4.59122     20.41254     2937.748         7     0.507     0.235  89.35   0
        64    494.8906    787.4976 300.0861524 +22.7687571     490.0377     72.53551      1.595     4.40      4.40524     20.41254     58.55212         9     1.139     0.827 -17.47   0
        65    141.2172    784.9459 299.9769122 +22.6620113     1003.525     72.33302      2.185     4.93     4.904252     20.41254     73.37939        20     1.404     1.111 -16.37   0
        66    556.3870    780.8142 300.1074803 +22.7852638     537.4338      72.2777      1.871     4.81     4.468682     20.41254     49.09895         8     1.200     0.699   8.64   0
        67    290.8370    777.0684 300.0260152 +22.7046078     53832.06     72.33302      1.949     4.09     4.782328     20.41254     3908.875       105     1.652     1.611  16.54   0
        68    961.8036    775.7182 300.2355536 +22.9052129     775.2435      72.2777      1.931     7.37     4.752873     20.41254     57.53336        19     1.360     1.215  41.00   0
        69    548.9099    776.2839 300.1066230 +22.7817226     1556.141     72.49873      1.741     3.53     4.467896     20.41254      122.742        21     1.209     1.049  16.22   0
        70    219.2215    775.4236 300.0042677 +22.6826668     527.6087     72.35146      2.647     5.35     4.754066     20.41254     29.23996         9     1.176     0.688 -10.01   0
        71    577.7075    772.5881 300.1167958 +22.7892889     888.3894     72.29614      1.808     4.44     4.563295     20.41254     74.95816        18     1.342     0.917  14.25   0
        72    954.2454    772.0577 300.2343843 +22.9018982     1194.002      72.3883      0.518     0.86     4.758403     20.41254     841.1421         5     0.438     0.318  15.22   0
        73    588.7660    770.4556 300.1209344 +22.7919894     677.0004     72.36988      1.993     5.74      4.60535     20.41254     63.89721        16     1.372     1.049 -78.02   0
        74    694.5433    767.0730 300.1550002 +22.8227027     446.6751      72.3883      1.538     4.02     4.769911     20.41254     55.59871         7     1.131     0.831  48.99   0
        75    488.3705    764.3937 300.0916288 +22.7601696     262.8779     72.35146      1.796     3.87     4.501251     20.41254     25.16178         5     1.027     0.418  75.02   0
        76    732.0242    757.6960 300.1697319 +22.8312343      718.255     72.24079      1.676     5.59     4.767615     20.41254      53.3293        16     1.367     1.006 -38.84   0
        77    340.5958    754.3588 300.0488792 +22.7130041     31677.83     72.36988      1.870     3.94     4.830975     20.41254     2296.102        82     1.581     1.525  28.31   0
        78    354.9570    754.9696 300.0531509 +22.7174837     2014.022      72.3883      1.870     3.85     4.824129     20.41254     177.9178        28     1.395     1.208  44.23   2
        79    353.0208    749.8284 300.0542185 +22.7154275     729.2398     72.35145      2.793     7.68     4.839436     20.41254     60.91935        12     1.725     1.082  57.11   3
        80    863.8484    750.6937 300.2131198 +22.8686955     2738.571      72.3883      1.915     4.35     4.619204     20.41254      171.075        32     1.434     1.312  57.70   0
        81    222.8159    746.0756 300.0149207 +22.6753223      862.384     72.35145      1.886     5.39     4.765775     20.41254     92.12217        18     1.533     1.070  -6.90   0
        82    458.1360    746.3678 300.0880693 +22.7459343     462.5748     72.35145      1.809     3.68     4.624693     20.41254     40.33067         6     0.745     0.629 -44.90   0
        83    468.7950    741.1602 300.0930806 +22.7476328     842.2803     72.36988      1.804     5.33     4.622402     20.41254     80.75894        19     1.373     1.153  66.01   0
        84     25.6768    741.4554 299.9551203 +22.6148869     508.5769      72.3883      2.182     6.20     5.421629     20.41254     44.74501         7     1.802     0.600 -32.24   2
        85    621.7845    746.6472 300.1389590 +22.7950422     969.5572      72.3883      1.769     4.57     4.743882     20.41254     71.90679        20     1.281     1.116 -33.17   0
        86    327.5585    736.5137 300.0506189 +22.7039741     255.7738     72.33302      1.507     3.94     4.866932     20.41254     29.44468         5     1.085     0.409  73.70   0
        87    414.4155    735.7236 300.0779136 +22.7297772     439.2416     72.35146      1.689     5.13     4.750928     20.41254     33.03139         9     0.916     0.812 -70.03   0
        88     57.5741    735.3349 299.9670235 +22.6226965      421.069     72.33302      1.406     3.44     5.202182     20.41254     29.45619         5     1.059     0.324  68.23   0
        89    221.3552    730.3911 300.0195616 +22.6703831     460.0667     72.36988      1.810     4.85      4.78091     20.41254     34.70821         6     1.195     0.557 -61.10   0
        90    544.6959    720.7979 300.1233372 +22.7645253     369.6071     72.25925      1.445     5.67      4.68921     20.41254     36.56046         8     1.036     0.874 -53.63   0
        91    513.9506    719.1175 300.1143056 +22.7548320     664.7217     72.36988      1.626     4.14     4.698488     20.41254     59.65166        12     1.019     0.889  79.27   0
        92    930.2661    715.9204 300.2451405 +22.8785843     4784.377     72.46194      1.930     4.12     4.888019     20.41254     322.7458        46     1.523     1.477  78.73   0
        93    535.6740    716.7216 300.1218508 +22.7606519     1283.814     72.46194      1.715     3.87     4.707767     20.41254     111.9206        21     1.352     0.960   6.38   0
        94    918.6727    707.2550 300.2443379 +22.8726231     1753.276     72.35146      2.006     4.48     4.903851     20.41254     105.6154        30     1.448     1.323 -58.65   0
        95    281.5831    700.9901 300.0478506 +22.6799974     681.7487     72.29614      1.599     5.00     4.870425     20.41254     64.19686        15     1.239     1.003 -16.57   0
        96    949.8658    697.6879 300.2571800 +22.8792098     1685.722     72.44353      2.013     4.87     4.906285     20.41254     94.83206        28     1.554     1.212  45.80   0
        97    745.0797    698.5208 300.1930273 +22.8181416     2514.609     72.48034      1.855     4.10     4.791538     20.41254     179.0659        32     1.395     1.268   1.77   0
        98    255.3833    696.4745 300.0411651 +22.6708485        264.5     72.35146      1.863     6.11     4.857687     20.41254     29.50023         7     1.573     0.668 -81.18   0
        99    827.1708    684.3646 300.2232267 +22.8386522     466.0092     72.36988      1.661     5.52     4.968521     20.41254     41.27722        10     1.139     0.755  37.30   0
       100    130.6278    684.6726 300.0061928 +22.6300641     675.8586     72.35146      1.900     2.97      5.06516     20.41254     70.46486         8     1.050     0.707 -48.99   0
       101    863.5012    675.5024 300.2374383 +22.8469810     149021.5     72.57226      1.876     4.04      5.11214     20.41254     10230.37       180     1.679     1.641 -42.86   0
       102   1010.4911    677.4467 300.2826778 +22.8915346     1408.133     72.33302      2.088     5.07     4.716114     20.41254      79.7516        25     1.393     1.258 -25.98   0
       103    715.7150    675.5646 300.1913283 +22.8027525     962.2571     72.33302      1.936     5.55     4.835688     20.41254     67.50356        18     1.405     1.140  15.81   0
       104    897.1995    668.6157 300.2501888 +22.8550886     553.9058     72.20387      2.084     3.35     5.085995     20.41254     43.97452         6     0.886     0.551  88.12   2
       105    549.6960    664.0535 300.1433265 +22.7497248     1634.625     72.42513      1.705     3.85     4.935801     20.41254     137.4883        26     1.285     1.212  87.47   0
       106    731.0021    661.5685 300.2006404 +22.8033081     9604.503     72.31458      1.728     3.58     4.860569     20.41254      748.004        48     1.406     1.348  52.79   0
       107    232.3269    656.3138 300.0470350 +22.6524100      5054.95     72.48034      1.856     3.83      4.88788     20.41254     444.8742        46     1.488     1.404  33.84   0
       108    314.6003    654.4695 300.0732345 +22.6765374     1271.014     72.29614      1.897     4.10     4.914157     20.41254     111.2925        22     1.313     1.173 -24.82   0
       109    522.7172    649.9397 300.1395056 +22.7375896     786.3688     72.46194      1.735     3.99     4.977828     20.41254     75.69024        16     1.216     0.909  16.05   0
       110    514.3383    642.2228 300.1394017 +22.7328632     3325.456     72.33302      1.686     3.43      4.99928     20.41254     296.2934        36     1.382     1.285  76.53   0
       111    504.4514    635.8266 300.1383991 +22.7280644     1449.624     72.36988      1.779     4.58     5.014229     20.41254      117.981        24     1.500     1.139  57.82   0
       112    167.8688    632.2726 300.0347912 +22.6261892     688.6175     72.42513      1.742     3.76     5.153627     20.41254     60.41536        13     1.099     0.834 -10.64   0
       113    182.5130    630.6357 300.0398775 +22.6301088     632.2932     72.33302      1.856     4.50     5.089915     20.41254     62.59564        12     1.093     1.036  76.11   0
       114    951.4774    627.7214 300.2804079 +22.8595770     426.8069     72.46194      1.721     7.00     5.071919     20.41254     46.50582        10     1.326     1.036 -65.51   0
       115    429.4304    625.7760 300.1182990 +22.7027042      1838.95     72.35145      1.831     3.42     5.032671     20.41254     168.1078        26     1.306     1.185 -33.57   0
       116    208.1349    627.2348 300.0489518 +22.6368120     611.7288     72.35145      1.914     5.21     4.981634     20.41254     59.40413        12     1.375     0.981 -85.87   0
       117    528.5499    626.5231 300.1489269 +22.7326104     484.6959     72.35146      1.635     5.52     5.045229     20.41254     43.74622        12     0.967     0.913  -5.54   0
       118    239.4508    627.6066 300.0585734 +22.6463044     427.5211     72.35146      1.932     4.28     4.902127     20.41254     40.92136         5     1.070     0.488  -0.51   0
       119    801.3566    622.6320 300.2352246 +22.8131813     5935.654     72.40672      1.251     6.09     5.332401     20.41254     1363.403        15     1.726     0.604  33.28   0
       120    463.4181    624.6645 300.1292438 +22.7125667     119.8851     72.33302      0.913     3.50     5.037466     20.41254     36.57093         5     1.155     0.306  69.66   0
       121   1005.3917    623.5665 300.2985854 +22.8745160     856.1042     72.35146      1.860     4.72     4.701667     20.41254     54.22392        18     1.251     1.008   2.27   0
       122     83.2953    620.3792 300.0123536 +22.5974237     19715.63     72.25925      2.006     4.07     5.574936     20.41254     1569.924        77     1.681     1.574  22.17   0
       123    514.4528    620.8134 300.1463896 +22.7267478     1115.233      72.3883      1.804     3.89     5.058479     20.41254     103.7182        22     1.373     1.026 -77.96   0
       124      4.7445    622.4905 299.9872503 +22.5744795     672.9619     71.14349      2.284     3.70     5.898547     20.41254     51.95443         7     0.994     0.587 -24.35  16
       125    549.1882    620.7106 300.1572438 +22.7371221     327.0978     72.29614      1.496     4.51     5.065464     20.41254     33.07094         7     1.275     0.453  -0.30   0
       126    932.4217    607.7678 300.2809407 +22.8481372      1124.14     72.35146      1.919     4.37     5.294537     20.41254       74.741        18     1.369     0.876  25.49   0
       127     29.2777    604.6484 300.0006686 +22.5767153      1433.89     72.35146      2.207     5.26     5.780151     20.41254     102.7487        32     1.691     1.408  75.66   0
       128    799.3750    606.1389 300.2399623 +22.8078474     480.2342     72.35145      1.591     5.18     5.429811     20.41254     41.26608         8     0.971     0.780 -16.88   0
       129    477.9653    601.7255 300.1412227 +22.7103356     457.9765     72.33302      1.607     5.66     5.153363     20.41254     37.01357        10     1.058     0.884  88.54   0
       130    872.2136    600.3329 300.2645685 +22.8279805     704.7531     72.35146      2.106     5.31     5.400673     20.41254     63.70194        12     1.342     0.782   8.30   0
       131    434.5764    594.1257 300.1301781 +22.6951556     818.3152      72.3883      1.833     4.97     5.156969     20.41254     75.66682        19     1.440     1.095   6.30   0
       132    582.3202    592.9700 300.1765740 +22.7390751      419.365     72.35145      1.484     5.27     5.277075     20.41254     41.87301        10     1.292     0.606 -22.37   0
       133    478.7632    590.1492 300.1452298 +22.7072494     1080.482     72.36988      1.808     4.81     5.280491     20.41254     94.97506        19     1.427     1.006  51.42   0
       134    629.6286    591.1474 300.1919082 +22.7527182     594.6871     72.36988      1.865     5.57      5.23506     20.41254     40.66454        11     1.133     0.771   7.65   0
       135    599.9468    590.6807 300.1828098 +22.7436959     685.1589     72.36988      1.779     3.72     5.275656     20.41254     57.62419         9     0.901     0.825 -55.93   0
       136    665.8162    589.2512 300.2038027 +22.7630089     265.5118     72.35146      1.428     3.45      5.19628     20.41254     32.98677         5     0.984     0.350  46.11   0
       137    912.5159    585.6082 300.2819244 +22.8358088     3135.851     72.29614      1.756     3.81     5.365903     20.41254     252.9855        34     1.404     1.275 -84.08   0
       138    444.2670    585.2175 300.1360880 +22.6954998     1756.192     72.33302      1.615     3.09     5.233191     20.41254     173.2788        26     1.278     1.161 -21.62   0
       139   1010.1750    584.1193 300.3128879 +22.8646034     819.5082     72.33302      1.915     5.01     4.648376     20.41254     55.39809        15     1.256     0.872  11.60   0
       140    795.3609    581.6306 300.2466682 +22.7996010     275.5208     72.35146      1.683     3.79     5.419548     20.41254     31.48713         5     1.005     0.411 -16.06   0
       141      6.1412    578.5245 300.0019583 +22.5622824     4996.935     72.40672      2.076     4.18      5.73429     20.41254     425.1589        45     1.596     1.509  -8.95  16
       142    952.0969    574.6945 300.2978199 +22.8445152     393.7285     72.53551      2.003     5.82     5.159741     20.41254     28.97382         7     1.303     0.732  38.92   0
       143    307.6205    571.8082 300.0979019 +22.6507116     9204.377     72.31458      1.704     3.63     5.136326     20.41254     833.8759        51     1.422     1.344  42.02   0
       144    430.0698    568.9550 300.1369467 +22.6865760     9135.185     72.31458      1.611     3.21     5.274188     20.41254      757.801        47     1.392     1.278  48.33   0
       145    841.8514    563.1615 300.2671655 +22.8082069     1886.693     72.35145      1.667     3.70     5.432876     20.41254     148.9103        26     1.307     1.193  65.50   0
       146    926.4999    560.6252 300.2943995 +22.8328100     12567.41     72.29614      1.789     3.76     5.385031     20.41254     934.5518        58     1.466     1.443  -7.36   0
       147    490.6485    558.5496 300.1591905 +22.7017319     11663.91      72.3883      1.657     3.22     5.645295     20.41254      1173.04        49     1.351     1.304  71.36   0
       148    660.3672    555.0732 300.2132005 +22.7515555     432.0804     72.35146      1.459     3.01     5.387424     20.41254     58.95292         9     0.898     0.668 -29.07   0
       149    218.1966    553.9427 300.0758767 +22.6187867     1250.255     72.31458      1.745     3.67     5.311343     20.41254     117.7431        22     1.348     1.105  -3.39   0
       150    376.1378    553.5369 300.1251603 +22.6659919     286.7537      72.3883      1.370     4.31     5.257082     20.41254     32.82116         6     1.072     0.495  -3.78   0
       151    465.4648    551.8241 300.1535303 +22.6922571     364.8514     72.33302      1.601     4.58     5.588642     20.41254     41.36033         6     0.967     0.615  17.63   0
       152    422.3701    546.7039 300.1417725 +22.6778783     4466.302     72.29614      1.677     3.29     5.328817     20.41254      439.395        35     1.302     1.252  37.09   0
       153    765.3475    547.1206 300.2485119 +22.7806970     762.2852     72.36988      1.493     3.67     5.394692     20.41254     73.23161        11     0.967     0.873 -14.31   0
       154    400.5970    545.0676 300.1355244 +22.6708863     1129.807     72.33302      1.512     3.53     5.300622     20.41254     116.3987        19     1.232     1.007  37.79   0
       155    154.7012    544.4224 300.0592165 +22.5970252     863.9658      72.2777      1.770     4.19      5.36124     20.41254     67.17722        17     1.146     1.065  62.37   0
       156    842.2266    542.4866 300.2739944 +22.8023751     1633.904     72.35146      1.758     3.75     5.447872     20.41254     128.6106        25     1.295     1.166 -12.81   0
       157    539.0189    534.3314 300.1821196 +22.7092600     206602.7     72.35145      1.601     3.06     6.045672     20.41254     19231.26       192     1.577     1.522 -23.23   0
       158    722.8302    539.6252 300.2376877 +22.7658154     807.5465     72.35145      1.522     3.77     5.385992     20.41254     77.92362        17     1.106     1.025  77.18   0
       159    362.6125    540.4232 300.1252067 +22.6581737     337.5431     72.35146      1.531     4.95     5.320287     20.41254      33.3308         8     1.031     0.674  -5.11   0
       160    225.0138    534.0544 300.0844532 +22.6151192     3527.326     72.35145      1.738     3.55     5.403033     20.41254     310.4609        35     1.413     1.278  41.45   0
       161    790.8721    530.8254 300.2617618 +22.7836526     684.9518     72.36988      1.984     2.79     5.444666     20.41254     67.04587        10     0.993     0.739  67.24   0
       162    570.8840    521.1638 300.1963215 +22.7150183      205.649     72.33302      1.510     3.93       6.0847     20.41254     26.27319         6     0.768     0.577 -42.78   0
       163    429.3334    519.1622 300.1528806 +22.6720526     294.9047     72.33302      1.283     3.56     5.589427     20.41254     35.44337         5     1.004     0.364  -3.55   2
       164    429.6849    514.6668 300.1544491 +22.6708665     2602.724     72.44353      1.637     3.11     5.628749     20.41254      275.989        29     1.312     1.134 -89.49   2
       165    274.1313    517.0426 300.1052572 +22.6249512     369.8727     72.33302      1.428     3.04     5.400934     20.41254      51.7536         7     0.850     0.718 -10.96   0
       166    841.5350    511.9689 300.2836850 +22.7933938     328.2305     72.35146      1.350     3.71     5.535457     20.41254     32.77864         6     0.793     0.498  87.43   0
       167    746.9142    503.7761 300.2568335 +22.7627195     405.8451     72.31458      1.486     3.32     5.492678     20.41254     52.39173         6     0.794     0.643 -84.90   0
       168    826.5891    501.0241 300.2825752 +22.7857741     1658.451     72.35146      1.665     3.52     5.534021     20.41254     136.0968        22     1.212     1.079  76.29   0
       169    697.9490    498.5717 300.2432561 +22.7465669     2539.846     72.36988      1.588     3.05       5.5822     20.41254     238.1341        27     1.201     1.178 -88.04   0
       170    942.5551    496.3344 300.3202795 +22.8191255     513.2376     72.35146      1.640     5.45     5.588703     20.41254     53.91167        11     1.201     0.749  17.76   0
       171    602.7120    495.0366 300.2147191 +22.7170399       407.87     72.33302      1.433     4.81     6.265031     20.41254     39.18369         9     1.029     0.638 -35.74   0
       172    485.2461    494.2969 300.1783635 +22.6816544      776.652     72.36988      1.631     3.55     6.262999     20.41254     74.04361        13     1.038     0.863  27.78   0
       173    955.1531    492.9311 300.3253159 +22.8219158     1191.712     72.33302      1.627     3.39     5.586737     20.41254     106.1839        20     1.152     1.068  57.78   0
       174    940.8696    491.8655 300.3212039 +22.8173360      750.764     72.40672      1.725     4.77     5.617875     20.41254     56.51158        12     1.059     0.822  58.56   1
       175    827.0509    491.0345 300.2859616 +22.7830400     2342.681     72.36988      2.038     4.94     5.555591     20.41254     170.4021        31     1.557     1.250  80.44   0
       176    580.4076    489.2114 300.2096594 +22.7086879     515.7757     72.24079      1.481     3.59     6.347178     20.41254      52.6261        10     0.939     0.811 -77.15   2
       177    580.1765    484.4157 300.2111438 +22.7072405     319.9619     72.35145      1.886     3.70     6.391966     20.41254     28.34038         5     1.054     0.374 -85.65   3
       178    865.1758    486.2033 300.2994228 +22.7930594     4276.133     72.31458      1.646     3.28     5.680345     20.41254     398.4942        35     1.306     1.264 -58.90   0
       179    418.6261    487.9531 300.1596755 +22.6598802      443.192     72.36988      1.771     5.98     5.735779     20.41254     31.90752         9     1.054     0.955 -19.77   0
       180    603.4474    483.0039 300.2188534 +22.7138020     373.0206     72.33302      1.270     3.85     6.387921     20.41254     39.86061         5     1.013     0.419 -25.42   0
       181    956.7693    476.5599 300.3311336 +22.8176907     761.6638     72.36988      1.698     4.75     5.690775     20.41254     64.48712        15     1.202     0.927  77.62   0
       182     97.2344    475.9853 300.0635567 +22.5601562     931.0197     72.35145      1.704     3.43     5.464713     20.41254     84.56241        16     1.134     0.923   0.60   0
       183    758.2615    470.2496 300.2712529 +22.7564773     252.6627     72.40672      1.263     3.96     5.562076     20.41254     31.77942         6     0.783     0.574  45.70   0
       184    952.8256    465.9027 300.3333614 +22.8134456     240.7656     72.29614      1.335     4.13     5.701697     20.41254     40.30258         6     0.823     0.591  45.30   0
       185    697.3048    460.5270 300.2554020 +22.7354378     473.6582     72.48034      1.561     3.85     5.704987     20.41254      54.5322        10     1.130     0.763  27.86   0
       186    305.4893    459.1716 300.1337962 +22.6177251     179.9211     72.33302      1.371     5.05     5.618941     20.41254     30.23061         5     1.126     0.642  22.43   0
       187    586.4753    458.4960 300.2215179 +22.7016772     368.8397     72.49873      1.400     3.68     6.312826     20.41254      41.6222         6     0.948     0.411  19.47   0
       188    638.4835    456.4800 300.2383799 +22.7166673     724.8133     72.49873      1.440     3.35     6.025274     20.41254     75.97231        15     1.116     0.851  56.73   0
       189    953.3033    449.4875 300.3388376 +22.8088670     519.0133     72.53551      1.660     5.17     5.719665     20.41254     46.65479        10     1.139     0.663  19.13   0
       190    856.4698    445.0611 300.3100584 +22.7786232     1013.953      72.3883      1.724     3.98     5.570858     20.41254     93.04037        19     1.278     1.062  29.40   0
       191    815.6293    443.3826 300.2978631 +22.7659201     361.1638     72.33302      2.173     4.39     5.512399     20.41254     27.31718         5     1.030     0.533  45.13   0
       192    841.0800    441.9069 300.3062809 +22.7731112     625.4106     72.48034      1.495     2.88     5.543407     20.41254     79.06927         9     0.893     0.697 -16.57   0
       193    585.1722    439.3062 300.2273387 +22.6957718     3192.264     72.25925      1.536     3.00     6.231716     20.41254      315.903        28     1.180     1.152 -38.05   0
       194    699.2267    448.9123 300.2597702 +22.7326741     882.4083     72.33302      1.624     4.00     5.722855     20.41254      79.1895        16     1.182     1.069  32.99   0
       195    425.3362    426.2415 300.1817897 +22.6441600     315.8338     72.33302      1.513     3.62     5.840125     20.41254     38.16713         6     0.725     0.646 -29.65   0
       196    996.5958    418.6208 300.3623663 +22.8129379     1255.381     72.31458      1.764     3.82     5.871512     20.41254     102.7434        24     1.264     1.158 -52.22   0
       197    868.4435    418.6591 300.3223608 +22.7746127       626.02     72.35146      1.727     2.54     5.507835     20.41254     81.26775         9     0.961     0.613  87.73   0
       198    954.6760    417.5165 300.3496401 +22.8000812     843.4215     72.44353      1.574     3.16     5.757979     20.41254     97.28256        18     1.098     1.040  24.85   0
       199    695.7308    413.4599 300.2701835 +22.7214356     1067.405      72.3883      1.616     3.44     5.786213     20.41254     116.5233        21     1.205     1.081  54.17   0
       200    605.2077    415.0125 300.2414644 +22.6947869     377.6323     72.24079      1.827     4.54     6.005167     20.41254     34.68618         6     1.099     0.533 -41.07   0
       201    491.3805    413.8407 300.2063813 +22.6603727     480.6466      72.3883      1.506     5.04      6.28512     20.41254     45.24526         9     0.908     0.792  72.70   0
       202    199.5605    411.1833 300.1164062 +22.5722096     660.5883     72.36988      1.908     4.52     5.900976     20.41254     61.80018        15     1.291     0.944 -15.49   0
       203    995.2222    405.9076 300.3660625 +22.8088696     4408.366      72.2777      1.747     3.34     5.873398     20.41254     361.6589        39     1.410     1.339 -32.76   0
       204    262.0172    406.9127 300.1372234 +22.5896929     3792.115     72.29614      1.649     3.17     5.839097     20.41254     349.2653        34     1.372     1.199  40.42   0
       205    209.2267    401.6670 300.1225004 +22.5723724     7653.055     72.33302      1.732     3.33     5.902416     20.41254     753.3111        44     1.406     1.349  32.04   0
       206    975.0623    397.0847 300.3626321 +22.8003014     1878.992     72.46194      1.690     3.13     5.790405     20.41254     157.7164        24     1.181     1.134 -55.09   0
       207    350.0689    395.9227 300.1681925 +22.6129087      4979.07     72.46194      1.592     3.06     5.776472     20.41254     431.0549        38     1.382     1.216  56.07   0
       208    594.2893    392.8528 300.2452512 +22.6851488     18713.47     72.36988      1.546     2.93     5.983409     20.41254     1823.191        57     1.333     1.281  62.24   0
       209    612.0153    392.8496 300.2507761 +22.6904539     807.7394      72.3883      1.872     7.04     5.918446     20.41254     56.73407        16     1.639     0.848 -51.66   0
       210    441.5994    394.1077 300.1972791 +22.6397967     285.2807     72.22234      1.455     5.99     5.888216     20.41254     31.84386         8     1.062     0.949 -75.23   0
       211    837.8176    389.0002 300.3224290 +22.7569198     234.5919      72.2777      1.450     4.34     5.569566     20.41254     27.78523         5     1.045     0.514  54.80   0
       212    791.3920    383.7879 300.3096390 +22.7415303     406.1124     72.24079      1.437     3.28     5.606308     20.41254     46.21445         5     0.918     0.396   7.01   0
       213    928.2477    375.7386 300.3549462 +22.7801577      877.228      72.3883      2.028     6.60     5.504572     20.41254     53.89344        17     1.411     0.986 -59.58   0
       214    465.1380    374.4918 300.2109729 +22.6412076       439.97     72.44353      1.922     4.40      5.85767     20.41254     32.70619         5     0.940     0.587 -42.29   0
       215    148.8167    372.6816 300.1131120 +22.5459503     2049.291     72.33302      1.744     3.79     5.905756     20.41254     186.3013        25     1.344     1.138   2.60   0
       216    948.5382    362.8670 300.3654541 +22.7825239     1239.501      72.3883      1.735     3.40     5.576626     20.41254     116.0237        18     1.178     0.972 -75.88   0
       217    534.9388    362.2458 300.2366874 +22.6585848     6600.241     72.36988      1.552     2.96     5.895441     20.41254     671.3546        42     1.320     1.242  79.14   0
       218    249.5518    361.7244 300.1480029 +22.5729791     671.0085     72.35146      1.677     4.96     5.891974     20.41254     63.71977        13     1.137     0.987  -5.26   0
       219    795.1887    354.7278 300.3202499 +22.7343088     364.3475     72.36988      1.321     3.55     5.669511     20.41254     38.73642         7     0.854     0.591  33.55   0
       220    107.4455    355.1918 300.1059189 +22.5285330      538.429     72.36988      1.626     4.44     6.051943     20.41254     42.56334        10     0.992     0.712  -1.83   0
       221    648.7960    352.5284 300.2753191 +22.6898706     542.9545     72.29614      1.495     3.99     5.817145     20.41254     65.40396        13     1.168     0.777  66.83   0
       222    739.0692    351.6126 300.3037593 +22.7166216     1141.558     72.36988      1.489     3.16     5.731175     20.41254     106.5325        16     1.058     0.912   3.27   0
       223    441.5470    348.4355 300.2120776 +22.6266562     6337.199     72.36988      1.602     2.95     5.725893     20.41254     685.1827        39     1.300     1.230  48.53   0
       224    833.6207    343.0622 300.3360214 +22.7424515     1432.504     72.31458      1.647     3.32     5.678469     20.41254     139.0701        24     1.261     1.083 -80.51   0
       225    930.9242    343.3941 300.3662735 +22.7716533     486.7237      72.2777      1.351     3.73     5.504297     20.41254     68.52414         9     1.026     0.647  -4.03   0
       226    426.1816    337.3386 300.2108919 +22.6188668     451.4243     72.31458      1.473     3.00     5.739861     20.41254     48.45403         7     0.812     0.611 -29.50   0
       227    508.3244    335.0279 300.2372245 +22.6427944     404.7105     72.35145      1.790     5.24     5.752149     20.41254     40.18886         7     1.092     0.711 -81.71   0
       228    806.7971    331.0452 300.3315521 +22.7309704     544.3236     72.35145      1.492     2.46     5.690365     20.41254     63.16851        10     0.857     0.709  -3.44   0
       229    329.0817    327.6751 300.1837962 +22.5870154     2650.305     72.46194      1.623     3.12     5.811525     20.41254     258.9006        29     1.305     1.140  51.67   0
       230     47.6618    324.7342 300.0972089 +22.5018750     1021.652      72.3883      1.801     4.92     6.324893     20.41254     87.23222        20     1.384     1.146 -31.49   0
       231    298.4492    317.0112 300.1777204 +22.5747783     30126.83     72.36988      1.666     3.15      5.85399     20.41254     2793.575        80     1.517     1.381  67.95   0
       232    833.4833    314.9106 300.3451091 +22.7343128     1466.408     72.46194      1.656     3.92     5.706225     20.41254     121.0219        23     1.276     1.121 -47.42   0
       233    748.6008    303.6229 300.3222959 +22.7056723     538.6754      72.2777      1.431     4.40     5.775537     20.41254      61.6977        12     1.125     0.839 -58.37   0
       234    172.9996    303.1396 300.1431870 +22.5332212     476.8697     72.31458      1.564     5.35     5.948881     20.41254     38.86621         8     1.028     0.785  -2.53   0
       235    397.1528    302.3498 300.2132001 +22.6001204     533.1861      72.3883      1.395     2.28     5.756017     20.41254     71.11851         8     0.783     0.674 -49.48   0
       236    708.9958    296.8929 300.3121294 +22.6918871     1916.791     72.24079      1.602     3.29     5.806347     20.41254     186.6226        25     1.229     1.119  43.56   0
       237    923.8124    289.9898 300.3813743 +22.7541614     512.3528     72.24079      1.472     5.08     5.950333     20.41254     56.50106         8     1.161     0.629  84.93   0
       238    517.4343    291.3239 300.2542355 +22.6329586     421.8665     72.35146      1.576     3.40     5.763439     20.41254     36.39181         5     0.750     0.447  69.20   0
       239    370.7458    281.3969 300.2117728 +22.5861926     2296.646     72.31458      1.825     3.99     5.777732     20.41254     195.1376        31     1.436     1.189  68.19   0
       240    582.5101    280.5443 300.2780061 +22.6493365     324.0811      72.3883      1.509     5.41     5.813486     20.41254     36.97567         6     1.137     0.725  38.27   0
       241    809.5482    274.8007 300.3506502 +22.7156151     658.2416     72.31458      2.294     3.64     5.760789     20.41254     64.78864        14     1.140     0.905   7.06   0
       242    692.0777    272.5177 300.3147590 +22.6798152     422.7403     72.46194      1.307     3.70     5.838153     20.41254     45.17202         6     0.789     0.500  -0.23   0
       243    446.6085    260.8012 300.2420722 +22.6029843     1216.309     72.16693      1.601     3.82     5.746063     20.41254     120.2505        20     1.327     1.080  62.18   0
       244    958.4677    257.7310 300.4026503 +22.7552428     320.3056     72.40672      1.470     3.91     6.169578     20.41254     34.71558         6     0.986     0.443  -0.52   0
       245    829.9990    254.8773 300.3634895 +22.7160009     338.1495     72.24079      1.385     2.42     5.824005     20.41254     42.89644         5     0.772     0.475  61.57   0
       246    691.5302    252.8777 300.3209563 +22.6740030     2231.065     72.46194      1.543     3.28     5.867261     20.41254     209.9009        25     1.214     1.115  71.78   0
       247    952.8159    247.3624 300.4042482 +22.7505690      3033.56     72.35145      1.667     3.21     6.181684     20.41254     314.5114        32     1.382     1.221 -79.15   0
       248   1014.0364    242.1709 300.4250415 +22.7673802     333.7311     72.36988      1.538     5.26     6.302291     20.41254     36.28623         7     0.918     0.851 -16.39   0
       249   1022.3218    235.5211 300.4297842 +22.7679434      1458.66     63.51942      1.600     3.30     6.307259     20.41254     159.4859        21     1.241     1.035  74.01  24
       250    399.7237    236.8455 300.2352392 +22.5820637     608.4807     72.33302      1.443     3.87     5.837953     20.41254     67.44542        10     0.991     0.731 -13.45   0
       251     74.6847    230.5555 300.1361453 +22.4829235     1435.979     72.33302      2.045     4.14     6.120893     20.41254     126.0751        27     1.730     1.116 -13.95   0
       252    105.2770    230.7458 300.1455960 +22.4921416     575.2589      72.3883      1.673     5.77     6.086693     20.41254     62.54244        12     1.490     0.897  -8.83   0
       253    968.4634    228.2318 300.4153346 +22.7497424     584.1646     72.35146      1.755     5.41     6.240796     20.41254     42.89925        10     1.267     0.652  15.86   0
       254    158.8993    223.0315 300.1647731 +22.5059858     589.6672     72.33302      1.757     3.57     6.000876     20.41254     66.15195         8     1.108     0.522 -60.97   0
       255    953.6979    221.1362 300.4130263 +22.7432854      290.224     72.46194      1.243     4.82     6.240966     20.41254     44.18591         8     1.015     0.649  28.54   0
       256    763.2166    214.4795 300.3557573 +22.6844037     633.2271     72.35145      1.605     3.68       5.8656     20.41254     61.54034        14     1.083     0.904 -54.96   0
       257    353.7563    213.9601 300.2283469 +22.5617250     428.6313     72.44353      1.496     4.96     5.877646     20.41254     42.95617         9     1.131     0.615  48.26   0
       258    861.2444    203.5034 300.3898924 +22.7105648     2163.632     72.36988      1.650     3.01     5.972357     20.41254     225.3744        26     1.254     1.133 -69.94   0
       259    279.8054    200.4156 300.2097200 +22.5356925      2167.18     72.25925      1.652     3.30      5.91294     20.41254     220.3981        27     1.270     1.165 -26.77   0
       260    759.7328    195.3065 300.3608860 +22.6778460     561.6326     72.49873      1.479     3.73     5.900885     20.41254     69.02855        10     1.099     0.697  -7.89   0
       261    866.4548    192.6047 300.3950508 +22.7089869     472.4597     72.35146      2.375     5.02     5.982029     20.41254     27.66852         7     1.022     0.699  45.15   0
       262    151.1155    191.1060 300.1727003 +22.4944828      853.565     72.53551      0.523     1.15      6.03298     20.41254      539.017         5     0.588     0.288 -74.28   0
       263    174.5666    187.6784 300.1811055 +22.5005208     793.0038     72.33302      1.731     3.65     5.999013     20.41254     76.69339        14     1.095     0.880 -45.73   0
       264    357.6535    195.5795 300.2355181 +22.5576087     1100.066     72.33302      1.723     3.33     5.908242     20.41254     104.5348        17     1.115     1.017  -2.08   0
       265    712.3029    184.6398 300.3495539 +22.6605901     1814.205     72.33302      1.630     3.20     5.927946     20.41254     181.9186        24     1.261     1.091  60.32   0
       266    777.4117    184.3614 300.3699471 +22.6799850     700.8005     72.35146      1.584     4.27     5.925027     20.41254     80.66466        14     1.192     1.000  66.70   0
       267    196.2228    181.0108 300.1900032 +22.5050900     586.3053     72.35145      1.861     4.29     5.978417     20.41254     67.09164        12     1.146     1.008 -88.74   0
       268    983.7772    177.7478 300.4364800 +22.7397911     700.5076     72.36988      1.507     3.66     6.402438     20.41254     86.01695        14     1.106     0.888 -42.73   0
       269    716.5414    176.1029 300.3536425 +22.6594022      1001.28     72.42513      1.916     4.00     5.937092     20.41254     84.24677        17     1.284     0.944 -82.37   0
       270    636.9432    175.3665 300.3290672 +22.6353786      1256.56     72.36988      1.470     3.30     5.930727     20.41254     142.9853        19     1.115     0.991  60.76   0
       271    457.9773    172.4306 300.2742593 +22.5809828     431.3771     72.35146      1.970     3.85       5.7748     20.41254     38.51459         5     0.872     0.488  -6.73   0
       272    832.3551    167.1793 300.3926538 +22.6914734      1381.49     72.40672      1.587     3.28     5.971513     20.41254     135.4949        22     1.153     1.082  42.61   0
       273    563.1895    167.1730 300.3087385 +22.6109555     921.7503     72.35145      1.536     3.65     5.746387     20.41254     93.92582        18     1.203     1.026  64.25   0
       274    844.4890    166.3781 300.3966988 +22.6948714     797.3821      72.2777      1.585     3.38     5.974534     20.41254     90.87048        12     1.084     0.871 -26.70   0
       275    890.8400    165.5352 300.4114334 +22.7084891     241.7311     72.31458      1.561     3.44      6.09329     20.41254      41.3901         5     0.757     0.451  20.52   0
       276   1005.2094    157.1579 300.4498440 +22.7402714     1599.172     72.35145      1.731     3.37     6.574298     20.41254     145.9804        23     1.298     1.163 -89.97   0
       277    961.2521    156.4522 300.4363513 +22.7269273     995.6821      72.3883      1.632     3.50      6.40587     20.41254     120.8451        21     1.242     1.083  67.27   0
       278    195.1379    149.4719 300.1998868 +22.4957025       736.49      72.3883      1.638     3.72     6.078116     20.41254     76.46801        14     1.130     0.881  -6.27   0
       279     56.9134    143.8048 300.1587362 +22.4526816     2258.122      72.2777      1.817     4.13     6.642092     20.41254     181.5291        32     1.478     1.301  60.26   0
       280    880.2509    141.7222 300.4158471 +22.6984698     733.0084     72.35146      1.543     4.02     6.099943     20.41254     68.24542        13     1.165     0.755  44.85   0
       281    214.4404    137.2203 300.2098620 +22.4979613     5705.722      72.3883      1.784     3.36     6.146503     20.41254     546.6179        49     1.526     1.401  65.80   0
       282      6.8902    140.7134 300.1441873 +22.4368110     358.6717     72.51712      1.416     3.34     7.177799     20.41254     60.64559         6     1.006     0.401 -13.09  16
       283   1013.5284    125.1762 300.4628059 +22.7335515     18186.73      72.3883      1.831     3.62     7.031651     20.41254     1703.133        67     1.604     1.446 -80.73  16
       284    198.1019    128.0300 300.2077570 +22.4904284     591.6619     72.29614      1.616     2.95     6.213676     20.41254     61.40187         7     1.004     0.576 -84.02   0
       285    762.1233    126.1906 300.3840320 +22.6586760     835.8369     72.31458      0.555     2.60     6.084632     20.41254     378.0442         5     0.529     0.380 -54.92   0
       286    858.6303    119.2060 300.4163981 +22.6855251     3561.934     72.35145      1.673     3.10     6.113011     20.41254     382.4855        34     1.411     1.203  66.22   0
       287    962.4463    117.9756 300.4491934 +22.7162090     2767.866     72.36988      1.704     3.64     6.644554     20.41254     253.6578        33     1.384     1.285 -71.08   0
       288    407.9859    114.3410 300.2775161 +22.5493203      661.526     72.33302      1.591     4.43     6.038416     20.41254     59.45037        12     1.225     0.822  21.26   0
       289    161.1143    114.9919 300.2004759 +22.4756072     393.2599      72.2777      1.398     3.29     6.302236     20.41254     45.09247         7     0.881     0.533  39.54   0
       290    331.9966    106.0930 300.2565310 +22.5242060      600.657     72.25925      1.506     3.54     6.361131     20.41254     68.32082         9     0.924     0.736  12.14   0
       291    459.3749    101.4828 300.2976856 +22.5610015     1683.019     72.33302      1.575     3.05     5.805957     20.41254     187.5807        23     1.161     1.115 -81.74   0
       292     98.1581    103.2378 300.1847047 +22.4533785     681.2372     72.44353      1.873     4.29     6.431215     20.41254     51.82055        10     1.060     0.742   3.59   0
       293    387.3412    101.9087 300.2751163 +22.5395674     485.7043     72.42513      1.679     5.27      6.18313     20.41254     42.19566        12     1.126     0.951  38.17   0
       294    521.1609    100.8828 300.3171258 +22.5793163     456.7655     72.31458      1.734     3.90     5.695198     20.41254     32.80132         6     0.753     0.579 -46.06   0
       295    203.2796     97.2627 300.2193367 +22.4831366     437.5665     72.44353      1.906     4.72     6.418326     20.41254     36.22057         9     1.206     0.686 -56.63   0
       296    747.8771     91.3266 300.3908863 +22.6443840      356.349     72.46194      1.490     4.77     6.215553     20.41254      34.2705         8     1.012     0.638  -7.84   0
       297    331.7780     86.5509 300.2627945 +22.5185227     300.5078     72.35146      1.789     5.55     6.436208     20.41254     37.39911         6     1.064     0.815  34.66   0
       298    105.3252     87.4307 300.1920546 +22.4509828     197.3312     72.36988      1.398     4.31     6.558034     20.41254     27.12768         5     1.021     0.519 -42.09   0
       299    893.9108     86.0875 300.4381373 +22.6865414     368.5878     72.51712      1.403     3.65      6.27288     20.41254     38.84925         5     1.211     0.316  27.30   0
       300   1023.1867     82.4525 300.4796652 +22.7241381     2318.471     59.05967      1.507     4.20     7.555444     20.41254     282.0988        23     1.620     0.797 -89.81  24
       301    233.4667     81.0673 300.2339755 +22.4875190     6112.779     72.40672      1.797     3.49     6.464468     20.41254     582.1933        46     1.523     1.324  79.17   0
       302     84.9214     80.9991 300.1877936 +22.4430251     729.2009     72.24079      2.223     5.52     6.751052     20.41254     48.57869        12     1.216     0.933   3.15   0
       303    863.2220     79.3730 300.4307374 +22.6754338     256.7914     72.33302      1.383     4.53     6.202084     20.41254     30.38586         5     0.827     0.705 -69.05   0
       304    739.4247     81.9234 300.3912973 +22.6391506     432.4792     72.36988      1.811     4.91     6.274146     20.41254     45.41383         7     1.001     0.681 -86.22   0
       305    479.5816     66.5429 300.3152992 +22.5570001     6396.135     72.35146      1.676     3.19     6.077397     20.41254     670.0306        42     1.421     1.244  77.59   0
       306    364.8033     66.6212 300.2795319 +22.5226769     564.9244     72.31458      1.482     3.79     6.417099     20.41254     69.68883        11     0.989     0.918  11.75   0
       307    731.9427     56.8120 300.3970996 +22.6296874     949.8672     72.33302      1.949     4.25      6.43307     20.41254     82.57216        15     1.246     0.906 -56.65   2
       308    536.1746     61.5657 300.3345412 +22.5725001     360.3775     72.36988      1.224     3.76     6.064671     20.41254     50.12109         6     0.830     0.490   6.49   0
       309    824.3013     55.5430 300.4263157 +22.6569386     452.0998     72.44353      1.601     4.15     6.225498     20.41254     58.97587         6     0.927     0.563  58.38   0
       310     44.1649     52.4686 300.1843639 +22.4226232     179.2083     72.35145      0.974     4.27     7.174659     20.41254     33.52999         5     0.896     0.581 -44.91   0
       311    172.4928     50.8240 300.2248035 +22.4605733     400.1581      72.2777      1.416     3.96     6.543471     20.41254     55.16048         8     1.031     0.618 -29.62   0
       312    608.0660     46.7000 300.3617586 +22.5897294     6247.616     72.44353      1.672     3.29     6.290774     20.41254     584.7846        41     1.467     1.236  80.62   0
       313    530.9893     49.4973 300.3368353 +22.5674777     449.2932     72.24079      1.475     3.72     6.211108     20.41254     41.55198         6     0.796     0.499   2.54   0
       314    382.8962     45.5592 300.2919876 +22.5220354     1453.912     72.35145      1.587     3.46     6.448596     20.41254     148.8991        22     1.269     1.094 -65.58   0
       315    649.2433     44.2033 300.3754015 +22.6013271     802.1956     72.36988      1.572     3.58     6.440853     20.41254     108.9524        18     1.257     0.980  20.99   0
       316    718.7192     41.8873 300.3978112 +22.6214383     373.9626     72.48034      1.405     4.33     6.526515     20.41254     41.72824         6     1.194     0.447  42.49   0
       317    665.3165     40.6196 300.3815727 +22.6051032     560.3532     72.29614      1.587     3.90     6.510501     20.41254     54.98168         9     0.956     0.709 -37.63   0
       318    935.2727     38.4259 300.4664860 +22.6851858     518.8768     72.35146      1.428     4.19     6.411715     20.41254     57.37466        11     1.115     0.778 -21.40   0
       319    131.8526     38.0629 300.2162964 +22.4447390     620.7525     72.40672      1.500     3.84     6.831336     20.41254     58.20085        12     1.051     0.803 -32.34   0
       320    702.9218     35.7455 300.3948752 +22.6149469     524.1028      72.3883      1.549     6.15     6.562728     20.41254      46.4123        11     1.348     0.790  47.35   0
       321    652.2204     31.6975 300.3803805 +22.5986194     2887.981      72.2777      1.622     3.09     6.510034     20.41254     272.3597        30     1.259     1.185 -86.58   0
       322    293.1341     32.7962 300.2681799 +22.4915030      448.481     72.36988      1.527     4.09     6.518255     20.41254     47.69888        10     1.048     0.671   4.56   0
       323    667.4731     30.6358 300.3854790 +22.6028755      934.826     72.31458      1.962     4.29     6.568681     20.41254      69.8714        17     1.338     0.865  48.50   0
       324    738.6263     23.2903 300.4100426 +22.6220396     1518.317     72.29614      1.666     3.09      6.62966     20.41254     155.7377        25     1.379     1.131  54.08   0
       325    898.1837     22.3451 300.4601207 +22.6694699     246.2477     72.31458      1.276     3.48     6.285985     20.41254     29.63848         5     0.787     0.445  15.01   0
       326    676.7717     16.6030 300.3929231 +22.6016186     653.3375     72.31458      1.457     3.53     6.664167     20.41254     66.65218        12     1.078     0.745 -11.81   0
       327    717.9954   1013.6072 300.0821640 +22.9005310     332.9554     72.20387      1.851     3.92     4.286382     20.41254       27.277         5     0.903     0.487  -2.26   0
       328     55.3762     15.9410 300.1996805 +22.4154846     457.3484     72.35145      1.479     4.50     7.274042     20.41254     61.41243         7     1.186     0.485  -1.80   0
       329    281.6189   1012.1865 299.9467160 +22.7693053     747.0068     72.31458      1.855     7.33     14.93288     20.41254      61.5817        17     1.646     0.914  56.02   0
       330    768.5538     12.8006 300.4227732 +22.6279691     345.2439     72.35145      1.526     5.37     6.486379     20.41254     49.79597        10     1.147     0.716  -4.44   0
       331    116.1933   1007.9091 299.8966535 +22.7184574     1493.272     72.25925      3.250    10.32     89.44827     20.41254     47.43008        32     1.961     1.570  -0.60   2
