#   1 NUMBER                 Running object number                                     
#   2 X_IMAGE                Object position along x                                    [pixel]
#   3 Y_IMAGE                Object position along y                                    [pixel]
#   4 ALPHA_J2000            Right ascension of barycenter (J2000)                      [deg]
#   5 DELTA_J2000            Declination of barycenter (J2000)                          [deg]
#   6 FLUX_APER              Flux vector within fixed circular aperture(s)              [count]
#   7 FLUXERR_APER           RMS error vector for aperture flux(es)                     [count]
#   8 FLUX_RADIUS            Fraction-of-light radii                                    [pixel]
#   9 FWHM_IMAGE             FWHM assuming a gaussian core                              [pixel]
#  10 BACKGROUND             Background at centroid position                            [count]
#  11 THRESHOLD              Detection threshold above background                       [count]
#  12 FLUX_MAX               Peak flux above background                                 [count]
#  13 ISOAREA_IMAGE          Isophotal area above Analysis threshold                    [pixel**2]
#  14 A_IMAGE                Profile RMS along major axis                               [pixel]
#  15 B_IMAGE                Profile RMS along minor axis                               [pixel]
#  16 THETA_IMAGE            Position angle (CCW/x)                                     [deg]
#  17 FLAGS                  Extraction flags                                          
         1    231.1825     20.6095 300.2354796 +22.4425002     3794.263      72.4854      1.581     2.85     4.619582     20.46598       393.46        33     1.303     1.190 -72.63   0
         2    792.4954     13.0075 300.4126570 +22.6084044     926.6446     72.42991      1.547     4.09     5.183768     20.46598     95.65933        17     1.272     0.870 -63.26   0
         3    347.0026     12.6263 300.2740815 +22.4749054     1200.054      72.4854      1.520     3.07     5.369922     20.46598     144.5387        21     1.291     1.056  55.68   0
         4    830.2280      8.2130 300.4259704 +22.6183178     502.1852     72.54086      1.586     4.22     5.296679     20.46598     60.39782        13     1.220     0.761  72.38  16
         5    753.9077      8.2734 300.4021665 +22.5954938      494.244     72.68852      1.666     2.96     5.209579     20.46598     64.59093         9     0.898     0.740  76.07   0
         6    850.2047      4.4821 300.4334060 +22.6232227     2048.908      70.4981      1.429     2.62     5.398774     20.46598     263.7405        24     1.171     1.025  62.79  16
         7    555.9406      2.7427 300.3423009 +22.5346394     464.9135     63.93777      1.413     4.66     4.469161     20.46598     54.85166        13     1.243     0.841  54.75  24
         8    557.6981    992.6906 300.0214431 +22.8194093      386.438      72.7254      1.402     4.17     2.313318     20.46598      32.4041         6     1.120     0.442 -83.11   0
         9    259.6289   1020.1118 299.9198040 +22.7378085     1954.642     71.61105      5.013    19.13     76.22292     20.46598     60.21384        81     3.506     2.899 -15.48  27
        10    297.6693    990.7338 299.9411878 +22.7408085     7019.839     72.59627      8.085    32.82     45.38782     20.46598     165.0975       676    10.706     4.676  65.02  18
        11    278.4464   1002.8857 299.9312582 +22.7385208     4628.969     72.52238      9.296    32.22     62.06157     20.46598     86.68965       425     7.124     5.532 -42.52  19
        12    259.9322   1003.4388 299.9253227 +22.7331210     3844.688     72.50389      6.299    17.19     64.00497     20.46598     87.43661       185     4.503     3.354 -45.77  19
        13    235.3301   1018.6130 299.9127386 +22.7300833     2339.172     72.54086      4.523    13.66     78.04008     20.46598     62.68531        50     2.929     2.129 -39.18  19
        14    231.3721   1013.4116 299.9132006 +22.7274043     3212.778     72.54086      6.554    29.16     74.20464     20.46598     79.13677       185     5.130     4.602 -15.30  19
        15    209.2070   1022.9860 299.9031967 +22.7234928     545.2318       60.202      2.242     7.51     79.23891     20.46598     50.16896        13     1.884     0.838   1.50  24
        16    192.3922   1022.3619 299.8981741 +22.7182649     1105.791     63.39038      2.168     8.61     75.79454     20.46598     55.97424        21     1.854     1.118 -54.70  27
        17    188.4378   1023.5378 299.8965626 +22.7174144     606.0023     57.21111      2.042     6.41     76.42252     20.46598     59.24711        12     1.599     0.721   2.53  27
        18    140.0718   1013.1498 299.8849138 +22.6999139      5126.89     72.54086     13.157    54.25     52.72841     20.46598     139.0364      1142    12.206     8.022  19.64  27
        19    136.1323    965.7138 299.8991211 +22.6851385     5031.698     72.63319     28.587   100.33     28.53585     20.46598     103.7341      4246    21.509    17.818 -81.48  27
        20    444.5091    955.9531 299.9981710 +22.7749097     6615.376     72.52238      1.855     3.90     3.347103     20.46598     457.0175        49     1.512     1.411  31.28   0
        21    514.0071    957.6057 300.0192585 +22.7962377      985.056     72.39289      1.776     3.96     2.911053     20.46598     84.72618        22     1.307     1.090  37.52   0
        22    985.4026    986.8292 300.1566054 +22.9460000     803.5021      72.4854      2.199     5.04      3.30839     20.46598     46.20576        11     1.172     0.766 -57.51   2
        23    223.8688    983.3983 299.9206326 +22.7165499     867.3883      72.4854      2.774     7.69       53.601     20.46598     42.57778        12     1.647     1.005  30.60   2
        24    477.2667    943.2776 300.0124861 +22.7811045     505.4094     72.63319      1.704     5.41     3.205148     20.46598      40.7519        10     1.221     0.676 -84.48   0
        25    190.5174    943.8777 299.9231225 +22.6952100     688.0978     72.63319      5.040     5.11     25.33052     20.46598     31.77407         5     1.025     0.722  -5.41   0
        26    181.8344    985.9144 299.9067506 +22.7046502      745.178     72.50389      2.663     4.92     51.51764     20.46598     36.59954         5     1.555     0.441  18.76   1
        27    793.6822   1004.4143 300.0911207 +22.8935616     708.1868     72.52238      2.026     6.40      2.54736     20.46598     39.33947        13     1.379     0.834 -12.13   0
        28    990.8241    934.6698 300.1752649 +22.9326506     2115.961     72.54086      2.011     4.66     3.099396     20.46598     106.5769        32     1.438     1.387  10.49   0
        29    779.6336    923.6544 300.1130160 +22.8661734     794.0784     72.55933      1.940     5.93      3.13186     20.46598     50.60065        12     1.045     0.946  35.02   0
        30     14.5280    975.8419 299.8580556 +22.6515207     654.6699     72.52238      3.023     6.33    0.3737877     20.46598     38.45197         9     1.818     0.619  72.02   0
        31    814.5035    917.7584 300.1257991 +22.8749370     1014.477     72.54086      1.744     4.12     3.128096     20.46598     81.59698        17     1.242     0.942  28.18   0
        32     24.2267    914.4312 299.8810404 +22.6368394     500.7724     72.54086      2.060     6.15      3.45139     20.46598     50.88798        10     1.373     0.775   2.16   0
        33    836.7396    911.5451 300.1347496 +22.8798207     11277.09     72.59627      1.863     3.92     3.128928     20.46598     651.4902        59     1.518     1.467  45.58   0
        34    881.8307    910.9527 300.1489964 +22.8931692      467.877      72.5778      1.814     6.26     3.111655     20.46598     34.04721         9     1.413     0.780  27.32   0
        35    488.3935    931.0164 300.0199365 +22.7809267     274.6293     72.46691      1.571     4.20     3.157314     20.46598     25.77262         5     1.096     0.459 -25.51   0
        36    148.7091    902.7576 299.9235041 +22.6708725     873.5667     72.54086      2.416     4.87     9.945137     20.46598     68.60124        14     1.264     0.996  67.08   0
        37    541.9023    899.8337 300.0467308 +22.7880363      419.047     72.52238      1.572     5.33     3.127829     20.46598     39.50155        10     0.997     0.805  65.74   0
        38    888.4047    898.8866 300.1549701 +22.8916763     317.8589     72.46691      1.665     5.48     3.103672     20.46598     34.53225         7     1.052     0.804  54.61   0
        39    673.3983    928.9472 300.0782019 +22.8358324     311.0304      72.5039      1.589     4.06      3.01795     20.46598     34.26445         5     0.796     0.593  -6.51   0
        40    845.1949    893.5986 300.1432216 +22.8772043     1414.462     72.35585      1.828     4.32     3.126411     20.46598     101.5362        24     1.251     1.226  60.01   0
        41    205.2651    972.8613 299.9182783 +22.7079445     1728.925      72.5778      4.672    13.15     45.11073     20.46598     48.62862        47     2.816     1.708  22.98   0
        42    697.0458    890.4794 300.0980780 +22.8318868     400.6344     72.54086      1.815     5.81      3.13504     20.46598     41.75777         9     1.383     0.686  31.30   0
        43    883.5808    887.0527 300.1573151 +22.8868329     746.5143     72.52238      2.010     4.85     3.108994     20.46598     60.09599        14     1.234     0.986  -3.08   0
        44    711.5912    970.7874 300.0764870 +22.8592924     6848.298     72.42991      1.883     3.92      2.81867     20.46598     407.6291        50     1.518     1.440   0.00   0
        45    991.9388    884.0485 300.1920773 +22.9184498      381.101     72.59627      1.602     5.82     2.881781     20.46598     39.02026         8     1.384     0.771 -33.05   0
        46    931.5076    878.5383 300.1750253 +22.8987550     607.9405     72.65163      1.719     6.30     3.040167     20.46598     48.56863        13     1.354     0.823 -50.06   0
        47    783.2351    877.3394 300.1292011 +22.8539607     591.8142     72.55933      1.709     4.87     3.107401     20.46598     54.86512        13     1.252     0.860  -9.60   0
        48    495.7726    873.6919 300.0408755 +22.7666986     4030.866      72.4854      1.632     3.47       3.3308     20.46598     337.7425        31     1.263     1.230 -38.10   0
        49    794.5809    874.3406 300.1337116 +22.8565017     585.3401      72.4854      1.635     6.06     3.098435     20.46598     40.31325        13     1.051     0.981 -56.30   0
        50    539.3867    861.6792 300.0583552 +22.7763363      396.592     72.52238      1.592     3.23     3.351893     20.46598     42.80904         8     0.815     0.766  20.81   0
        51    227.0967    993.9552 299.9182016 +22.7205446     1921.115     72.55933      4.370    15.24     61.22081     20.46598     63.08246        58     2.811     2.297  87.84   2
        52    220.6192    859.3633 299.9599613 +22.6800209     738.9096     72.55933      1.890     5.05     5.403569     20.46598     61.22353        15     1.345     1.071 -74.78   0
        53    198.2941    856.3217 299.9540116 +22.6724477     1590.703     72.67008      1.737     3.80     5.056242     20.46598     127.0046        23     1.271     1.110  25.15   0
        54    592.8433    964.8041 300.0414556 +22.8219552     306.5838     72.55933      1.669     3.69     2.583825     20.46598     31.44227         5     1.369     0.286  11.88   0
        55   1023.1255    844.1300 300.2147854 +22.9163327     1237.775     59.55284      1.542     3.85     2.610085     20.46598     118.2869        18     1.370     0.806  84.65  24
        56    729.2992    844.8958 300.1229474 +22.8284768     455.1671      72.7254      1.819     5.15     3.152366     20.46598     28.34674         8     1.159     0.648  88.23   0
        57    500.5445    842.8424 300.0523913 +22.7592808     214.2705     72.54086      1.089     3.44     3.364641     20.46598     34.74687         5     0.812     0.421  67.49   0
        58    807.6323    837.8228 300.1496530 +22.8499323     518.6821     72.54086      1.437     4.11     3.111129     20.46598     58.88497        13     1.057     0.925 -42.63   0
        59    230.2607    838.2370 299.9698267 +22.6768580     396.5643     72.55933      1.425     4.17     4.792557     20.46598     42.29743         6     0.757     0.654 -89.39   0
        60    675.7789    831.7928 300.1105375 +22.8086678     4807.128     72.52238      1.635     3.37     3.188619     20.46598     403.8185        37     1.288     1.259  86.17   0
        61    477.8023    828.9948 300.0498165 +22.7484861     686.8654     72.35585      1.663     5.71     3.386277     20.46598     64.58963        12     1.047     0.876   4.61   0
        62    225.7730    825.6951 299.9725092 +22.6719153     1461.284     72.44842      1.872     4.54     4.530002     20.46598      118.227        27     1.398     1.274  21.63   0
        63    696.8231    824.3707 300.1195049 +22.8128481     870.0952     72.54086      1.704     5.55     3.175071     20.46598     82.70221        17     1.569     0.886  -7.75   0
        64    245.3034    822.4980 299.9796193 +22.6768603     320.5231      72.7254      1.462     4.84     4.248878     20.46598      39.9224         6     1.080     0.651  47.38   0
        65    613.2494    815.0117 300.0965219 +22.7851005     283.2018     72.55933      1.571     3.70     3.250338     20.46598     35.25887         5     1.003     0.525 -54.23   0
        66    851.7755    811.5975 300.1719368 +22.8556363     4261.204      72.4854      1.758     3.50     3.380052     20.46598     322.6593        39     1.363     1.320 -47.98   0
        67    568.9496    804.1453 300.0862629 +22.7686966     739.0016      72.5778      1.901     4.68     3.318257     20.46598      57.4813        15     1.310     0.959 -20.56   0
        68    260.6584    805.6287 299.9898765 +22.6766315     467.3911     72.54086      1.534     2.93     3.910319     20.46598     49.83932         5     0.868     0.460  11.53   0
        69    215.1703    801.6996 299.9770141 +22.6618533     1126.315     72.46691      1.838     3.78     3.886961     20.46598     104.6038        22     1.290     1.120  23.48   0
        70    364.8288    794.0351 300.0260363 +22.7045650     52938.62     72.55933      1.629     3.15     3.834415     20.46598     4640.719        97     1.496     1.417  36.35   0
        71    630.5734    797.7483 300.1075282 +22.7853417     518.6403     72.55933      1.418     3.97     3.220197     20.46598     63.58087         8     1.074     0.577  17.86   0
        72    622.6564    793.1948 300.1065433 +22.7816608     1676.161     72.50389      1.589     3.33     3.246363     20.46598     147.4948        21     1.155     1.040 -38.95   0
        73    293.0013    791.9489 300.0043785 +22.6824145     487.0197     72.50389      1.580     4.44     3.846942     20.46598     56.04306        11     1.178     0.772 -87.37   0
        74    651.7179    789.2375 300.1168792 +22.7892398     974.4913      72.5039      1.615     3.46     3.222945     20.46598     90.22617        15     1.085     0.908   8.46   0
        75     50.7843    788.5853 299.9302023 +22.6087498     839.3374      72.4854      1.827     5.60     3.315375     20.46598      76.4809        19     1.377     1.156 -22.04   0
        76     18.2688    788.6499 299.9200832 +22.5990063     759.4905     72.54086      1.919     5.25     3.208992     20.46598     58.95533        16     1.436     0.953  59.61   0
        77    662.6315    787.7516 300.1207608 +22.7920858     533.3392      72.5778      1.462     4.19     3.210957     20.46598     64.66918        12     1.079     0.774  34.53   0
        78    981.6111    784.6782 300.2211670 +22.8868180     394.8232     72.52238      1.795     5.59     3.150164     20.46598     42.30852         8     1.176     0.749  25.38   0
        79    767.7878    783.7969 300.1548020 +22.8224783     373.2573     72.37437      1.295     3.28     3.158423     20.46598     55.75074         6     0.775     0.740  47.35   0
        80    805.6489    774.1335 300.1697405 +22.8310536     924.0673     72.54086      1.844     4.15     3.210993     20.46598     83.08185        17     1.193     1.047   3.73   0
        81    414.5573    771.2640 300.0489060 +22.7129525     31495.38     72.54086      1.614     3.04     3.823468     20.46598     2892.597        78     1.423     1.382  61.43   0
        82    428.9020    771.8778 300.0531691 +22.7174318     1908.253     72.67008      1.544     3.17     3.736134     20.46598     188.8645        23     1.204     1.043  24.04   0
        83    937.6414    767.2715 300.2131143 +22.8686429     2859.214     72.52238      1.710     3.60     3.637519     20.46598      204.167        30     1.283     1.252 -74.44   0
        84    425.7253    766.0328 300.0540806 +22.7148020     626.9374     72.54086      1.727     3.51     3.767563     20.46598      66.4328        12     1.003     0.977  89.40   0
        85    695.4338    763.2366 300.1389457 +22.7948846     962.4277     72.59627      1.472     3.46     3.221946     20.46598     94.15523        15     1.119     0.863  63.73   0
        86    532.0927    763.4022 300.0880343 +22.7459519     429.5158     72.44842      1.839     5.26     3.491782     20.46598     36.55193         7     1.193     0.655  11.19   0
        87    297.0586    763.2495 300.0149682 +22.6754015     792.2891     72.59627      1.541     2.93     3.837531     20.46598     78.33511        13     0.983     0.843 -32.91   0
        88    542.6437    758.1447 300.0930272 +22.7476076     858.4061     72.54086      1.413     2.78      3.53805     20.46598     111.1178        13     0.958     0.872  50.47   0
        89    101.6719    758.6888 299.9557258 +22.6154560      482.571     72.70696      1.597     3.84     3.601488     20.46598     50.11173        12     1.044     0.923  36.75   0
        90    943.7861    755.2595 300.2189348 +22.8670344     570.8611      72.5039      1.636     5.43     3.695467     20.46598     46.39782        12     1.080     0.870   3.83   0
        91    444.7646    754.1031 300.0638813 +22.7170909     265.4508     72.54086      1.151     5.38     3.643129     20.46598     33.11338         7     0.991     0.825 -15.38   0
        92    400.5661    753.7726 300.0502387 +22.7037376     388.5509     72.55933      1.469     4.07     3.851135     20.46598     36.48002         7     1.020     0.464 -78.98   0
        93    697.5761    752.6421 300.1430565 +22.7924858     219.7775     72.59627      1.584     3.44     3.230737     20.46598     25.37012         5     1.089     0.315 -68.55   0
        94    488.3451    753.0705 300.0777773 +22.7298665     504.3515     72.55933      1.520     3.90     3.389965     20.46598     59.38789         9     0.951     0.654 -22.49   0
        95    130.2631    752.3320 299.9666744 +22.6222155     568.4478     72.59627      1.947     6.40       3.6785     20.46598     40.37705        10     1.192     0.966 -79.70   0
        96    921.6241    749.9981 300.2137350 +22.8588822     341.8004      72.4854      1.425     5.36     3.756018     20.46598     32.64751        10     1.086     0.747 -14.25   0
        97    294.4689    747.4395 300.0193013 +22.6700902     584.1378      72.5039      1.604     5.75     3.832338     20.46598     56.95406        17     1.426     1.084 -20.33   0
        98    618.1733    738.3313 300.1229801 +22.7645710     469.0518     72.52238      1.584     4.24      3.45861     20.46598     47.55441        10     0.984     0.811  37.25   0
        99    587.6412    736.0542 300.1142142 +22.7547623     671.9224      72.5039      1.498     3.45     3.542785     20.46598     70.97802        13     1.127     0.785 -53.77   0
       100    496.7447    735.0223 300.0862569 +22.7272072     414.3412     72.55933      2.134     3.91     3.434485     20.46598     34.58607         5     0.850     0.515  41.27   0
       101   1004.1457    732.6077 300.2451204 +22.8786138     4433.809     72.54086      1.745     3.43     3.846187     20.46598     365.2231        37     1.362     1.297  24.12   0
       102    609.6434    733.6208 300.1218551 +22.7606614     1347.517      72.5778      1.480     2.98     3.513784     20.46598     147.1323        18     1.083     0.975   6.12   0
       103    529.2841    733.4362 300.0968993 +22.7365109     280.0125     72.52238      1.437     3.48     3.578935     20.46598     46.47533         5     0.825     0.608  45.04   0
       104    992.4682    724.1019 300.2442428 +22.8726718     1620.231     72.63319      1.682     3.45     3.882755     20.46598     137.0645        26     1.282     1.107   1.54   0
       105    355.4500    717.8301 300.0478865 +22.6798927     895.2614     72.55933      1.613     3.02     3.793151     20.46598     99.88249        15     1.079     0.870  63.66   0
       106    221.9261    718.9247 300.0060160 +22.6401453     355.2882     72.61473      1.818     3.69     3.617244     20.46598     31.78027         5     0.630     0.620 -27.89   0
       107    818.9081    715.2494 300.1930110 +22.8181206     2565.785      72.5778      1.604     3.09     3.497016     20.46598     210.1203        28     1.244     1.198   5.95   0
       108   1023.1561    714.1514 300.2570482 +22.8790072     1052.985     59.41764      1.368     3.84     3.923386     20.46598     119.0958        16     1.286     0.776  88.89  24
       109     41.1805    705.5380 299.9542077 +22.5820616     790.9877     72.52238      1.856     5.17     3.706907     20.46598     71.77335        16     1.445     1.167 -29.76   0
       110    901.2473    701.0236 300.2232989 +22.8387105     607.7184     72.55933      1.786     5.07     3.874934     20.46598     44.54202        11     1.163     0.831 -73.74   0
       111    204.4032    701.7439 300.0061523 +22.6299601     540.6223      72.5039      1.598     3.75     3.718223     20.46598     64.27782        12     1.102     0.752 -26.87   0
       112    937.3646    692.1967 300.2374278 +22.8469972       147883     72.54086      1.660     3.20     4.012774     20.46598     12525.55       162     1.546     1.516  49.67   0
       113    699.9507    695.8793 300.1622432 +22.7769027      520.329     72.54086      1.740     3.92     3.457786     20.46598     51.93497        10     1.016     0.697  58.62   0
       114    789.7404    692.3958 300.1913483 +22.8028162     818.4532      72.5039      1.648     3.08     3.472763     20.46598     87.17262        13     1.011     0.866  46.43   0
       115    970.0991    685.2205 300.2499022 +22.8548009     386.8322     72.46691      1.498     3.59     4.041216     20.46598     43.77895         5     0.792     0.499 -47.46   0
       116    623.6443    681.0709 300.1432911 +22.7497759     1634.915      72.5039      1.442     2.74     3.944253     20.46598     186.3834        18     1.016     1.000   8.27   0
       117    804.7938    678.3118 300.2006156 +22.8032834     9273.828     72.44842      1.541     2.82     3.594942     20.46598     925.2737        48     1.309     1.244  57.77   0
       118    286.0242    679.3425 300.0388034 +22.6480248     287.9446     72.54086      1.492     4.61     3.827765     20.46598     31.98134         6     0.873     0.691  25.70   0
       119    306.3016    673.3053 300.0470697 +22.6523762     4940.376      72.7254      1.555     3.00     3.796742     20.46598     470.3081        34     1.230     1.214 -46.95   0
       120     20.0427    671.7552 299.9586188 +22.5660321     1654.196     72.59627      1.890     4.15     4.018517     20.46598     140.4081        26     1.298     1.252  41.84   0
       121    388.2289    671.2905 300.0732037 +22.6763738     1212.945      72.5039      1.571     3.22     3.642675     20.46598     129.9431        20     1.215     1.111 -62.38   0
       122    264.2631    668.8718 300.0354397 +22.6384928     435.5133      72.5778      1.497     3.11     3.830569     20.46598     59.05999         8     0.909     0.729  13.40   0
       123    596.8014    666.8798 300.1395441 +22.7376545     739.5498     72.42991      1.435     3.85     4.098809     20.46598     95.31401        12     1.053     0.840 -20.08   0
       124    588.2388    659.1318 300.1393956 +22.7328633     3226.291     72.50389      1.429     2.76     4.117718     20.46598     333.8326        27     1.111     1.085  33.24   0
       125    578.5068    653.0278 300.1383489 +22.7281934     1391.552     72.46691      1.374     2.68     4.120665     20.46598     165.1956        15     1.006     0.856  39.47   0
       126    972.2328    650.9278 300.2617101 +22.8455886     483.4837     72.54086      1.374     3.56     4.102435     20.46598     66.56599         8     0.940     0.646  26.20   0
       127    489.8808    650.0338 300.1117362 +22.7007602     236.2018     72.50389      1.522     3.76     3.550851     20.46598     42.09302         5     1.011     0.401  28.23   0
       128    241.7128    648.8332 300.0349393 +22.6259796     638.5105     72.50389      1.525     3.32     3.845742     20.46598     78.86079        12     1.075     0.765  43.17   0
       129    256.2929    647.5850 300.0398773 +22.6299957     608.2826     72.46691      1.592     3.20      3.84127     20.46598     59.86085        10     0.906     0.728  81.47   0
       130    313.1041    644.6447 300.0584960 +22.6461950     294.7531     72.55933      1.515     3.49     3.783421     20.46598     41.03574         5     0.996     0.352  44.43   0
       131    282.0567    644.2546 300.0489690 +22.6367695     549.4667     72.59627      1.549     4.78     3.832089     20.46598     50.51424        12     1.110     0.819  32.75   0
       132    503.3350    642.5188 300.1183646 +22.7026378       1712.1     72.65163      1.486     2.82     3.707779     20.46598     188.2876        20     1.099     0.973  82.64   0
       133    602.5735    642.9963 300.1491006 +22.7325292     421.8179      72.5039      1.603     3.20     4.241922     20.46598      56.0674         7     0.840     0.734 -37.01   0
       134    157.2669    637.4636 300.0123869 +22.5973818     19750.53     72.59627      1.649     3.01      3.87441     20.46598     2028.503        66     1.460     1.339  44.19   0
       135    588.2821    637.9219 300.1462996 +22.7267879     1040.119     72.65163      1.496     4.21     4.215621     20.46598     107.6059        16     1.282     0.916 -39.65   0
       136     78.2714    638.8327 299.9873991 +22.5740692     729.6889     72.54086      1.812     5.02     3.939231     20.46598     67.43296        11     1.314     0.728  43.88   0
       137    623.8394    637.0764 300.1576452 +22.7372050     338.8883     72.52238      1.424     2.30     4.256592     20.46598     52.93432         6     0.778     0.597 -86.43   0
       138    959.7440    633.3879 300.2635141 +22.8368082     258.1425     72.54086      1.499     3.47     4.125576     20.46598     27.64099         5     0.762     0.457 -16.14   0
       139   1006.2419    624.1254 300.2810244 +22.8480756     949.4317     72.52238      1.582     4.45     4.072793     20.46598      81.6551        18     1.318     0.921  52.50   0
       140    103.4054    621.7048 300.0007706 +22.5767003     1545.247     72.42991      1.932     4.30     3.923224     20.46598     118.9692        28     1.590     1.151  86.72   0
       141    872.7440    622.1149 300.2400516 +22.8075050     482.4022     72.63319      1.432     4.42     4.122535     20.46598     70.65375         9     1.046     0.676  51.74   0
       142    169.4959    621.9802 300.0212164 +22.5966104     499.3206     72.44842      1.676     3.03     3.880726     20.46598     58.22641         8     0.905     0.717   8.40   0
       143    551.3445    618.5005 300.1411097 +22.7101388     504.9615     72.63319      1.758     3.89     4.135042     20.46598      52.5615        10     1.157     0.688 -60.96   0
       144    343.9515    617.7571 300.0768229 +22.6477337     248.7053     72.55933      1.425     4.59     3.724428     20.46598     41.10929         5     0.878     0.681 -41.37   0
       145    946.3306    616.8497 300.2647041 +22.8280386       787.89     72.54086      1.743     5.11     4.160963     20.46598     72.01707        12     1.323     0.734  23.53   0
       146    690.6215    615.5593 300.1854327 +22.7510453     200.7556      72.5778      1.105     3.80       4.1603     20.46598     37.34863         5     0.955     0.447  77.16   0
       147    508.3971    610.9062 300.1302091 +22.6950824     716.0125     72.44842      1.312     3.17     3.930391     20.46598     84.43234        10     0.892     0.791   0.71   0
       148    656.3890    609.3326 300.1767937 +22.7389968     446.3785     72.54086      1.341     4.36     4.414459     20.46598     56.20424        10     1.172     0.745  67.36   0
       149    703.7090    607.9847 300.1919697 +22.7527929     422.7088     72.46691      1.376     3.28     4.102179     20.46598     60.69776        11     0.996     0.751 -12.69   0
       150    673.9628    607.5876 300.1828336 +22.7437633     509.8837     72.52238      1.356     3.71     4.389182     20.46598     72.66268        11     1.094     0.724  65.50   0
       151    552.5768    606.6085 300.1453562 +22.7070946      1078.89     72.54086      1.650     3.43      4.17417     20.46598     101.8686        18     1.120     1.034 -62.96   0
       152    518.1394    602.1405 300.1360884 +22.6954873     1636.597     72.59627      1.394     2.50     4.003569     20.46598     193.9566        21     1.137     0.977  38.38   0
       153    883.5092    599.6075 300.2507187 +22.8042650     388.5635     72.44842      1.626     3.97      4.17747     20.46598     42.66999         5     1.072     0.422 -53.55   0
       154     80.0823    595.6567 300.0019853 +22.5622318     5096.872     72.59627      1.674     3.13     3.961986     20.46598     507.5878        39     1.419     1.241  39.09   0
       155    493.7929    597.3740 300.1300594 +22.6868195     275.6165     72.54086      1.198     2.37     3.899914     20.46598     42.30033         5     0.704     0.455 -17.81   0
       156    986.4137    602.2933 300.2819324 +22.8358633      3344.74     72.46691      1.664     3.02     4.064731     20.46598     272.2221        30     1.234     1.192  32.31   0
       157    381.5155    588.8417 300.0978980 +22.6507028     8997.245     72.50389      1.492     2.70     3.754312     20.46598     1056.903        43     1.259     1.199  67.45   0
       158    503.9343    585.8412 300.1369613 +22.6865498     8902.733     72.52238      1.436     2.63     3.969142     20.46598     1095.026        43     1.280     1.138  58.49   0
       159    750.4230    582.2903 300.2148679 +22.7594139     326.6523     72.46691      1.369     4.53     3.988813     20.46598     49.35023         9     1.223     0.491  87.08   0
       160    915.7209    579.8656 300.2671734 +22.8082434     1960.864     72.65163      1.595     3.10     4.126405     20.46598     175.8103        26     1.203     1.136 -68.46   0
       161   1000.3320    577.2674 300.2944021 +22.8328411      12277.4     72.59627      1.637     3.06     3.885414     20.46598     1174.849        54     1.362     1.346  -2.04   0
       162    564.5267    575.4715 300.1591892 +22.7017386     11580.12     72.59627      1.422     2.51     4.290811     20.46598     1321.511        48     1.271     1.191  58.50   0
       163    733.9072    571.2859 300.2132967 +22.7513042     692.7183     72.70696      1.587     4.70     4.157909     20.46598     59.20284        14     1.313     0.820  69.64   0
       164    291.9738    571.0551 300.0758278 +22.6187440     1347.027     72.54086      1.457     2.94     3.879682     20.46598     159.4899        19     1.125     0.985  21.44   0
       165    450.0374    570.2205 300.1252628 +22.6659062     322.0271     72.55933      1.064     3.36     3.862273     20.46598     42.45699         6     0.896     0.459  37.16   0
       166    538.8900    568.2651 300.1535493 +22.6919843     526.7401     72.65163      1.475     2.72     4.126576     20.46598     56.54036         8     0.809     0.639  35.89   0
       167    496.2347    563.6774 300.1417633 +22.6778794     4437.243      72.5039      1.421     2.44      3.98888     20.46598     531.9891        34     1.208     1.103  65.40   0
       168    839.1709    563.7637 300.2485403 +22.7806845     802.6241     72.55933      1.395     2.44     3.969952     20.46598     113.2356        12     0.948     0.735 -61.84   0
       169    474.6432    562.2302 300.1355141 +22.6709904     1229.358      72.5778      1.340     2.63     3.934021     20.46598     151.5501        16     1.003     0.899  10.78   0
       170    228.6208    561.0288 300.0593881 +22.5968646     828.4745     72.54086      1.654     4.44     3.963579     20.46598     95.89747        18     1.426     0.907  63.06   0
       171    916.1221    559.2301 300.2740006 +22.8024348     1624.926     72.52238      1.604     3.48     4.072787     20.46598     142.5097        24     1.265     1.073 -16.15   0
       172    612.8428    551.1866 300.1821185 +22.7092491     199781.6     72.55933      1.421     2.53     4.701835     20.46598     22785.62       200     1.495     1.448   8.40   0
       173    436.1688    557.4688 300.1250888 +22.6580879     459.0007     72.52238      1.726     5.52      3.86863     20.46598     41.53554         8     1.072     0.802  15.30   0
       174    796.5751    556.0809 300.2377606 +22.7657153     752.8862     72.52238      1.391     2.82     3.835713     20.46598      102.145        14     0.973     0.879 -80.26   0
       175    298.9389    551.2184 300.0844352 +22.6151414     3500.003     72.50389      1.462     2.66     3.901775     20.46598     383.1112        27     1.182     1.077  21.34   0
       176    864.8268    547.4307 300.2618415 +22.7836786      543.852     72.54086      1.559     3.17     4.042149     20.46598     55.63255         8     0.807     0.757  50.46   0
       177    644.7310    537.9568 300.1963444 +22.7150078     279.1201      72.5039      1.257     3.28     4.552144     20.46598     50.38338         5     0.953     0.327 -46.40   0
       178    503.4211    531.6891 300.1543874 +22.6708512      2909.71     72.46691      1.587     2.62      4.11258     20.46598     312.4512        31     1.628     1.028 -88.73   0
       179    347.7079    533.9177 300.1052190 +22.6248028     415.9506     72.68852      1.362     4.32     3.864382     20.46598     50.08108         7     0.941     0.649  81.43   0
       180    914.9921    528.1712 300.2837347 +22.7931724     397.6423     72.54086      1.431     3.00     4.040814     20.46598     47.55129         5     0.792     0.492  55.78   0
       181    734.7620    526.8570 300.2279912 +22.7388000     274.2007     72.54086      1.317     4.15     4.268447     20.46598     44.64052         6     1.135     0.432 -58.93   0
       182    820.5350    520.0529 300.2569270 +22.7625443     465.4354      72.5778      1.758     3.41     3.898074     20.46598     37.88654         8     0.804     0.706  -4.68   0
       183    900.5797    517.5886 300.2826777 +22.7858146     1733.127     72.52238      1.516     2.99      4.04408     20.46598     188.5332        21     1.188     1.043   3.56   0
       184    771.7377    515.4152 300.2432267 +22.7465924     2484.782      72.5039      1.390     2.47     3.988721     20.46598     288.9883        23     1.117     0.984  67.10   0
       185     30.5874    516.2307 300.0124026 +22.5246024     879.9116     72.54086      1.727     3.85     3.986242     20.46598     75.89028        16     1.172     1.009  13.15   0
       186    130.9354    515.7078 300.0437451 +22.5545595      311.108     72.65163      1.571     3.97     3.956907     20.46598     34.35404         6     1.081     0.416 -10.56   0
       187   1014.6316    508.7834 300.3211028 +22.8174425     959.6295     72.52238      2.253     3.44     3.617972     20.46598     76.11583        14     1.150     0.797  51.56   2
       188    980.9600    512.2263 300.3094828 +22.8083483     362.3637     72.59627      1.761     4.27     3.786154     20.46598     31.39778         5     1.061     0.489  37.25   0
       189    676.6271    511.9521 300.2147220 +22.7170986     386.1477     72.55933      1.588     4.64     4.383337     20.46598     40.25633         7     1.096     0.558 -29.29   0
       190    558.9125    511.2589 300.1782934 +22.6816200     643.2376     72.61473      1.242     2.52     4.455501     20.46598     95.83307         9     0.825     0.691  62.89   0
       191    900.7302    507.8037 300.2859019 +22.7830481     2253.001      72.4854      1.699     3.57     4.046687     20.46598     205.3055        27     1.522     0.982  72.02   0
       192    653.7903    505.0797 300.2098411 +22.7082813     864.0381     72.50389      2.050     7.06     4.502838     20.46598     75.96049        18     2.053     0.818 -87.06   0
       193    440.4512    505.5792 300.1432702 +22.6444778     381.1608     72.54086      1.561     3.64      3.98528     20.46598     45.41709         6     0.981     0.389 -69.85   0
       194    938.9083    502.9098 300.2993944 +22.7930768     4198.585     72.70696      1.499     2.85     3.995067     20.46598     427.5362        32     1.228     1.155  72.70   0
       195    492.6901    504.6278 300.1598344 +22.6598654     280.9497     72.52238      1.164     3.12     4.196991     20.46598     48.50477         5     0.734     0.447  18.37   0
       196    579.6574    502.0859 300.1877298 +22.6852040       206.12     72.65163      1.298     3.45     4.604994     20.46598     35.01787         5     0.804     0.427 -72.33   0
       197    599.3358    499.0618 300.1948384 +22.6902335     288.9681      72.5778      1.248     3.50     4.702579     20.46598     41.53988         5     0.997     0.510  53.73   0
       198    171.0183    493.1962 300.0635091 +22.5601256      944.342      72.4854      1.490     2.85     3.953072     20.46598     117.4618        16     1.002     0.979 -65.03   0
       199    969.7911    490.3615 300.3130991 +22.7987197     271.1979     72.55933      1.629     4.44     3.841953     20.46598     28.61606         5     0.987     0.568  48.47   0
       200    218.8123    484.8419 300.0810757 +22.5720641     418.4242     72.52238      1.557     3.55     3.989516     20.46598     39.87036         5     1.105     0.329 -78.50   0
       201    163.3127    483.0269 300.0644157 +22.5548967     360.5746     72.52238      1.228     3.23     3.946997     20.46598     60.45177         7     0.883     0.627  32.21   0
       202    771.2360    477.5061 300.2553786 +22.7355521     458.4734     72.54086      1.232     4.04     3.886823     20.46598     52.55585        10     1.138     0.683 -14.79   0
       203    660.4659    475.4151 300.2215512 +22.7017622     325.8958     72.52238      1.462     4.61      4.42121     20.46598     39.66364         6     1.287     0.468  41.30   0
       204    380.8144    475.2959 300.1345488 +22.6179050     314.3775     72.46691      1.760     4.26     3.893225     20.46598     38.47213         5     1.043     0.495 -35.78   0
       205    712.2964    473.4425 300.2383353 +22.7167261     739.6929     72.55933      1.310     2.80     4.076127     20.46598      91.6531        14     1.013     0.843  56.55   0
       206    773.2368    465.8081 300.2597998 +22.7327908     720.4651     72.54086      1.317     2.72     3.876679     20.46598     118.8469        11     0.861     0.842  58.66   0
       207    930.3781    461.8409 300.3100683 +22.7787198     889.6312      72.5778      1.414     3.07     4.045227     20.46598     114.0502        15     0.975     0.955 -72.72   0
       208    914.7473    458.2745 300.3063526 +22.7730136      588.738     72.55933      1.359     3.96     4.040409     20.46598     68.08712        12     1.058     0.796  83.91   0
       209    658.8800    456.1006 300.2273273 +22.6957395     3277.207     72.67008      1.339     2.45     4.271031     20.46598     431.9139        23     1.071     0.950  39.62   0
       210   1019.3914    454.9887 300.3400530 +22.8034056     621.8665     72.42991      2.289     5.47     3.779989     20.46598     44.49815        10     1.179     0.735  67.00  16
       211    134.9307    447.0556 300.0672725 +22.5360634     309.2701     72.55933      1.293     4.34     3.949707     20.46598     40.37994         9     0.962     0.689 -15.82   0
       212    499.1886    443.4713 300.1817103 +22.6442549     418.8328     72.55933      1.533     3.04     4.179722     20.46598     47.99421         7     0.924     0.485  -8.66   0
       213    942.1099    435.0508 300.3224232 +22.7745336     533.1047     72.55933      1.396     4.66     4.030374     20.46598     50.92149        10     1.199     0.801 -21.01   0
       214    678.6326    432.0712 300.2412793 +22.6947559     319.3382     72.54086      1.507     4.10     4.014698     20.46598     40.73132         5     1.047     0.458  28.63   0
       215    565.1813    430.7325 300.2063864 +22.6603755     525.6616     72.54086      1.356     3.39     4.210237     20.46598     56.46649        10     1.022     0.642  16.65   0
       216    769.4799    429.9312 300.2702752 +22.7213580     1158.076     72.65163      1.354     2.70     3.849906     20.46598      135.751        15     0.965     0.902  39.98   0
       217    273.5405    428.3517 300.1164259 +22.5722661     667.8012     72.59627      1.534     3.54     4.055507     20.46598     64.42663        13     1.138     0.743  32.22   0
       218    113.6578    426.4602 300.0673472 +22.5237737     310.4723     72.61473      1.258     3.87      3.96157     20.46598     33.74744         6     0.907     0.474  89.70   0
       219    335.8784    423.9297 300.1372455 +22.5896882     3632.776     72.65163      1.391     2.50       3.9541     20.46598     488.6484        24     1.098     0.997  46.05   0
       220    283.0488    418.6549 300.1225293 +22.5723342     7548.028      72.5778      1.464     2.74     4.072044     20.46598     856.4042        42     1.290     1.159  66.45   0
       221    661.7116    418.1442 300.2405295 +22.6856855     334.3325      72.5778      2.135     4.63      3.95339     20.46598     35.79976         5     0.942     0.646 -63.46   0
       222    423.9230    412.9266 300.1682037 +22.6129243     4805.154     72.65163      1.405     2.41     3.934677     20.46598     650.2464        34     1.175     1.105  56.77   0
       223    668.0668    409.7097 300.2452464 +22.6851668     18571.21     72.65163      1.394     2.48      3.92459     20.46598     2504.321        56     1.275     1.151  63.19   0
       224    515.4795    411.6015 300.1971245 +22.6399862     318.7652     72.44842      1.325     3.41      4.07314     20.46598      44.6105         6     0.861     0.490   0.58   0
       225    685.3537    409.7526 300.2506167 +22.6903583       870.74     72.54086      1.966     6.16     3.897137     20.46598      66.3195        17     1.621     0.775 -45.74   0
       226    864.9933    400.2774 300.3096671 +22.7414455     251.7265     72.46691      1.326     4.30     3.933956     20.46598     34.77241         7     0.742     0.710 -19.16   0
       227   1001.4083    392.2057 300.3548226 +22.7799734     678.2129     72.39289      1.499     3.29     4.048763     20.46598     88.58931        13     1.025     0.916 -57.55   0
       228    538.4450    391.7430 300.2107176 +22.6411659     447.3211     72.55933      1.346     2.62      4.02302     20.46598     54.05912         5     0.700     0.492 -82.09   0
       229    222.6767    389.7549 300.1131391 +22.5459369      2086.45     72.52238      1.539     2.74     3.973954     20.46598     256.1113        26     1.229     1.076  34.33   0
       230    608.7572    379.2209 300.2366712 +22.6586386     6629.621      72.5778      1.340     2.31      3.95505     20.46598     812.3445        36     1.182     1.085  73.97   0
       231   1022.3257    379.4955 300.3654721 +22.7825818     1184.273     63.70675      1.524     3.19     4.048763     20.46598     129.0179        17     1.131     0.943  23.94  24
       232    323.5146    378.4758 300.1481513 +22.5729338     734.3995     72.65163      1.447     3.03     4.028232     20.46598     76.46124        14     1.073     0.779  47.06   0
       233    181.1224    371.8255 300.1060410 +22.5283306     579.7061     72.54086      1.801     4.45     3.925763     20.46598     53.79329        10     1.081     0.729 -63.69   0
       234    868.7466    370.8517 300.3203867 +22.7341126      291.753      72.5778      1.091     3.93     3.959813     20.46598     44.90555         6     0.766     0.577  46.08   0
       235    722.7363    369.4742 300.2753330 +22.6899855     606.8754      72.5778      1.535     3.05     3.856573     20.46598     77.72426        11     1.009     0.762 -26.85   0
       236     28.4980    369.2787 300.0594487 +22.4818245     1302.048     72.67008      1.535     3.21     3.987418     20.46598     136.3821        19     1.071     1.060 -71.36   0
       237    812.8197    368.1056 300.3038461 +22.7165744     1051.295     72.46691      1.389     2.90     3.916988     20.46598      120.399        17     1.027     0.959  10.58   0
       238    515.3283    365.3533 300.2120859 +22.6266595      6128.23     72.52238      1.374     2.44     3.933159     20.46598     678.9335        38     1.243     1.070  66.99   0
       239    907.3464    359.8274 300.3359977 +22.7425026     1493.228     72.55933      1.502     2.62     4.018746     20.46598     174.8105        24     1.253     1.057  32.54   0
       240   1004.7444    359.9984 300.3663153 +22.7717130     702.8295     72.46691      1.827     4.41     4.048763     20.46598     66.45118        13     1.220     0.766  -6.91   0
       241      6.4718    355.3219 300.0571363 +22.4712135     367.6293     72.65163      1.366     3.40     3.992085     20.46598     47.40947         5     1.068     0.312 -67.60  16
       242    500.1658    354.3683 300.2109311 +22.6189609     501.1911     72.55933      1.375     2.46      3.90024     20.46598      77.5109         9     0.819     0.742 -21.81   0
       243    582.4333    352.0396 300.2372952 +22.6429437     459.3965      72.5778      1.461     3.03     3.886978     20.46598     63.27732         7     0.901     0.584  34.16   0
       244     26.7787    350.7156 300.0649375 +22.4759833     1058.454      72.4854      1.600     3.42     3.977709     20.46598     107.4531        17     1.102     0.996 -51.16   0
       245    880.0110    347.5431 300.3314618 +22.7307864     596.3906      72.5039      1.553     3.26     3.983792     20.46598      59.9213        10     0.905     0.797 -81.80   0
       246    402.9580    344.5429 300.1838718 +22.5870060     2661.977     72.52238      1.425     2.51       3.9015     20.46598     339.3214        25     1.107     1.028  62.91   0
       247    121.4617    342.0032 300.0971773 +22.5018811     982.5532     72.52238      1.425     2.69     3.931306     20.46598     123.3294        14     0.964     0.869  58.06   0
       248    349.9791    337.6531 300.1696275 +22.5691478     299.4616     72.54086      1.448     4.80     3.912701     20.46598     35.57711         8     1.056     0.618 -70.36   0
       249    372.2146    333.9565 300.1777430 +22.5747515     29697.37     72.55933      1.418     2.53       3.9015     20.46598     3555.651        66     1.330     1.193  61.44   0
       250    906.9123    331.4444 300.3450721 +22.7342139     1438.823     72.52238      1.438     2.51     3.998249     20.46598     176.2711        20     1.089     0.982  41.49   0
       251    862.9431    329.5402 300.3319825 +22.7205009     247.7584     72.61473      1.263     3.67     3.965371     20.46598     44.51149         7     0.951     0.588 -51.88   0
       252     68.5798    321.6959 300.0873360 +22.4801946      4817.29     72.44842      1.567     2.91     3.982336     20.46598     561.0117        36     1.366     1.158  63.11   0
       253    822.0886    320.5117 300.3221778 +22.7056720     375.3029     72.70696      1.268     2.12     3.951478     20.46598     66.65417         8     0.746     0.652 -85.09   0
       254    246.1826    320.0570 300.1430602 +22.5329800     513.8181     72.50389      1.495     3.14     3.899875     20.46598       53.898         8     0.823     0.721  78.83   0
       255    470.6319    319.1453 300.2131679 +22.5999946     430.5787     72.55933      1.254     2.66     3.892263     20.46598     56.12829         7     0.736     0.621  88.09   0
       256      3.2060    318.0547 300.0682122 +22.4595424     181.5124      66.0008      1.147     3.78     4.007002     20.46598     31.95439         5     0.836     0.491  36.63  16
       257    782.6610    313.8171 300.3120625 +22.6919406     1906.192     72.50389      1.402     2.63     3.924966     20.46598     231.5106        23     1.171     0.952  64.92   0
       258    590.8235    308.4508 300.2540495 +22.6329362     319.8671     72.54086      1.159     2.72     3.874526     20.46598      57.1334         8     0.861     0.617  54.90   0
       259    997.6512    306.7242 300.3813885 +22.7542723     559.8083     72.54086      1.307     2.97     3.978187     20.46598     87.49423        10     0.920     0.816 -67.98   0
       260    444.4288    298.3514 300.2117599 +22.5861704     2148.925     72.55933      1.633     3.19     3.895092     20.46598     215.6758        25     1.399     0.931  58.88   0
       261    656.6714    297.3951 300.2781409 +22.6494860     340.4145      72.4854      1.426     3.68     3.865113     20.46598     36.02821         7     0.854     0.653  71.60   0
       262    883.4251    291.3696 300.3507511 +22.7156615     653.0655     72.54086      1.364     3.35     3.962704     20.46598     67.33272        13     0.999     0.851  41.28   0
       263     16.9829    288.7715 300.0819895 +22.4552728     677.7821     72.54086      2.117     4.40     4.018923     20.46598     49.24573        10     1.040     0.718 -64.62   2
       264    765.7617    289.2140 300.3147783 +22.6798088     482.0345     72.55933      1.301     3.97     3.910683     20.46598     61.62241         9     0.926     0.772 -47.70   0
       265    234.6691    278.8812 300.1528376 +22.5177083     164.6458     72.65163      1.136     4.12     3.882197     20.46598      39.7349         6     1.047     0.463  28.07   0
       266    520.3026    277.6776 300.2420785 +22.6029677     1253.915     72.67008      1.415     2.49     3.933923     20.46598     154.8876        14     0.910     0.877 -89.08   0
       267    327.2525    277.6520 300.1820236 +22.5451082     303.6138      72.5778      1.298     3.47     3.971138     20.46598     33.45861         5     1.265     0.275  54.84   0
       268    765.2075    269.6694 300.3209455 +22.6740256      2206.23     72.52238      1.431     2.54     3.912437     20.46598     295.7325        24     1.122     1.041  50.33   0
       269      1.5121    254.8931 300.0881726 +22.4409120     4171.147     57.58474      1.612     3.79     4.118504     20.46598     677.2823        38     2.090     0.850 -89.59  24
       270    473.4510    253.4904 300.2353421 +22.5819823     679.5073     72.55933      1.307     2.57     4.204955     20.46598     79.54426        13     0.926     0.833  29.15   0
       271    179.0795    247.4769 300.1457438 +22.4920279     670.8749     72.65163      1.460     2.89     3.988044     20.46598     71.11157        11     0.907     0.804 -81.66   0
       272    148.3624    247.5553 300.1361722 +22.4828412      1390.91     72.59627      1.787     3.80      4.00902     20.46598     126.5157        22     1.344     1.048 -16.82   0
       273    232.3567    239.6366 300.1648467 +22.5057487     561.2435     72.61473      1.406     2.98     4.047237     20.46598     68.46297         9     0.924     0.680  12.72   0
       274    836.7885    231.1996 300.3557304 +22.6844011     588.6345     72.35585      1.307     2.42     3.989566     20.46598     72.81602         8     0.776     0.643  35.51   0
       275    427.0196    230.4748 300.2283586 +22.5614590     404.3517     72.54086      1.266     2.36     4.409291     20.46598     73.50923         6     0.723     0.647 -30.20   0
       276    928.2379    224.2775 300.3864848 +22.7097878     295.2734     72.52238      1.439     3.28     3.955193     20.46598     46.52441         7     0.963     0.648 -18.15   0
       277    935.1260    220.1279 300.3899784 +22.7106564     2049.812     72.59627      1.443     2.76     3.945052     20.46598     231.8567        24     1.126     1.062  83.31   0
       278    240.9998    217.1921 300.1748121 +22.5018956     268.2906     72.35585      1.764     3.89     4.191749     20.46598     28.80066         5     1.255     0.345  65.90   0
       279    431.4510    212.6470 300.2355186 +22.5576661     962.4553      72.5778      1.492     2.79     4.453277     20.46598     104.3375        14     0.941     0.913 -58.53   0
       280    183.2991    213.1063 300.1582011 +22.4834262      373.623      72.7254      1.452     4.45     4.136561     20.46598     49.33048         6     0.893     0.630  -4.56   0
       281    833.3799    211.9949 300.3608963 +22.6778596     495.9696     72.52238      1.191     2.64     4.063766     20.46598     71.21854         7     0.729     0.644  86.21   0
       282    353.4732    217.2935 300.2097539 +22.5356343     2047.642     72.67008      1.355     2.40     4.449329     20.46598     249.6205        22     1.121     0.950  67.23   0
       283    247.9924    204.6414 300.1810557 +22.5003880      655.998     72.55933      1.411     3.00      4.26614     20.46598     83.93771        12     1.000     0.776  52.11   0
       284    365.9211    204.1833 300.2178770 +22.5355994     370.7371     72.54086      1.684     5.16     4.445814     20.46598     30.66517         8     1.033     0.730  13.54   0
       285    786.1635    201.5157 300.3495793 +22.6607106      1559.91     72.52238      1.332     2.59       4.1413     20.46598     222.9786        18     1.031     0.941 -69.78   0
       286    850.8242    201.1664 300.3698451 +22.6799688     543.3927     72.55933      1.332     3.41      4.07319     20.46598     58.13279         8     0.825     0.664  43.45   0
       287    269.6352    197.8507 300.1899865 +22.5049250      606.002     72.55933      1.365     2.84     4.352334     20.46598     89.17677        11     0.993     0.802  34.55   0
       288    710.5153    192.3427 300.3289840 +22.6354226     1244.238     72.65163      1.328     2.45      3.97732     20.46598      153.467        16     1.033     0.867  77.21   0
       289    559.3345    194.4170 300.2812310 +22.5907409     279.8757     72.52238      1.180     3.41     4.170559     20.46598     39.43229         5     0.733     0.458  18.64   0
       290    790.1255    192.7732 300.3536489 +22.6593836     723.0563     72.54086      1.421     2.76     4.232455     20.46598     95.40295        12     0.917     0.851 -77.56   0
       291    531.8263    188.6794 300.2745282 +22.5808524     373.4374     72.54086      1.315     2.81     4.301943     20.46598     47.59011         5     0.756     0.422  18.50   0
       292    918.2921    182.8763 300.3968095 +22.6949057     835.3371     72.68852      1.577     3.54     4.109639     20.46598     111.9757        15     1.138     0.965 -44.88   0
       293    906.0063    183.7521 300.3926949 +22.6914802     1472.112     72.54086      1.440     2.57     4.096173     20.46598      199.803        17     1.046     0.883  30.69   0
       294    636.8586    183.7769 300.3088196 +22.6109030     982.7027     72.54086      1.519     2.84     4.018671     20.46598     123.2982        15     1.080     0.910  62.75   0
       295      7.9695    172.1298 300.1170141 +22.4190981     340.6185     72.54086      1.528     3.41     4.415336     20.46598     33.81242         5     0.796     0.505  57.01   0
       296     58.6448    169.9341 300.1334659 +22.4336622     498.4828     72.54086      1.639     4.10     4.382595     20.46598     46.64574         9     1.021     0.603 -35.01   0
       297    268.7410    166.3316 300.1999278 +22.4956062     579.1599     72.55933      1.329     2.98     4.405886     20.46598     78.15787        11     0.945     0.762  40.85   0
       298    151.1775    165.3516 300.1637016 +22.4600875     351.6765     72.54086      1.480     3.51     4.363842     20.46598       34.954         5     0.783     0.454  13.43   0
       299    130.6949    160.9062 300.1587778 +22.4526712     2222.581     72.70696      1.570     2.95     4.382073     20.46598      244.592        27     1.345     1.035  46.10   0
       300     80.2396    157.6937 300.1441426 +22.4366231     614.4944     72.55933      1.801     4.50     4.411971     20.46598     61.52221        12     1.326     0.917  58.11   0
       301    953.9638    158.3112 300.4158978 +22.6985177     743.5363     72.52238      1.361     2.59     4.110505     20.46598     92.73444        10     0.937     0.680 -17.39   0
       302    288.1501    154.2166 300.2098904 +22.4979437     5512.695     72.55933      1.439     2.67     4.408107     20.46598     564.4846        35     1.239     1.120  66.07   0
       303    269.5025    155.2632 300.2037529 +22.4926559      302.185     72.63319      1.752     4.26     4.418895     20.46598     33.24964         5     1.003     0.516 -48.57   0
       304     72.4680    148.6704 300.1446534 +22.4317031     1322.152      72.5778      1.565     2.69     4.478096     20.46598     157.1433        20     1.146     0.982 -58.53   0
       305    271.7232    145.0213 300.2077635 +22.4903802     644.1842     72.54086      1.568     3.45     4.425032     20.46598     66.69129         9     0.924     0.683  82.49   0
       306    932.2058    135.8979 300.4163795 +22.6855599     3588.563     72.42991      1.499     2.71     4.199831     20.46598      397.898        32     1.226     1.155  59.55   0
       307    481.3406    130.8157 300.2775745 +22.5491041     627.6345     72.50389      1.306     3.18     4.470286     20.46598     83.92496        11     1.028     0.704  48.42   0
       308    595.8046    128.9946 300.3137964 +22.5828642     326.2026     72.39289      1.384     3.35     4.284039     20.46598     44.87738         8     0.813     0.755  78.75   0
       309    405.8853    123.0197 300.2566228 +22.5242603     727.0962     72.46691      1.789     2.37     4.459472     20.46598     74.19196         9     0.755     0.742  76.47   0
       310    234.4333    131.6808 300.2004945 +22.4753738     388.9445      72.5039      1.396     3.32     4.477752     20.46598     43.70883         5     1.007     0.318  66.54   0
       311    171.9352    119.8215 300.1849119 +22.4532372     624.5145     72.50389      1.511     3.23     4.432616     20.46598     63.25957         7     0.711     0.698   3.60   0
       312    532.9478    118.2448 300.2977121 +22.5609497     1652.666     72.55933      1.401     2.80      4.47006     20.46598     190.8636        21     1.143     0.965  40.79   0
       313    461.3431    118.3982 300.2753765 +22.5395460      563.183      72.4854      1.600     3.09     4.468468     20.46598     66.48931        12     0.997     0.835  29.87   0
       314    594.7601    117.5924 300.3171674 +22.5792744     364.6336      72.5778      1.467     3.22     4.328854     20.46598     42.87848         6     0.684     0.673  83.42   0
       315     11.3711    117.4833 300.1357847 +22.4044338     323.7751     72.54086      1.546     3.49     5.111865     20.46598     36.52385         6     0.873     0.481 -86.37   0
       316    276.4149    113.6698 300.2193850 +22.4827823     456.7217     72.55933      1.561     3.45     4.441752     20.46598     52.69312         8     1.027     0.617   7.27   0
       317    668.7975    104.3696 300.3445100 +22.5976439     133.5959     72.50389      1.152     4.25     4.419109     20.46598     31.58159         6     0.754     0.682  48.79   0
       318    967.1071    102.4235 300.4381147 +22.6863763     403.4465     72.46691      1.331     2.11     4.157403     20.46598     57.83479         6     0.764     0.493   3.74   0
       319    307.1070     98.0761 300.2339833 +22.4875002     5888.998     72.68852      1.464     2.77     4.434419     20.46598     636.8306        39     1.292     1.166  56.44   0
       320    813.8183     99.0273 300.3914252 +22.6395232     351.6824     72.55933      1.240     3.19     4.577606     20.46598     48.56965         6     0.906     0.441  53.35   0
       321    158.1262     97.7712 300.1877671 +22.4427670     644.9601     72.55933      1.645     3.95     4.440521     20.46598     71.73347        13     1.200     0.877  61.49   0
       322    936.3403     95.8829 300.4306402 +22.6752883     312.3027     72.63319      1.137     2.92     4.202261     20.46598     63.27602         7     0.973     0.703 -19.60   0
       323      2.1499     94.4704 300.1403794 +22.3950636     544.0875     60.95427      1.430     3.19     5.497577     20.46598     60.06853        12     1.001     0.797 -53.38  24
       324    278.7371     91.5001 300.2272927 +22.4771108     420.6595     72.63319      1.665     5.06     4.494685     20.46598     49.72321         9     1.180     0.642  88.06   0
       325    322.2440     89.3531 300.2415179 +22.4895301     379.0651      72.5778      1.311     3.21     4.529377     20.46598     45.86725         6     0.771     0.532  49.52   0
       326     68.5602     88.8377 300.1628327 +22.4133554     396.5518     72.61473      1.746     4.01     4.836664     20.46598     48.32072         6     1.027     0.447 -29.52   0
       327    553.2161     83.4451 300.3153012 +22.5570192     6487.883     72.55933      1.418     2.45     4.461101     20.46598     829.9185        39     1.249     1.133  85.00   0
       328    438.7893     83.4217 300.2796951 +22.5227406      583.241     72.52238      1.380     2.75         4.51     20.46598     76.21349        12     0.896     0.869 -13.39   0
       329    610.6347     78.0374 300.3349312 +22.5726593     348.0138     72.61473      1.590     4.57     4.417465     20.46598      36.1675         7     1.112     0.709  56.61   0
       330    747.1614     74.9651 300.3784526 +22.6126514      251.387     72.59627      1.143     2.32     4.775706     20.46598     57.78508         7     0.731     0.630 -89.94   0
       331    805.8665     73.2664 300.3972965 +22.6297354     894.5962     72.59627      1.516     3.03     4.797269     20.46598     88.98328        13     0.994     0.853  84.57   0
       332    898.2980     72.1593 300.4264678 +22.6570805     51.36084     72.52238      0.000     3.54     4.373446     20.46598     63.25651         6     0.916     0.396  54.00   0
       333    246.1358     66.8199 300.2251547 +22.4602535     452.1813     72.52238      1.708     4.08     4.621531     20.46598     67.30812         8     1.245     0.565  87.30   0
       334    681.5978     63.6035 300.3617098 +22.5897572     6096.048     72.31879      1.415     2.46     4.689146     20.46598     756.8303        37     1.263     1.096  77.71   0
       335    604.7232     65.9170 300.3370185 +22.5674053     479.1256     72.63319      1.455     2.92     4.428894     20.46598     61.25294         8     0.883     0.617 -85.44   0
       336    456.4658     62.4939 300.2919779 +22.5220220     1492.688     72.67008      1.480     2.65     4.551913     20.46598     184.0072        18     1.060     0.986 -12.73   0
       337    722.7487     60.9291 300.3753956 +22.6013077     820.2144     72.54086      1.482     2.97     4.822109     20.46598     107.5141        14     1.082     0.849  69.85   0
       338    792.5391     58.6234 300.3978888 +22.6215355     392.7459     72.54086      1.760     4.07     4.901094     20.46598     45.19315         5     0.950     0.498  88.24   0
       339    738.5729     57.3156 300.3814967 +22.6050058      570.861     72.54086      1.303     2.84     4.888307     20.46598     62.16179         7     0.902     0.483  82.08   0
       340   1008.4006     54.7750 300.4664378 +22.6850245     467.4665      72.4854      1.263     3.10     4.118255     20.46598     80.21177         7     0.971     0.604  53.35   0
       341    205.3560     54.9372 300.2163281 +22.4446208     618.1053     72.54086      1.361     3.33     4.538287     20.46598     67.12025         9     0.879     0.687  23.46   0
       342    777.4084     52.3686 300.3952007 +22.6152080     516.2763     72.54086      1.423     4.19     4.937248     20.46598     53.02983        11     1.141     0.761 -19.58   0
       343    725.7712     48.4287 300.3803883 +22.5986184     2799.477      72.5039      1.435     2.56     4.914283     20.46598     374.1307        28     1.240     1.041 -87.27   0
       344    366.3435     49.2499 300.2682306 +22.4912212     404.1021      72.5778      1.350     3.02     4.907579     20.46598     51.44713         8     0.879     0.637  87.50   0
       345    740.8040     47.1321 300.3854920 +22.6027455     865.2555     72.52238      1.716     4.98     4.954266     20.46598     78.34692        16     1.566     0.761  47.26   0
       346     19.3421     42.7969 300.1624640 +22.3853840     836.2697      72.5039      1.662     3.68      5.31311     20.46598       87.562        14     1.284     0.732  16.53   0
       347    812.2521     40.0885 300.4100389 +22.6221055     1557.012     72.55933      1.461     2.88     5.012111     20.46598     166.9391        20     1.152     0.960 -73.66   0
       348    749.9733     33.0371 300.3929165 +22.6014372     693.6736     72.55933      1.435     3.46     5.048016     20.46598     100.9498        17     1.271     0.896  45.16   0
       349    555.7336     32.4489 300.3326112 +22.5431161     1065.871     72.54086      1.468     2.62     4.465176     20.46598     144.3204        17     1.048     0.975  59.33   0
       350    128.6465     32.5324 300.1997472 +22.4151985     673.5952     72.52238      1.816     2.89     4.595803     20.46598     70.44769         9     0.928     0.695  75.62   0
       351    459.6367     30.5139 300.3033277 +22.5137819     806.8541     72.52238      1.582     3.23     4.616375     20.46598     102.6137        16     1.083     0.983 -61.47   0
       352    841.9193     29.1104 300.4228432 +22.6278269     331.8447     72.65163      1.382     3.66     5.106058     20.46598     44.54445         9     0.810     0.771 -25.61   0
       353    799.0782     21.2846 300.4120265 +22.6127549     619.7269     72.65163      1.474     2.60     5.136059     20.46598      71.7758        10     0.848     0.732  83.87   0
       354    289.6065   1017.0110 299.9301321 +22.7459199     1258.271      72.4114      2.728    10.95     70.06122     20.46598     64.31262        28     2.156     1.894 -43.78  19
       355     24.0642     20.8889 300.1710290 +22.3805098     221.6691     72.67008      1.162     2.56      5.26475     20.46598     52.15424         5     0.747     0.511  37.20   0
       356    653.8768     18.1294 300.3678114 +22.5683845     462.2099     72.65163      1.532     2.43     4.805479     20.46598     53.64251         5     0.745     0.496  48.11   0
       357    620.0536    961.6329 300.0509587 +22.8292085     1499.509     72.55933      1.867     4.15     2.605123     20.46598     109.5816        21     1.262     1.110  37.86   0
       358    415.4381   1015.4726 299.9697642 +22.7832510      552.447      72.5039      1.727     4.77     3.503675     20.46598     55.43924        11     1.279     0.805   5.42  16
       359    758.1700     12.5492 300.4021092 +22.5979991     391.1867     72.55933      1.606     2.14     5.178166     20.46598     49.83245         5     0.680     0.480 -15.99   0
       360    606.8116   1008.4475 300.0316056 +22.8386643     2372.445     72.55933      1.893     4.32     2.168404     20.46598     146.4348        34     1.433     1.337  33.22   0
       361    693.3936   1003.5720 300.0601528 +22.8632398     9019.249     72.54086      1.997     4.38      2.30881     20.46598     506.8274        53     1.566     1.506   9.81   3
       362    698.8042   1001.5029 300.0625112 +22.8642692     9325.159     72.44842      1.979     4.34     2.420449     20.46598      498.493        55     1.624     1.497  44.28   3
