#   1 NUMBER                 Running object number                                     
#   2 X_IMAGE                Object position along x                                    [pixel]
#   3 Y_IMAGE                Object position along y                                    [pixel]
#   4 ALPHA_J2000            Right ascension of barycenter (J2000)                      [deg]
#   5 DELTA_J2000            Declination of barycenter (J2000)                          [deg]
#   6 FLUX_APER              Flux vector within fixed circular aperture(s)              [count]
#   7 FLUXERR_APER           RMS error vector for aperture flux(es)                     [count]
#   8 FLUX_RADIUS            Fraction-of-light radii                                    [pixel]
#   9 FWHM_IMAGE             FWHM assuming a gaussian core                              [pixel]
#  10 BACKGROUND             Background at centroid position                            [count]
#  11 THRESHOLD              Detection threshold above background                       [count]
#  12 FLUX_MAX               Peak flux above background                                 [count]
#  13 ISOAREA_IMAGE          Isophotal area above Analysis threshold                    [pixel**2]
#  14 A_IMAGE                Profile RMS along major axis                               [pixel]
#  15 B_IMAGE                Profile RMS along minor axis                               [pixel]
#  16 THETA_IMAGE            Position angle (CCW/x)                                     [deg]
#  17 FLAGS                  Extraction flags                                          
         1    489.1072     15.0604 300.3326174 +22.5431647     1182.839     72.06902      1.654     3.25     5.449701     20.31217     108.1177        17     1.181     0.897  85.22   0
         2    392.7603     13.1167 300.3032411 +22.5137693     810.6689     71.95901      1.591     3.96     5.855133     20.31217     90.14043        11     1.108     0.840  70.59   0
         3    775.4128     12.2460 300.4227693 +22.6280128     513.9603     72.01403      1.512     3.21     6.380404     20.31217      64.2664         8     1.047     0.523 -21.25   0
         4    164.3671      3.1169 300.2354004 +22.4425161     3495.579     65.03957      1.634     3.17     6.710854     20.31217     337.5468        30     1.335     1.145  -3.39  24
         5    732.6797      3.9224 300.4121391 +22.6128359     580.8444     68.34556      1.755     3.54     6.297026     20.31217     65.47491        12     1.084     0.883 -43.25  16
         6    211.1577    984.4483 299.9314161 +22.7382638     4602.343     72.01403      8.375    25.54     66.76524     20.31217     92.93523       371     6.452     4.671 -51.33  19
         7     77.9347   1011.0296 299.8813412 +22.7059060     5717.139     72.01403     20.059    96.11     73.31057     20.31217      166.269      2744    20.024    17.673  63.84  27
         8    540.5352    991.0295 300.0318077 +22.8389483     1783.986     72.01403      1.775     4.51      4.48753     20.31217     128.5478        24     1.492     1.002  84.86   3
         9    538.0000    991.0804 300.0310014 +22.8382028      1115.81     71.86722      1.695     4.59     4.498915     20.31217     103.9935        12     1.541     0.577  86.75   3
        10    626.4401    986.2337 300.0601337 +22.8633283     9328.472     72.03236      2.249     6.11     4.679635     20.31217     438.3984        53     1.726     1.576  -1.26   3
        11    631.7225    983.6970 300.0626051 +22.8641839     9334.476     72.12395      2.130     5.35     4.672569     20.31217     518.2363        51     1.671     1.510  47.71   3
        12    726.5314    987.3101 300.0909824 +22.8936413     641.9949     72.14226      1.971     6.70     4.696475     20.31217     44.03472        16     1.274     1.006  20.40   0
        13    156.9378    967.3684 299.9201074 +22.7170970     1364.788     72.01403      4.794    10.80     54.84133     20.31217     55.42665        26     2.217     1.465 -16.26   3
        14    160.5832    977.7603 299.9178612 +22.7211707     1907.443     72.01403      5.152    11.92     64.90763     20.31217     62.33655        37     2.628     1.531  24.29   3
        15    158.7349    973.3360 299.9187254 +22.7193474     1549.048     72.05069      5.189     9.77     60.33767     20.31217     44.14616        27     1.903     1.398 -66.50   3
        16      3.9817   1003.3496 299.8608526 +22.6815068     1441.534     68.46136     11.658    15.51    -12.50792     20.31217     46.77325        48     4.265     1.567 -30.22  27
        17     12.7497   1018.2891 299.8587180 +22.6884208       1356.6      71.9957     22.377    23.19    -4.095156     20.31217     41.17281        56     6.770     2.205  83.59  27
        18    919.0549    970.5626 300.1564793 +22.9465260      730.829      71.9957      2.029     6.30     5.293193     20.31217     44.84096        15     1.374     1.087  -0.84   0
        19      4.4562    991.0200 299.8650104 +22.6781151     1435.438     69.93054     12.375    17.54    -10.10505     20.31217     41.23573        46     5.751     1.487  51.24  27
        20      2.0696    997.0643 299.8623028 +22.6791312     1192.765     60.12403     10.823    11.31    -13.32069     20.31217     43.25731        32     2.674     1.333  85.39  27
        21    138.9590    955.6234 299.9183362 +22.7083342     2110.255     72.03236     11.955    16.43     44.30623     20.31217     53.12361        55     3.371     2.225  50.18   3
        22    524.0204    947.4863 300.0408264 +22.8215003     543.4822     71.92231      1.959     6.05     4.695746     20.31217     34.92374         9     1.209     0.852 -49.43   0
        23    236.5927    947.2830 299.9514162 +22.7352362     174.4588     71.92231      1.157     4.05     24.97532     20.31217     52.64528         7     1.013     0.463  79.41   0
        24    644.4771    953.3307 300.0764574 +22.8592907     6925.312     72.10564      2.061     4.82     4.658437     20.31217      368.114        57     1.676     1.570 -10.00   0
        25    552.6776    944.0795 300.0508616 +22.8291146     1401.421     72.10564      1.904     5.02     4.659118     20.31217     114.5306        25     1.422     1.215  26.09   0
        26    157.4075    946.6798 299.9269819 +22.7113053     944.4319     71.92231      3.873     5.09     36.62336     20.31217     41.52984         7     1.623     0.451 -30.55   0
        27      3.8212   1021.9720 299.8547451 +22.6867962     1452.877     60.53982      4.583    13.00    -16.31248     20.31217     49.63358        43     2.681     1.753 -10.69  27
        28    446.8922    940.2476 300.0191594 +22.7962956     1047.258     72.01403      1.978     5.30     4.832833     20.31217     71.37215        22     1.313     1.263   1.27   0
        29    212.5364    954.0004 299.9417480 +22.7299455     728.8387     71.97736      3.117     5.19     37.44522     20.31217     49.13168         5     1.638     0.465  58.80   1
        30    377.4463    938.3090 299.9981683 +22.7749127      6586.54     71.97736      2.035     4.55     5.047854     20.31217     389.3464        51     1.609     1.536  -5.71   0
        31      2.8330   1014.5273 299.8568597 +22.6843658     1867.397     63.87202     11.460    18.65    -16.14194     20.31217     49.63273        81     4.053     2.384 -63.80  27
        32    411.3931    925.7662 300.0128156 +22.7814947     514.4509      71.9957      1.703     4.39     4.871132     20.31217     30.66437         5     1.173     0.468 -82.50   0
        33     69.3612    952.3168 299.8977722 +22.6865006     5716.957     71.95901     34.068   122.83     26.75896     20.31217     1241.657      4779    24.890    16.817 -60.33  27
        34    925.0000    917.5072 300.1755911 +22.9330672     1403.952     71.86722      1.740     5.10     4.846554     20.31217     91.55049        22     1.699     0.836  89.78   3
        35    922.2526    918.2670 300.1744866 +22.9324624     1169.363     72.01403      1.660     6.28     4.861854     20.31217     85.51954        14     1.641     0.676 -84.36   3
        36    573.9858    915.0524 300.0669403 +22.8271712     347.0631     72.03236      1.700     3.64     4.724741     20.31217     34.61108         5     1.028     0.372 -33.79   0
        37    169.1418   1006.4777 299.9111821 +22.7319733     708.5695     72.03236      2.275     7.78     89.97101     20.31217     55.20342        11     1.715     0.988 -85.77   3
        38    165.0672    997.9893 299.9126760 +22.7283167     3000.708      71.9957      5.940    23.40     82.84631     20.31217     62.88031       147     5.149     2.954  24.66  19
        39    208.7300    904.1691 299.9567686 +22.7145115     744.7394      71.9957      5.581     6.09     11.15056     20.31217     34.25339         7     1.840     0.566 -76.95   0
        40    164.7976    991.1024 299.9148323 +22.7262610      2266.88     71.90395      7.941    15.73     76.45681     20.31217     79.45305        77     3.552     2.728 -51.63   3
        41    525.9973    901.8585 300.0562806 +22.8089973     411.4107     71.95901      1.623     5.05     4.791996     20.31217     36.74987         8     1.092     0.661  83.07   0
        42    747.5115    900.3174 300.1258177 +22.8749510      1100.56     72.10564      2.020     5.22     5.048504     20.31217     74.45816        24     1.435     1.198   3.83   0
        43    712.5837    906.5250 300.1129092 +22.8662663     839.8748      71.9957      2.197     8.62     4.845913     20.31217     46.84164        20     1.720     1.206  70.25   0
        44    207.2438    897.4825 299.9584804 +22.7121477     747.0718     71.95901      4.301     4.52      10.6286     20.31217     31.92191         5     1.231     0.472 -58.06   0
        45    769.6555    894.0763 300.1347522 +22.8797944     11270.92     72.03236      1.978     4.74     5.166789     20.31217      650.814        55     1.551     1.532 -72.76   0
        46    143.1344   1007.6779 299.9027036 +22.7245129     292.3793     72.08733      1.330     4.86     92.35063     20.31217     29.66244         5     1.101     0.607 -61.85   0
        47    191.5447   1006.6301 299.9181002 +22.7387396     774.7355     72.01404    -11.254    13.56     89.89638     20.31217     46.41521        10     3.865     1.324  86.97  19
        48    815.3209    894.1953 300.1489551 +22.8935116     597.9362     71.90395      2.052     5.76     5.255856     20.31217     33.30999         9     1.173     0.797  53.67   0
        49     81.6093    885.6506 299.9232575 +22.6710607     1337.599      71.9957     10.571    11.35     9.303228     20.31217     50.08466        36     2.573     1.550  25.25   1
        50    194.9618   1005.0381 299.9196810 +22.7393085     1252.911     72.06902      3.006     7.18     87.86666     20.31217     51.86578        12     1.965     0.734 -53.90   3
        51    822.1504    881.8162 300.1551106 +22.8920024     459.4406     72.03236      1.616     5.01     5.253064     20.31217     49.80415         7     1.169     0.608  87.30   0
        52    474.9910    882.3082 300.0467507 +22.7880937     494.1802     71.92231      1.939     3.41     4.871386     20.31217     32.65897         7     0.744     0.659 -10.77   0
        53    189.9956   1000.2457 299.9196952 +22.7364441     1277.927     71.97736      3.484     8.39     83.37529     20.31217     51.21879        18     1.818     1.283 -81.44   3
        54    778.2388    876.2735 300.1432177 +22.8772535     1482.233     71.97736      1.904     4.63     5.256966     20.31217     100.8094        24     1.344     1.231  46.80   0
        55    960.0000    875.2838 300.2002443 +22.9314210     362.1219     71.86722      1.579     2.34      4.89105     20.31217     50.53757         5     0.746     0.533  76.70   3
        56    962.2519    873.8431 300.2014156 +22.9316815     343.2783     72.03236      1.629     4.66     4.893244     20.31217      37.8572         5     1.665     0.371  79.51   2
        57    630.6218    873.7079 300.0980324 +22.8322789     509.0108     71.92231      2.130     5.82     4.732041     20.31217     33.06617         8     1.275     0.748  21.94   0
        58    494.6241    874.4412 300.0554232 +22.7917220     161.3474     72.03236      1.328     3.87     4.865486     20.31217      33.8135         5     0.983     0.437 -15.50   0
        59    816.3296    869.0850 300.1574347 +22.8866016     1091.454     72.10564      2.327     9.43     5.281497     20.31217     58.97169        23     1.954     1.269  67.15   0
        60    864.4725    860.8271 300.1751372 +22.8986527     485.2436      71.9957      1.732     5.17     5.181484     20.31217     47.94731         9     1.201     0.628  49.92   0
        61    716.2215    859.7302 300.1292591 +22.8539190     893.1395      71.9957      2.016     5.78      5.08271     20.31217     59.77671        18     1.368     1.078 -20.82   0
        62    428.6565    856.0699 300.0408527 +22.7666708     4278.323     72.01403      1.890     4.14     4.922895     20.31217      293.587        38     1.434     1.413  88.21   0
        63    727.5177    857.4974 300.1335070 +22.8566628     603.9452     72.16055      1.808     4.35      5.16964     20.31217      46.9614         8     1.087     0.495   4.17   0
        64    471.3606    844.1100 300.0580390 +22.7760416     336.6688      71.9957      1.477     4.98     5.031277     20.31217     33.91911         5     1.078     0.653  31.07   0
        65    207.7638    843.6983 299.9761279 +22.6968758      465.621      71.9957      1.676     5.52     6.820406     20.31217     32.04383         8     1.175     0.733  49.03   0
        66    153.7035    841.9614 299.9598780 +22.6801609     893.3676     71.97736      2.250     5.72     8.103791     20.31217     78.97816        22     1.530     1.390  88.41   0
        67    131.1627    838.6808 299.9539346 +22.6724578     1529.466     71.95901      1.998     4.40     7.397348     20.31217     121.9663        26     1.462     1.251 -13.79   0
        68     63.3704    839.9057 299.9324585 +22.6524699      408.894     71.90395      1.919     4.20     5.956865     20.31217      32.7631         6     0.779     0.646  35.72   0
        69   1002.8759    828.1391 300.2289555 +22.9307153     2324.441     72.05069      2.170     5.26      4.86979     20.31217     127.4979        35     1.566     1.436  63.27   0
        70    957.0793    826.5939 300.2151634 +22.9165561     2208.897     71.92231      2.075     4.78     5.101308     20.31217     117.7681        34     1.459     1.438  36.27   0
        71    662.2773    827.0028 300.1230829 +22.8283554     426.5136     71.90395      1.674     4.90     5.015634     20.31217     32.46881         7     1.082     0.627  25.59   0
        72    740.6490    820.2554 300.1497087 +22.8499017     556.9371     72.03236      1.764     5.66     5.224707     20.31217     54.38437        14     1.327     0.852 -22.63   0
        73    163.6759    820.1462 299.9700706 +22.6768949     549.9905     72.03236      1.981     5.88     7.017839     20.31217     43.27994         9     1.389     1.131  74.89   0
        74    608.6788    814.2437 300.1105261 +22.8086288     4816.732     71.97736      1.798     3.96     5.109389     20.31217     338.1903        38     1.393     1.353  48.58   0
        75    479.2802   1001.0441 300.0094706 +22.8234533     219.9819     71.97736      1.301     3.83     4.699188     20.31217     27.98735         5     0.838     0.503  35.32   0
        76    411.0359    811.4456 300.0498725 +22.7485803      704.075     72.03236      2.043     4.31     5.287215     20.31217     59.46074        11     1.205     0.879 -23.78   0
        77    158.9326    807.7789 299.9726151 +22.6719244     1323.126     71.97736      1.966     4.29     6.388249     20.31217     127.8825        26     1.506     1.304 -41.47   0
        78    629.2942    806.8851 300.1193426 +22.8126941      646.589     72.17885      1.730     4.04     5.159873     20.31217     74.97362        16     1.301     0.996 -44.22   0
        79    177.9340    805.8540 299.9791505 +22.6770719     424.7835     72.03236      1.560     4.65     6.208246     20.31217     43.75771         6     1.100     0.557 -24.86   0
        80   1001.5075    794.4060 300.2394942 +22.9206111     1135.632     71.90395      1.920     5.40      4.90684     20.31217     62.00607        24     1.373     1.292 -71.24   0
        81    784.7669    794.0870 300.1719723 +22.8556029     4297.208     71.95901      1.852     4.02     5.413824     20.31217     275.2236        35     1.412     1.319  53.22   0
        82     48.6634    796.0267 299.9421486 +22.6354734     1304.221      71.9957      0.547     0.96     5.565144     20.31217     803.5721         5     0.473     0.263  -3.79   0
        83    501.7233    786.7186 300.0861509 +22.7686689     647.0601     72.10564      1.692     4.61     5.375457     20.31217     49.94969        11     1.091     0.832 -45.37   0
        84    148.3193    784.2757 299.9769530 +22.6619986       1085.2     72.10564      1.942     4.34     5.948578     20.31217     82.54555        21     1.304     1.129 -69.85   0
        85    297.7837    776.4026 300.0260095 +22.7045656     53969.79     71.90395      1.847     3.95     5.715363     20.31217     4497.684       102     1.574     1.558 -19.38   0
        86    563.3025    779.7470 300.1075999 +22.7851242     488.7488     72.08733      1.723     4.30      5.33894     20.31217     47.09681         9     0.898     0.877 -24.25   0
        87    555.7790    775.5829 300.1066093 +22.7816738     1662.103     71.97736      1.695     3.39     5.357599     20.31217     160.5696        22     1.211     1.089  71.34   0
        88    968.4951    775.0958 300.2354665 +22.9051760     785.6069     72.16055      1.737     5.46     5.304211     20.31217     58.06379        20     1.288     1.189  29.36   0
        89    584.7008    771.7485 300.1168667 +22.7892406     1004.751     72.08733      1.766     4.31     5.316623     20.31217     73.96007        18     1.235     1.046  13.92   0
        90    595.7181    770.0858 300.1208401 +22.7920648     434.8343     72.14226      1.586     4.54     5.303365     20.31217     65.57096        13     1.231     1.073  36.21   0
        91    699.2238    766.4698 300.1542757 +22.8220416     361.7745     72.01403      2.132     4.46     5.325671     20.31217      30.6923         5     1.152     0.491  85.41   2
        92    738.6565    756.8713 300.1696893 +22.8310986     866.4681     72.01403      1.839     4.37      5.36463     20.31217     74.85873        18     1.321     1.093  61.33   0
        93    347.5437    753.7044 300.0488728 +22.7129716     31600.57     72.06902      1.790     3.90     5.569943     20.31217     2695.578        76     1.492     1.458  -0.37   0
        94    361.7922    754.2231 300.0531395 +22.7173924     1852.808      71.9957      1.714     3.74     5.556641     20.31217     159.1229        29     1.312     1.226  63.96   0
        95    870.6788    749.8342 300.2131532 +22.8686230     2885.525     71.94067      1.840     4.16     5.696479     20.31217     165.4152        35     1.409     1.359  -5.15   0
        96    358.9077    748.0317 300.0542536 +22.7147505     608.3528     71.94066      1.662     5.83     5.561357     20.31217     49.72217        12     1.283     0.747 -16.54   0
        97    628.5277    745.7843 300.1389621 +22.7949178     912.0022      71.9957      1.617     4.19     5.360732     20.31217     75.14921        15     1.112     0.919  29.99   0
        98    465.2711    746.1790 300.0879726 +22.7461040     436.2708      71.9957      1.844     4.44     5.506485     20.31217     33.91111         8     1.076     0.521  33.55   0
        99    230.3747    745.3651 300.0151211 +22.6754451     832.9409     72.01404      1.926     4.18     5.598679     20.31217     75.00475        16     1.144     1.101 -47.36   0
       100    475.8120    740.5331 300.0930901 +22.7476426     822.7453     71.97736      1.564     3.65     5.514553     20.31217      84.3544        17     1.127     0.999  30.76   0
       101     35.6489    740.3119 299.9562081 +22.6155893      487.623      71.9957      2.023     4.92      5.43893     20.31217     42.43544         7     1.701     0.402  20.79   0
       102    876.7993    737.4658 300.2190821 +22.8669020     488.0114     71.97736      1.622     4.04     5.726349     20.31217       42.331        11     1.025     0.850  78.14   0
       103    377.8234    737.5570 300.0635457 +22.7174149       290.43     72.05069      1.312     4.13      5.56358     20.31217       34.722         7     1.031     0.472  -9.66   0
       104    421.6672    735.4688 300.0778746 +22.7299588     327.6692     72.05069      1.506     3.54     5.561738     20.31217     46.98907         8     1.054     0.648   6.21   0
       105    222.7560    999.6840 299.9300683 +22.7461130     671.0087     71.95901      1.347     3.68      81.6638     20.31217     59.88475        11     1.129     0.691 -88.79   0
       106    854.5012    733.0803 300.2135508 +22.8589637     319.7566     72.12395      1.562     4.72     5.718012     20.31217      45.9762         8     1.227     0.567  35.01   0
       107    227.6761    730.3324 300.0191661 +22.6703222     516.5627     72.08733      1.698     3.59     5.548361     20.31217     54.72912         9     1.023     0.840  23.40   0
       108    551.3168    720.6237 300.1230790 +22.7645551     538.8568     71.95901      2.394     6.25     5.445489     20.31217     34.15614        12     1.279     0.858  -4.13   0
       109    520.9642    718.3128 300.1143742 +22.7547953     610.5264     71.97736      1.533     5.36     5.486016     20.31217     53.35789        12     1.159     0.787 -35.53   0
       110    542.6042    716.1102 300.1218312 +22.7606481     1209.302     71.90395      1.585     3.45     5.461837     20.31217     121.4221        22     1.240     1.152 -45.48   0
       111    937.1133    715.2084 300.2451349 +22.8785674     4578.639     71.92231      1.859     3.86     5.581278     20.31217     308.4391        39     1.451     1.369 -29.45   0
       112    462.4698    715.6449 300.0970219 +22.7364980      299.226     71.95901      1.596     3.29     5.544981     20.31217     48.14577         5     0.960     0.486  42.70   0
       113    925.6811    706.5732 300.2443732 +22.8726624     1623.319     71.97736      1.843     4.17     5.612515     20.31217     116.4517        24     1.329     1.160  44.14   0
       114    288.8477    699.9776 300.0480620 +22.6799531     875.9976     72.01403      1.803     4.70     5.543309     20.31217     64.46829        19     1.283     1.057 -46.10   0
       115    956.6994    696.9612 300.2571766 +22.8791874     1604.344     72.01403      1.809     4.04       5.3277     20.31217     112.3728        28     1.400     1.188  54.75   0
       116    751.9356    697.8402 300.1930121 +22.8181180      2497.64     71.95901      1.733     3.47      5.49414     20.31217     212.7385        28     1.304     1.152  -5.43   0
       117    833.5543    684.0456 300.2229493 +22.8386000     650.8407     72.03236      1.907     5.74     5.547545     20.31217      43.4797        13     1.111     0.949 -33.07   0
       118    136.8310    684.0784 300.0059366 +22.6298066     582.6103     71.97736      1.903     5.57     5.655547     20.31217     64.61729        14     1.551     0.941  21.58   0
       119    870.3799    674.7491 300.2374578 +22.8469565     147993.7     71.97736      1.760     3.69     5.521415     20.31217     10442.24       154     1.607     1.533 -51.40   0
       120   1017.3279    676.9071 300.2826172 +22.8915741     1268.593     72.12395      1.888     4.62     4.482102     20.31217     80.14453        23     1.418     1.127  13.97  16
       121    633.1674    678.8655 300.1621516 +22.7770877     360.4661      71.9957      1.397     2.52     5.423088     20.31217     43.30692         6     0.719     0.563 -34.21   0
       122    722.8820    674.9251 300.1913980 +22.8028317      669.432     72.10564      1.527     3.90     5.474868     20.31217     64.84492        16     1.211     0.914 -42.03   0
       123    903.5215    667.8409 300.2500426 +22.8548949     319.5074     71.97736      1.481     4.99     5.513777     20.31217     35.79391         8     1.078     0.654  51.74   0
       124    737.8615    660.9031 300.2006239 +22.8032899     9603.688     72.08733      1.642     3.30     5.490053     20.31217     770.7302        45     1.362     1.274 -59.64   0
       125    556.8126    663.4437 300.1433685 +22.7497809     1630.658     71.97736      1.575     3.14     5.543918     20.31217     191.7653        22     1.153     1.098  15.55   0
       126    239.2917    655.6542 300.0470408 +22.6523738     4834.877     72.05069      1.794     3.58     5.543658     20.31217      462.576        40     1.392     1.384  65.34   0
       127    321.3749    653.8689 300.0731636 +22.6764697     1211.317      71.9957      1.746     4.36     5.509417     20.31217      117.974        21     1.252     1.192  28.20   0
       128    196.4183    651.5214 300.0350454 +22.6383328     487.3936      71.9957      1.643     5.78      5.56781     20.31217     47.98521        12     1.105     0.851 -17.50   0
       129    529.6026    649.6177 300.1393828 +22.7376568     698.4092     71.90395      1.450     3.26     5.611307     20.31217      94.9686        15     1.030     0.974 -50.29   0
       130    521.3391    641.5369 300.1394334 +22.7328599     3142.616     72.03236      1.592     3.15      5.63043     20.31217     348.5669        29     1.208     1.179  73.44   0
       131    511.6111    635.3994 300.1383966 +22.7281823     1542.682     71.81208      1.612     3.10      5.63972     20.31217     156.7615        18     1.079     0.987 -33.79   0
       132    905.0062    633.7333 300.2615859 +22.8455359     482.0296      71.9957      1.796     4.82     5.508855     20.31217     38.73556         6     1.025     0.641 -48.99   0
       133    422.3983    632.6111 300.1115179 +22.7006469      335.122     71.81208      1.661     4.43     5.543503     20.31217     32.39223         6     1.050     0.532 -56.37   0
       134    174.9344    631.5009 300.0348654 +22.6261454     774.2841     72.08733      1.874     4.93     5.580402     20.31217     57.07445        14     1.277     0.980 -56.10   0
       135    189.7276    629.9765 300.0399619 +22.6301435     781.8914     72.03236      1.857     6.72     5.570182     20.31217     70.18491        15     1.525     0.830 -14.06   0
       136    958.2579    627.0024 300.2803907 +22.8595439     504.1752     71.95901      1.584     5.88     5.452062     20.31217     51.39274        13     1.277     1.046 -26.77   0
       137    214.9215    627.0575 300.0487472 +22.6368596     658.7955     72.03236      1.573     3.66     5.553315     20.31217      76.9665        11     1.065     0.878 -49.35   0
       138    245.7153    627.0624 300.0583261 +22.6460932      425.592     72.10564      1.436     3.97     5.532453     20.31217     52.78299         8     0.931     0.648 -27.04   0
       139    535.4296    625.5945 300.1490011 +22.7325032     357.2255      71.9957      1.448     5.12     5.702096     20.31217     39.18261         8     0.874     0.847  65.06   0
       140    436.3803    625.0154 300.1183388 +22.7026561     1887.086     71.97736      1.627     3.29     5.555903     20.31217     178.2965        25     1.225     1.129   5.08   0
       141   1012.4589    622.9444 300.2986275 +22.8746023     582.8393     72.06902      1.548     6.45     5.409971     20.31217     46.20309        15     1.245     0.937  45.00   0
       142     90.2221    619.7211 300.0123471 +22.5973626     19959.88     71.97736      1.916     3.90     5.642679     20.31217     1815.959        69     1.605     1.494  35.48   0
       143     11.8973    620.7300 299.9876705 +22.5741616     673.6533     72.12395      1.653     5.65     5.975254     20.31217     49.42857         9     1.306     0.690  83.37   0
       144    556.8398    619.9897 300.1574919 +22.7373082     287.8703      71.9957      1.391     2.99     5.713737     20.31217     47.58367         7     0.822     0.677  35.05   0
       145    939.2815    606.9789 300.2809721 +22.8481066     1054.361     71.95901      1.638     4.11     5.525132     20.31217     92.66249        15     1.186     0.909  48.58   0
       146    806.3738    604.6932 300.2402481 +22.8076561      474.115     71.95901      1.807     6.10      5.47364     20.31217     36.86743        11     1.169     0.896 -78.93   0
       147     36.2371    603.9552 300.0006837 +22.5766490     1627.324     72.03236      2.226     5.44     5.952871     20.31217     96.22437        31     1.554     1.428  71.70   0
       148    521.2440    620.4241 300.1462613 +22.7267678     1194.934     72.03236      1.749     3.44     5.695644     20.31217      113.708        20     1.221     1.053 -37.71   0
       149    484.8243    600.8865 300.1412623 +22.7102438     570.1855     71.95901      1.578     3.07     5.654476     20.31217     60.34156        11     0.878     0.852   4.99   0
       150    879.0842    599.4200 300.2646429 +22.8279116     961.4687     71.94067      2.378     7.05     5.449895     20.31217     74.95385        22     1.805     1.107  -0.02   0
       151    623.4590    597.6141 300.1855182 +22.7508386     181.2166     71.97736      1.402     4.50     5.618716     20.31217     32.57733         7     1.191     0.482   3.52   0
       152    441.4595    593.3785 300.1301952 +22.6950932      718.493     71.97736      1.769     3.40     5.579586     20.31217     64.64634        13     1.095     0.768 -37.70   0
       153    591.3336    591.3155 300.1775523 +22.7394055     1308.214     72.10564      0.940     4.40     5.706252     20.31217     811.1629        11     1.238     0.445 -26.64   0
       154    636.5001    590.8777 300.1917703 +22.7528097      449.976     72.12395      1.572     3.19       5.6079     20.31217     53.43061        10     0.980     0.715 -46.57   0
       155    607.1178    590.2346 300.1828221 +22.7438234     502.7438     71.95901      1.402     3.53     5.677363     20.31217     69.89536         9     1.082     0.655  18.70   0
       156    485.6627    589.1324 300.1453406 +22.7071192     769.9247     72.05069      1.530     3.94     5.685923     20.31217     85.49214        14     1.113     0.906 -18.03   0
       157    919.4899    584.9202 300.2819599 +22.8358402     3281.886     72.12395      1.710     3.48     5.404429     20.31217      257.506        30     1.288     1.207 -50.69   0
       158    451.2154    584.6010 300.1360838 +22.6954959     1721.774     71.84885      1.556     2.83     5.613398     20.31217     180.8236        21     1.175     1.015 -34.25   0
       159   1017.3741    583.1765 300.3130784 +22.8646390     561.0579     71.95901      1.641     6.22     5.662193     20.31217     58.78862        15     1.493     1.052  56.33  16
       160    426.7033    579.7427 300.1300283 +22.6867554     282.7645     72.06902      1.547     4.36     5.558111     20.31217     31.50076         5     0.764     0.708 -19.19   0
       161     13.0365    577.8248 300.0019572 +22.5621937     4998.786     72.01403      1.995     4.00      6.16603     20.31217     418.5276        46     1.576     1.509  46.35   0
       162    480.5403    575.9565 300.1480239 +22.7018001     263.0392      71.9957      1.323     3.39     5.710079     20.31217     47.70903         6     0.944     0.723  22.36   0
       163    958.8186    574.8491 300.2975045 +22.8447178     377.9234     72.01403      1.760     3.97     5.464596     20.31217     28.19145         6     0.784     0.575  43.49   0
       164    314.5429    571.1807 300.0978917 +22.6506831     9167.578      71.9957      1.636     3.25     5.407112     20.31217     861.5269        51     1.377     1.335 -62.56   0
       165    436.9841    568.2393 300.1369651 +22.6865325     9138.131     72.01403      1.552     3.04     5.596681     20.31217     877.3865        45     1.312     1.248  75.27   0
       166    848.8497    562.6003 300.2671677 +22.8082756      1994.11     71.97736      1.710     3.51     5.285959     20.31217     189.6296        27     1.247     1.217  61.27   0
       167    933.3927    559.8636 300.2944356 +22.8327984     12550.82     71.97736      1.718     3.51     5.314894     20.31217     978.8157        52     1.448     1.335 -59.28   0
       168    497.6085    557.8966 300.1592046 +22.7017268     11638.64     71.88558      1.554     3.17      5.77158     20.31217     1176.104        43     1.277     1.224  69.11   0
       169    667.0981    553.6210 300.2134060 +22.7512698     667.2109     71.92231      1.668     3.25     5.614031     20.31217     71.92925        10     0.995     0.661  58.18   0
       170    225.1634    553.2927 300.0758873 +22.6187565     1331.072     71.97736      1.607     3.11     5.545904     20.31217     137.9689        21     1.184     1.072  -3.16   0
       171    471.7464    550.9776 300.1533960 +22.6919908     483.1463     72.01403      1.528     3.90     5.742091     20.31217     53.85434         9     1.012     0.772 -46.91   0
       172    429.2414    546.0211 300.1417683 +22.6778315     4462.798     72.03236      1.527     3.04     5.588663     20.31217     463.7212        31     1.233     1.162 -62.54   0
       173    772.0463    546.4766 300.2484475 +22.7806451     790.6124      71.9957      1.458     4.19     5.351642     20.31217     77.14153        14     1.271     0.770 -39.49   0
       174    407.5380    544.5821 300.1354775 +22.6709149         1331     71.95901      1.604     3.03     5.518742     20.31217     152.0815        18     1.194     0.956  19.09   0
       175    162.0004    544.0199 300.0592497 +22.5971596     738.1706     71.92231      1.603     3.57     5.543531     20.31217      76.7244        10     1.044     0.758 -18.24   0
       176    849.0462    541.8204 300.2739766 +22.8023611       1602.9     72.05069      1.755     3.75     5.207433     20.31217     118.9533        25     1.291     1.152 -48.90   0
       177    949.6157    540.1940 300.3058857 +22.8319990     304.7705     71.92231      1.957     3.99     5.341284     20.31217     35.75212         5     0.994     0.693   8.24   0
       178    729.6770    538.7466 300.2377453 +22.7657363     865.4755     72.03236      1.621     3.57     5.526306     20.31217     100.3041        18     1.213     1.000  44.89   0
       179    369.4767    539.9868 300.1251196 +22.6581897     580.0931     72.01403      2.121     5.00     5.437583     20.31217     42.12688        10     1.113     0.818  38.84   0
       180    545.9420    533.6415 300.1821368 +22.7092392     206808.1      71.9957      1.538     2.92     5.850281     20.31217     22238.04       194     1.543     1.471 -26.81   0
       181    823.2263    537.0770 300.2674623 +22.7932674     354.4749      71.9957      1.370     3.94     5.222303     20.31217     32.03488         6     0.906     0.490  54.05   0
       182    933.7040    535.3884 300.3024802 +22.8258546      416.599     71.90395      1.546     3.43     5.281397     20.31217     35.88306         5     0.738     0.462 -15.66   0
       183    798.9208    534.5634 300.2606973 +22.7852677     390.2192     71.94067      1.910     5.68     5.242393     20.31217     29.85268         8     1.338     0.680  36.75   0
       184    231.9452    533.5118 300.0844195 +22.6151108     3471.511     72.03236      1.651     3.24     5.511457     20.31217     347.4455        31     1.310     1.197  62.13   0
       185    314.3756    533.8210 300.1099699 +22.6399061     133.6081     71.97736      1.158     4.79     5.437761     20.31217     31.16668         5     0.977     0.693  -9.91   0
       186    797.9865    530.4420 300.2617440 +22.7838033     536.1215     72.01403      1.461     3.75     5.247986     20.31217     44.32455         6     0.822     0.491  -6.73   0
       187    436.5399    514.2315 300.1543619 +22.6708879     2744.063     72.03236      1.733     3.19     5.750925     20.31217     279.2669        35     1.660     1.113 -85.49   0
       188    280.8912    516.5293 300.1051628 +22.6249056     318.2096     72.16055      1.348     3.62     5.514793     20.31217     49.73151         7     0.947     0.616 -19.35   0
       189    848.0427    510.9178 300.2836970 +22.7931769     458.3093     71.95901      1.512     3.88     5.220742     20.31217     47.94825         9     0.888     0.811  81.69   0
       190    753.9995    502.8429 300.2569864 +22.7627000     519.5905      71.9957      1.640     3.49     5.546497     20.31217     54.46385         9     0.903     0.761  66.71   0
       191    833.6439    500.4668 300.2825982 +22.7858618     1681.562     71.97736      1.562     2.96     5.227607     20.31217     191.8671        20     1.071     1.063  85.53   0
       192    704.7561    497.8691 300.2432468 +22.7465255     2731.973     71.95901      1.518     2.90     5.696381     20.31217      303.766        26     1.197     1.075  74.17   0
       193    947.8031    491.3786 300.3211690 +22.8174198     881.4122     71.94067      2.081     4.53     5.445848     20.31217     59.24876        15     1.179     0.982  14.27   2
       194    492.0345    493.7041 300.1783092 +22.6816172     718.4501      71.9957      1.431     3.62     6.090722     20.31217     92.18718        15     1.165     0.917  73.09   0
       195    609.5756    494.3958 300.2147060 +22.7170235      450.571     71.95901      1.601     3.82     5.765254     20.31217     61.09904         9     1.053     0.691  18.78   0
       196    962.0472    492.0450 300.3253984 +22.8218745     1155.046     72.01403      1.536     3.57     5.497037     20.31217     103.4236        22     1.279     1.094  48.00   0
       197    833.9635    490.4721 300.2859426 +22.7830842     2270.796     71.94067      1.873     3.94     5.230501     20.31217     191.2792        34     1.652     1.131  79.67   0
       198    587.2525    488.5092 300.2096604 +22.7086462     614.2578     72.05069      1.460     3.11     5.838235     20.31217     75.35171        11     0.981     0.783 -10.24   3
       199    587.0485    484.4998 300.2108983 +22.7074331     411.2339     72.03236      1.480     4.91     5.840059     20.31217     41.59317         8     0.873     0.783 -12.52   3
       200    372.9484    488.3456 300.1429651 +22.6443993     404.0839     72.03236      1.412     4.22     5.689579     20.31217     34.18029         7     0.876     0.580  27.49   0
       201    872.0117    485.4889 300.2994302 +22.7930410     4465.397     71.94067      1.614     3.03     5.248169     20.31217     457.3339        35     1.330     1.208 -82.62   0
       202    426.1481    487.1562 300.1599152 +22.6599975     375.4114     72.03236      1.353     4.77      5.79076     20.31217     47.44122         8     1.002     0.645 -25.19   0
       203    532.7748    481.5809 300.1949355 +22.6903382     310.6997     72.01403      1.253     4.06     6.041625     20.31217     41.17061         7     0.997     0.474  -9.03   0
       204    963.6169    476.2213 300.3310252 +22.8177937     680.1675     71.97736      1.400     3.58     5.520391     20.31217     74.89736        14     1.169     0.822  58.35   0
       205    104.0109    475.3779 300.0634979 +22.5600718     1052.568     71.97736      1.822     3.61     5.469172     20.31217     99.15331        19     1.175     1.152  80.11   0
       206    765.2877    469.8275 300.2712241 +22.7565896     385.3184     71.97736      1.568     2.83     5.539333     20.31217     55.34414         6     0.944     0.560  23.73   0
       207     96.2781    465.8449 300.0641875 +22.5550173      425.446     71.97736      1.737     4.31     5.474369     20.31217     38.75734         7     1.044     0.507  22.62   0
       208    959.9041    465.6062 300.3333121 +22.8136299     407.2205     71.88558      1.498     4.20     5.491806     20.31217     52.41774         6     1.047     0.480   5.56   0
       209    704.5029    459.8540 300.2555079 +22.7355235     525.4272     72.08733      1.722     5.50     5.750161     20.31217     53.74836        10     1.020     0.889 -13.19   0
       210    313.0595    458.4081 300.1340401 +22.6178560     285.5041     71.95901      1.448     3.90     5.714757     20.31217     31.86576         5     0.886     0.491  -1.51   0
       211    645.3796    455.8338 300.2383821 +22.7166643     705.1575     72.01403      1.378     3.46     5.751433     20.31217     94.76441        14     1.130     0.834  44.83   0
       212    960.0457    448.6496 300.3388603 +22.8087957     558.7975     72.01403      1.424     3.58     5.467845     20.31217     65.46091        12     0.994     0.819  43.82   0
       213    706.3557    448.1492 300.2598846 +22.7327139     815.3103     72.03236      1.584     3.63     5.750886     20.31217     81.61288        15     1.065     0.959 -73.07   0
       214    863.4501    444.6255 300.3100233 +22.7787290      904.978     72.01404      1.432     2.93     5.286283     20.31217     101.7465        14     1.033     0.830  38.35   0
       215    847.6599    440.7571 300.3063526 +22.7728904     628.0305     71.97736      1.673     3.98     5.309516     20.31217     70.58086        13     1.189     0.984 -89.45   0
       216    591.9988    438.5602 300.2273519 +22.6957145     3227.564     72.01403      1.492     2.87     5.760184     20.31217     367.9935        27     1.185     1.089 -82.08   0
       217    952.5402    437.8678 300.3400171 +22.8034488     587.1269     72.03236      1.929     5.30     5.428947     20.31217     52.14567        13     1.229     0.868 -19.70   0
       218    431.8722    425.4714 300.1817183 +22.6439928     467.8255     72.05069      1.683     4.75     5.784686     20.31217     39.01286         7     1.053     0.609  18.17   0
       219   1003.3799    418.0228 300.3623273 +22.8129537     1298.559      71.9957      1.673     4.27     5.561503     20.31217     107.3933        18     1.283     0.960  51.13   0
       220    875.1375    417.3145 300.3225335 +22.7743736     468.3092     72.12395      1.493     4.70     5.323949     20.31217     54.16009        10     1.197     0.885 -36.77   0
       221    961.8422    416.6460 300.3498080 +22.8001287     978.1403     72.06902      1.551     3.47     5.429115     20.31217     114.6327        17     1.163     0.984   4.14   0
       222    611.6907    414.7466 300.2412169 +22.6947678     422.2204     72.05069      1.757     3.88     5.750016     20.31217     41.01537         6     0.860     0.722  79.85   0
       223    702.7172    412.5216 300.2703129 +22.7213834     1209.714     72.10564      1.625     2.98     5.752818     20.31217     136.6569        19     1.161     1.036 -77.07   0
       224    498.4871    413.0241 300.2065048 +22.6603704     468.9779     71.95901      1.387     4.38     5.727536     20.31217     48.08525        10     0.998     0.756 -47.37   0
       225    206.3754    410.6744 300.1163340 +22.5721783     738.7864     72.03236      1.744     5.58     5.624672     20.31217     69.22247        14     1.376     0.984  15.37   0
       226     46.4065    409.2398 300.0670511 +22.5238183     227.7054     72.03236      1.478     3.72     5.836744     20.31217     34.81153         5     0.966     0.412  -7.40   0
       227    268.9854    406.2715 300.1372432 +22.5896761     3907.512      71.9957      1.600     3.14     5.751989     20.31217      360.276        33     1.281     1.204  83.80   0
       228   1002.1817    405.1447 300.3661325 +22.8088908     4360.912     71.97736      1.700     3.21     5.568783     20.31217     407.2932        38     1.403     1.293 -78.54   0
       229    216.2123    401.0123 300.1225295 +22.5723517     7610.547     71.92231      1.606     3.15     5.708091     20.31217     724.0043        41     1.350     1.254  69.64   0
       230    982.1486    396.2086 300.3627788 +22.8003264     1852.967      71.9957      1.606     3.23     5.515138     20.31217     186.0023        25     1.277     1.136 -50.16   0
       231    357.0009    395.3119 300.1681936 +22.6128993     4762.972     71.90395      1.489     2.91     5.829152     20.31217     499.5407        32     1.242     1.161  78.44   0
       232    601.2333    392.1734 300.2452830 +22.6851487     18682.44     72.01403      1.449     2.78     5.709768     20.31217     2027.482        54     1.291     1.229  83.75   0
       233    618.8169    392.1859 300.2507588 +22.6904174     1000.912     71.94067      1.946     5.92     5.722463     20.31217     64.04025        18     1.407     0.932 -33.28   0
       234    798.1648    382.6625 300.3097664 +22.7413713     380.0922      71.9957      1.537     4.40     5.607909     20.31217     48.45778         8     0.978     0.810 -65.39   0
       235    221.3320    379.2072 300.1311972 +22.5676241     417.4409     71.97736      1.578     4.10     5.810915     20.31217     40.22194         6     0.766     0.627  -0.20   0
       236    934.9885    374.8078 300.3550036 +22.7800596      697.616     71.88558      1.563     5.03      5.39209     20.31217     55.81038        13     1.140     0.872 -44.23   0
       237    155.8310    372.0065 300.1131577 +22.5459273     2077.734      71.9957      1.712     3.68     5.743828     20.31217     169.4892        29     1.391     1.192  89.28   0
       238    541.8469    361.5578 300.2367120 +22.6585666     6608.545     72.03236      1.481     2.80      5.66615     20.31217     782.0529        37     1.265     1.125  75.42   0
       239    955.4667    362.0823 300.3655239 +22.7825266     1244.093     72.10564      1.660     3.68     5.468521     20.31217     120.3779        17     1.256     0.914  80.00   0
       240    256.7770    360.9966 300.1481339 +22.5730150     598.2525     71.95901      1.353     3.39     5.880316     20.31217     78.08266        13     1.093     0.788 -40.94   0
       241    114.4032    354.3397 300.1060050 +22.5284387     413.5272     71.97736      1.576     4.83     5.912966     20.31217     47.50626         8     1.149     0.575 -24.09   0
       242    801.7911    353.2599 300.3204374 +22.7340020     304.8821     71.97736      1.300     4.36     5.735992     20.31217     45.13519         7     0.874     0.618  25.23   0
       243    746.0201    350.7235 300.3038669 +22.7165799     1145.934      71.9957      1.516     3.15     5.751884     20.31217     116.6519        18     1.069     1.006 -34.70   0
       244    655.6258    351.8759 300.2753106 +22.6898513     374.6171     72.01403      1.306     2.80     5.729895     20.31217     64.87473        10     0.963     0.733 -60.98   0
       245    448.4943    347.8005 300.2120965 +22.6266559     6151.905     71.86722      1.487     2.72     5.890122     20.31217     794.2925        34     1.228     1.120  77.81   0
       246     34.4459    347.8702 300.0832433 +22.5026158     19.97213     71.97736      1.084     4.30     5.920455     20.31217     39.35834         5     0.803     0.655 -20.99   0
       247    938.3121    342.8065 300.3664238 +22.7718491     648.3726     71.90395      1.714     4.09     5.475923     20.31217     67.63885        14     1.225     0.923 -50.79   0
       248    840.5760    342.4633 300.3360387 +22.7425046     1492.117     71.97736      1.585     3.07     5.586188     20.31217     148.7976        19     1.077     1.030 -70.20   0
       249    433.1841    336.9409 300.2108516 +22.6189500     400.2371     71.95901      1.336     2.77     5.926264     20.31217     55.91927         7     0.811     0.646 -21.70   0
       250    516.0847    334.7525 300.2373823 +22.6431483      436.626     71.97736      1.318     3.39     5.742266     20.31217     55.96482         8     1.016     0.516 -52.12   0
       251    794.1655    333.4679 300.3244801 +22.7260283     240.4616      71.9957      1.662     5.48     5.742084     20.31217     27.85558         6     0.976     0.869  56.09   0
       252    813.3236    330.1460 300.3315334 +22.7308065     501.2408     72.03236      1.431     3.11     5.704807     20.31217     67.35306        10     0.896     0.755  14.08   0
       253    336.0212    327.1075 300.1837903 +22.5870213     2600.646     71.92231      1.480     2.78     5.903498     20.31217     261.6407        27     1.210     1.174 -86.56   0
       254     54.4159    324.0802 300.0971685 +22.5017716     1116.529     72.01403      1.803     4.08     5.896649     20.31217     107.7066        23     1.349     1.138  44.48   0
       255    684.3007    321.7852 300.2940113 +22.6897848     242.6885     71.90395      1.323     4.57     5.766699     20.31217     42.36939         6     1.190     0.499 -41.71   0
       256    305.4188    316.3746 300.1777465 +22.5747706     30165.41     72.01404      1.600     2.88     5.897732     20.31217      3486.19        71     1.422     1.304  70.49   0
       257    840.1665    314.2016 300.3450793 +22.7342540     1411.049     71.95901      1.441     3.14     5.669615     20.31217      145.027        19     1.067     1.001 -66.07   0
       258      2.3008    304.0269 300.0874722 +22.4803938     3886.219     61.23371      1.459     3.41     5.713796     20.31217     390.5551        30     1.498     0.969  81.02  24
       259    755.4932    303.3102 300.3222021 +22.7057817     551.0682     72.16055      1.433     3.17     5.750047     20.31217     60.78796         9     0.965     0.668 -13.81   0
       260    179.6029    302.8920 300.1429717 +22.5332031     491.0444     71.90395      1.713     5.03     5.990234     20.31217     46.16349         9     1.069     0.824  26.78   0
       261    403.3968    301.1441 300.2131877 +22.5997427     553.6042     71.95901      1.734     5.40     5.911462     20.31217     67.71124        13     1.265     1.048  58.93   0
       262    715.9087    296.2111 300.3121615 +22.6918927     2027.458     71.94067      1.472     2.69     5.763176     20.31217     250.6369        26     1.238     1.101  86.92   0
       263    523.9989    290.9373 300.2540602 +22.6329252     334.6756     71.97736      1.268     3.45     5.806527     20.31217     49.97188         8     1.016     0.627  25.84   0
       264    931.2274    289.4662 300.3815162 +22.7543852     389.5529     71.97736      1.201     2.83     5.759314     20.31217     77.15232        10     0.911     0.809  12.65   0
       265    377.6793    280.8550 300.2117609 +22.5862103     2267.243     72.03236      1.674     3.43      5.89759     20.31217     205.7823        29     1.460     1.081  62.91   0
       266    590.0772    279.5375 300.2783464 +22.6494321     266.6572     72.06902      1.429     3.80     5.803176     20.31217     39.86037         6     0.843     0.492   6.88   0
       267    816.9154    274.0900 300.3508368 +22.7157596     485.1788     72.14226      1.294     2.81      5.75564     20.31217     68.76306         9     0.814     0.706  36.38   0
       268    808.5495    274.3957 300.3481281 +22.7133441     156.9887      71.9957      1.170     4.34     5.750958     20.31217     42.19981         7     0.981     0.548  32.71   0
       269    699.2700    272.1288 300.3147847 +22.6799878     413.6818     72.06902      1.327     3.28     5.772931     20.31217     49.15569         7     0.879     0.566   8.40   0
       270    453.5734    260.0919 300.2421272 +22.6029719     1301.383     71.94067      1.555     4.92     5.876878     20.31217     127.4517        17     1.281     0.903  69.74   0
       271    964.4542    256.6362 300.4025347 +22.7548797     360.8612     72.01404      1.453     4.71     5.811366     20.31217     42.57187         7     0.906     0.781 -37.53   0
       272    836.1633    253.6438 300.3634723 +22.7156379     402.9487     72.05069      1.545     3.34     5.801567     20.31217     46.12227         5     0.873     0.472   6.41   0
       273    698.3577    252.1573 300.3209772 +22.6739719     2250.059     72.10564      1.482     2.93     5.773437     20.31217     249.9879        26     1.208     1.093  67.76   0
       274    959.6997    246.6403 300.4042924 +22.7505814     3020.199     71.97736      1.648     3.25     5.862917     20.31217       315.83        33     1.376     1.201  72.02   0
       275    506.3519    245.3423 300.2633497 +22.6145358     285.5216     72.05069      1.418     3.81     5.883634     20.31217     31.48792         5     1.008     0.412  74.83   0
       276   1020.7556    241.4286 300.4250423 +22.7673440     306.0329     69.36184      1.390     3.42     5.775508     20.31217     36.82699         5     0.724     0.479 -13.12  16
       277    330.8257    237.8341 300.2111263 +22.5598158      225.209      71.9957      1.498     3.74     5.902993     20.31217     33.76295         5     1.215     0.332  -8.29   0
       278    406.8372    235.9698 300.2353954 +22.5820441     758.4913     72.01403      1.563     3.09     5.907137     20.31217     92.86015        12     1.064     0.825  -1.35   0
       279     81.7236    230.0816 300.1361425 +22.4829638      1391.74     72.10564      1.741     4.24     6.072809     20.31217     125.3796        21     1.559     0.889 -44.13   0
       280    111.9687    230.1206 300.1455349 +22.4920375     455.7473      71.9957      1.453     5.66     6.094143     20.31217     48.82608        11     1.207     0.746  -8.16   0
       281    975.7074    227.3284 300.4155517 +22.7498128     639.0747     72.14226      1.621     3.46      5.92308     20.31217     68.16862         9     1.017     0.635 -31.22   0
       282    165.6087    222.2472 300.1647706 +22.5058472     534.0107     72.01403      1.580     4.17     6.115176     20.31217     62.67773         9     1.214     0.534 -26.18   0
       283    960.9068    220.1783 300.4132504 +22.7433283     327.9723     71.92231      1.333     3.91     5.971292     20.31217     36.51357         6     0.961     0.455 -37.08   0
       284    841.9968    216.3094 300.3773990 +22.7066436     335.1365     71.90395      1.229     3.11     5.867019     20.31217     51.32672         5     0.773     0.400  20.46   0
       285    769.8181    213.6477 300.3557479 +22.6842818     650.7242     72.03236      1.584     4.95     5.756011     20.31217     69.51176        14     1.262     0.888  29.24   0
       286    360.6100    213.5979 300.2282566 +22.5617714     453.3217     71.81208      1.806     3.23      5.92224     20.31217      41.1707         8     0.791     0.787  80.60   0
       287    868.2849    202.6639 300.3900251 +22.7105826     2205.357     72.08733      1.619     2.99     5.928315     20.31217      234.287        30     1.329     1.192  77.22   0
       288    286.8121    199.6874 300.2097956 +22.5356724     2319.052     71.94067      1.638     3.06     6.094925     20.31217     261.4156        26     1.283     1.114  74.36   0
       289    364.5508    194.9837 300.2355184 +22.5576022     1098.316     72.03236      1.649     4.03     5.941808     20.31217      93.2972        19     1.158     1.095 -15.14   0
       290    766.6613    194.5368 300.3609599 +22.6778403     667.6494     72.03236      1.518     3.44     5.748847     20.31217     82.13985        13     1.050     0.838 -23.28   0
       291    116.8724    195.2159 300.1583764 +22.4834815     323.9329      71.9957      1.246     2.41      6.30471     20.31217     48.24392         6     0.863     0.532  69.48   0
       292    873.7787    191.4702 300.3953685 +22.7090056     374.4838     72.01403      1.412     2.78     5.936039     20.31217     45.71632         5     0.720     0.480 -14.90   0
       293    181.6205    187.1121 300.1811424 +22.5005510     666.8636     71.92231      1.581     3.29     6.298235     20.31217     68.76839        12     1.067     0.798 -26.37   0
       294    719.5075    184.0510 300.3496552 +22.6607146     1730.311     72.06902      1.517     3.81     5.743439     20.31217      179.336        24     1.282     1.110 -73.41   0
       295    784.2735    183.5749 300.3700068 +22.6799568     515.5591     72.03236      1.373     3.34     5.754911     20.31217     73.34982        12     1.061     0.827 -36.59   0
       296    202.6596    180.4861 300.1898354 +22.5049498     472.9831     72.10564      1.530     4.36     6.343898     20.31217     50.83351        12     1.151     0.858  10.84   0
       297    990.8627    176.9664 300.4366121 +22.7398527     820.2911      71.9957      1.454     3.03      6.19203     20.31217     100.7094        11     0.930     0.804 -26.29   0
       298    723.6096    175.2978 300.3537721 +22.6594244     761.3814     71.90395      1.611     5.85     5.735315     20.31217     99.94991        16     1.552     0.844 -71.50   0
       299    492.6238    176.2538 300.2814741 +22.5905654     344.9589     72.01403      1.580     3.38     5.917129     20.31217     36.22266         5     0.776     0.425 -69.10   0
       300    643.9248    174.6899 300.3291267 +22.6354037     1227.204     72.16055      1.530     3.08     5.834565     20.31217     134.8172        16     1.038     0.940  76.73   0
       301    465.1677    171.1986 300.2745608 +22.5808925     388.6596     71.95901      1.626     4.29     5.915215     20.31217     40.17929         9     0.979     0.704  -7.03   0
       302    839.4559    166.4284 300.3927788 +22.6915332     1528.297      71.9957      1.547     2.39     5.859528     20.31217      187.033        20     1.126     1.014 -41.57   0
       303    570.1520    166.5527 300.3087730 +22.6109838     895.9822     72.03236      1.444     3.50     5.910924     20.31217      111.272        14     1.112     0.849 -24.17   0
       304    851.3584    165.6034 300.3967595 +22.6948565     875.8296     72.01403      1.685     3.74     5.889493     20.31217     82.08658        16     1.101     1.080  55.65   0
       305   1012.4101    156.3764 300.4500141 +22.7403705     1613.356      71.9957      1.664     3.43     6.387318     20.31217     172.2036        24     1.274     1.145 -77.34   0
       306    968.2084    155.8033 300.4364013 +22.7269870     1140.405     71.81208      1.526     2.85     6.203914     20.31217     147.7102        17     1.098     1.040  59.39   0
       307    201.9054    148.5348 300.1999580 +22.4955441     713.1343     72.12395      1.599     4.53     6.462894     20.31217     61.25328        14     1.199     0.932  38.95   0
       308     63.9083    143.1919 300.1587708 +22.4526704     2159.421     71.90395      1.780     3.74     6.873768     20.31217     200.1304        29     1.393     1.249  18.72   0
       309    887.2913    140.6331 300.4160656 +22.6984201     714.5752     71.95901      1.613     3.48     6.017116     20.31217     84.02136        15     1.152     1.056  19.25   0
       310     13.3693    140.1996 300.1440288 +22.4366686     485.1082     71.95901      1.707     4.05     7.278447     20.31217     49.26279         8     1.133     0.748   5.70   0
       311    221.3669    136.5730 300.2098899 +22.4979362     5608.423     72.01404      1.695     3.15     6.477422     20.31217     670.0842        37     1.367     1.263  78.61   0
       312    203.2135    137.8204 300.2038377 +22.4928575     298.2265     71.95901      1.439     3.89      6.47806     20.31217     30.43385         6     0.756     0.575 -41.22   0
       313      5.5405    130.9252 300.1446012 +22.4316593     1247.857     72.05069      1.854     3.76     7.345799     20.31217      112.659        23     1.324     1.148  64.09  16
       314   1020.3758    124.3810 300.4628726 +22.7335432     18183.68     70.49466      1.791     3.56     6.441512     20.31217     1767.555        68     1.623     1.398 -75.29  24
       315    204.8695    127.7863 300.2076050 +22.4904704     507.0948     72.01403      1.390     3.41     6.490847     20.31217     65.82256        10     1.053     0.734  10.14   0
       316    865.5901    118.4233 300.4164934 +22.6855382     3617.875      71.9957      1.645     2.85     5.984871     20.31217     401.7785        37     1.350     1.272  72.10   0
       317    969.2547    117.3147 300.4492040 +22.7162226     2692.937     72.06902      1.662     2.81     6.370078     20.31217     318.8937        31     1.352     1.190  75.44   0
       318    415.2006    113.6904 300.2776401 +22.5494015     711.7496     71.86722      1.592     2.76     5.983226     20.31217     62.71233        10     0.849     0.742  27.88   0
       319    339.2442    105.1211 300.2567686 +22.5241971     636.3366     71.97736      1.696     4.02     6.413148     20.31217     53.49716         9     1.025     0.700 -78.08   0
       320    105.0030    102.7076 300.1846697 +22.4533520     696.7078     71.90395      1.744     4.57     6.658473     20.31217     73.99715        12     1.180     0.801  -4.86   0
       321    466.4130    100.7150 300.2977944 +22.5610020     1786.683     71.94067      1.569     2.80     5.989438     20.31217     199.3542        24     1.271     1.068  62.08   0
       322    394.3442    101.5350 300.2750852 +22.5396632     449.0087     72.05069      1.173     2.80     6.144555     20.31217     63.40742         8     0.982     0.492   5.53   0
       323    527.9113    100.6006 300.3169888 +22.5793767     358.6003     71.90395      1.265     3.23     5.929641     20.31217      38.8746         5     0.741     0.445  20.22   0
       324    209.9759     96.5361 300.2193214 +22.4830203       408.11     71.97736      1.566     4.25     6.524348     20.31217     44.18715         6     1.035     0.499   0.39   0
       325    754.7321     90.4997 300.3909633 +22.6443427       330.97     72.08733      1.343     3.18     6.023236     20.31217     43.86925         7     0.922     0.496   4.38   0
       326    340.3832     86.1975 300.2632556 +22.5190989     180.5791     71.90395      0.882     2.72     6.369308     20.31217     33.93441         5     0.727     0.445  70.11   0
       327    900.3798     84.9053 300.4382120 +22.6862977     500.2444     71.92231      2.504     5.63     6.318874     20.31217     42.10715         7     1.055     0.848  23.42   0
       328    651.9958     82.5289 300.3615145 +22.6113125     309.7124     71.94067      1.885     3.75     5.964102     20.31217     40.48634         5     1.015     0.419 -64.59   0
       329    746.9707     81.6339 300.3914161 +22.6394702     330.2876     72.01403      1.362     3.83      6.02296     20.31217     37.54213         7     0.946     0.591 -54.13   0
       330    240.3654     80.3988 300.2340061 +22.4874838     6108.628     71.95901      1.700     3.15     6.461108     20.31217     671.2809        40     1.431     1.246  74.45   0
       331     91.6278     80.1100 300.1878332 +22.4428535     849.9758     71.97736      1.992     4.26     6.724566     20.31217     67.12671        13     1.250     0.828   7.51   0
       332    212.5051     74.7687 300.2271620 +22.4775226     330.8245     71.94067      1.583     3.76     6.526142     20.31217      38.2148         6     0.900     0.568 -25.50   0
       333    716.4412     72.1973 300.3849542 +22.6276220     309.5184     72.01403      1.274     2.32     6.026804     20.31217     39.65504         5     0.690     0.471  71.79   0
       334    255.6187     71.6539 300.2415862 +22.4895382     457.1621     71.97736      1.653     5.08     6.382763     20.31217     39.71667         9     1.176     0.855  65.37   0
       335    486.5242     65.9190 300.3153346 +22.5570167     6326.446     72.10564      1.551     2.87     5.783101     20.31217     657.0062        41     1.364     1.221  81.43   0
       336    372.1559     65.9395 300.2797115 +22.5227879      628.021     72.01403      1.385     2.92     6.132142     20.31217     74.49956        10     0.896     0.726 -62.83   0
       337    543.1080     61.0739 300.3345324 +22.5725581     244.8921     72.14226      1.377     4.02     5.717028     20.31217     39.77401         6     0.973     0.476 -34.58   0
       338    681.1799     57.7468 300.3786429 +22.6129156     333.6233     71.97736      1.547     4.32     6.084437     20.31217     30.83647         5     0.749     0.709  52.97   0
       339    739.0720     55.9543 300.3972744 +22.6297191     909.0537     71.97736      1.695     3.44     6.095912     20.31217     80.70414        12     1.006     0.907  28.60   0
       340    831.2615     55.0288 300.4263282 +22.6570281     366.5758      71.9957      1.333     2.70     6.308262     20.31217      58.2308         6     0.852     0.460  54.89   0
       341    179.8963     50.1818 300.2249838 +22.4606917     483.2139     71.90395      1.842     4.11      6.61044     20.31217     48.17485         8     0.944     0.686  62.74   0
       342    538.2645     48.3055 300.3371605 +22.5674366     510.2564     72.10564      1.688     5.76     5.648908     20.31217     50.68989        10     1.436     0.651 -42.56   0
       343    614.8945     46.0107 300.3617834 +22.5897072     6458.739     71.94066      1.602     3.13     5.948324     20.31217     682.1912        45     1.430     1.271 -90.00   0
       344    389.8122     45.0287 300.2919843 +22.5220619     1488.921      71.9957      1.497     3.02     5.978865     20.31217     168.3851        21     1.140     1.004 -55.02   0
       345    656.0059     43.3590 300.3754570 +22.6012450     882.0725     72.03236      1.587     4.74     6.086329     20.31217     107.6489        12     1.261     0.767  84.60   0
       346    726.0262     41.6280 300.3978483 +22.6216946     380.6647     71.95901      1.364     3.87     6.145225     20.31217     32.95613         5     0.892     0.482  -2.39   0
       347    671.8663     39.8612 300.3815346 +22.6049838     628.2454     72.03236      1.391     3.32     6.150675     20.31217     100.0711        12     1.241     0.633 -32.14   0
       348    941.8128     37.6787 300.4664462 +22.6850947     390.2085     71.97736      1.486     2.84     6.749059     20.31217     52.37799         7     0.788     0.621 -21.37   0
       349    138.6622     37.6693 300.2162116 +22.4447473       782.73     72.03236      1.804     3.74     6.674406     20.31217     82.09241        14     1.112     0.964 -34.26   0
       350    710.5930     35.2595 300.3950995 +22.6152455     469.5413     71.95901      1.273     2.34     6.173169     20.31217     59.22914         7     0.760     0.602 -16.69   0
       351    659.1450     30.9312 300.3804622 +22.5986089     2809.201     72.03236      1.554     3.10     6.133433     20.31217     286.9958        28     1.236     1.156  60.02   0
       352    299.8420     31.7143 300.2682898 +22.4912999     322.3584     71.95901      1.422     4.75     5.921614     20.31217     43.98919         8     1.037     0.618 -10.30   0
       353    674.2185     29.9910 300.3854658 +22.6028481     954.3604     71.94067      2.202     4.70     6.192593     20.31217     76.28655        17     1.442     0.996  37.35   0
       354    745.6614     22.5643 300.4101479 +22.6220830     1468.658     72.01403      1.576     2.73     6.249561     20.31217     193.9124        21     1.199     1.010  59.97   0
       355    683.5939     15.8631 300.3929659 +22.6015883     697.0543     71.95901      1.434     3.36     6.246884     20.31217     85.10846        12     1.014     0.806 -16.05   0
       356    348.6874    998.2715 299.9697134 +22.7834886     490.1763     72.14226      2.253     5.18     5.500408     20.31217     48.66404         8     1.637     0.463 -89.18   0
       357     62.2236     15.1801 300.1997267 +22.4153916     517.7441      71.9957      1.577     4.63     7.168145     20.31217     48.91899         9     1.013     0.712  21.10   0
       358    192.5935    984.8954 299.9254963 +22.7328219     3764.125     71.88558      7.281    22.01       69.005     20.31217     81.26329       253     5.119     4.323 -54.19   3
       359    288.2479   1011.6536 299.9465507 +22.7691955     979.3766     72.03236      2.104     7.07     8.549074     20.31217     61.38433        25     1.601     1.508   2.07   0
       360    230.2691    972.8027 299.9411491 +22.7406582     7221.625     71.95901      8.008    31.31     51.14191     20.31217     162.2006       647     9.567     4.913  63.07  18
