#   1 NUMBER                 Running object number                                     
#   2 X_IMAGE                Object position along x                                    [pixel]
#   3 Y_IMAGE                Object position along y                                    [pixel]
#   4 ALPHA_J2000            Right ascension of barycenter (J2000)                      [deg]
#   5 DELTA_J2000            Declination of barycenter (J2000)                          [deg]
#   6 FLUX_APER              Flux vector within fixed circular aperture(s)              [count]
#   7 FLUXERR_APER           RMS error vector for aperture flux(es)                     [count]
#   8 FLUX_RADIUS            Fraction-of-light radii                                    [pixel]
#   9 FWHM_IMAGE             FWHM assuming a gaussian core                              [pixel]
#  10 BACKGROUND             Background at centroid position                            [count]
#  11 THRESHOLD              Detection threshold above background                       [count]
#  12 FLUX_MAX               Peak flux above background                                 [count]
#  13 ISOAREA_IMAGE          Isophotal area above Analysis threshold                    [pixel**2]
#  14 A_IMAGE                Profile RMS along major axis                               [pixel]
#  15 B_IMAGE                Profile RMS along minor axis                               [pixel]
#  16 THETA_IMAGE            Position angle (CCW/x)                                     [deg]
#  17 FLAGS                  Extraction flags                                          
         1    476.2591     14.3839 300.3609079 +22.5320748     1245.599     72.40887      1.303     2.55     4.497706     20.43916     165.7898        16     0.975     0.890 -71.87   0
         2    581.6476     11.1813 300.3947549 +22.5627105     1372.844     72.48269      1.302     2.41     4.544589     20.43916     173.0586        16     0.966     0.866  85.67   0
         3    176.5826      9.8730 300.2691588 +22.4410116     448.8123     72.44579      1.351     4.52     4.144091     20.43916     67.87893        15     1.239     0.995 -76.25   0
         4    225.9220      7.9397 300.2851236 +22.4552393     544.4764     72.50113      1.309     2.73     4.479685     20.43916     71.90115        10     0.888     0.721 -89.31   0
         5    401.9449      4.9573 300.3408375 +22.5071104     2090.736     71.66658      1.359     2.35     4.455246     20.43916     291.5053        24     1.121     0.950  68.74  16
         6     49.1830      2.9350 300.2318181 +22.4008416     1454.537     64.64464      1.549     3.29     4.284092     20.43916     142.6125        22     1.186     1.060  -7.63  24
         7    656.2489      3.6746 300.4204217 +22.5828859     231.8622      67.7545      1.225     3.28     4.623624     20.43916     39.79754         5     0.755     0.434 -16.54  16
         8    892.6996      2.1890 300.4945920 +22.6532219     352.6506     61.04982      1.451     4.10     4.586793     20.43916     35.15048         6     0.746     0.643  32.34  24
         9     54.9462   1003.8690 299.9085042 +22.6896377     1303.477     72.48268     10.091    12.24     49.36613     20.43916      35.7187        29     2.856     1.459 -36.39   3
        10    186.3436   1011.8331 299.9467365 +22.7313776     1896.062     72.46424      7.840    15.11     14.61075     20.43916     53.88121        59     3.802     1.670  57.58  19
        11    190.0690   1022.2679 299.9444977 +22.7354862      3154.49     63.81209      9.126    31.06     14.81534     20.43916     83.62909       196     8.149     3.286   4.53  27
        12    179.9352   1018.1475 299.9426895 +22.7312627     2342.506     72.48269      7.919    17.08     16.56357     20.43916     74.65816        69     4.235     1.915  25.56  19
        13    120.2707   1022.8233 299.9226277 +22.7146860     832.8774     61.00601      7.010     8.18     33.16449     20.43916     32.95573        10     2.027     0.923 -20.06  26
        14    107.0557   1015.8434 299.9207940 +22.7087177     1299.074     72.44579     13.650    14.18      34.6745     20.43916     40.17989        24     3.569     1.568  13.32  19
        15    104.4239   1022.9495 299.9176633 +22.7099632     958.6526     60.38932     11.441    12.33     37.72786     20.43916     45.02776        25     3.782     1.120   8.58  27
        16    103.0246   1019.2648 299.9184280 +22.7084873     1238.379     72.42733      3.914     4.60     36.71241     20.43916     54.71993        12     1.068     0.842   6.27  19
        17     99.2424   1018.1387 299.9176195 +22.7070289     1630.066     72.42733      5.641    10.68     37.47208     20.43916     64.92544        34     2.394     1.327  73.67  19
        18     76.0736   1012.2990 299.9123229 +22.6983978     1212.903     72.59326      3.851     4.34     44.93464     20.43916     46.68055         5     2.645     0.203  51.00  19
        19     85.9474   1021.5950 299.9123644 +22.7040263     1228.769     66.74066      6.697     8.43     44.67278     20.43916     44.20844        16     2.234     0.889  44.44  27
        20     86.7045   1017.1597 299.9140432 +22.7029831      1546.41     72.44579      8.158    11.96     42.21344     20.43916     49.50637        32     3.210     1.241  38.95  19
        21     59.7482   1019.7129 299.9048388 +22.6956187     1304.843     72.27953     15.945    16.98     56.09601     20.43916     47.15445        48     4.128     1.941   0.75  19
        22     39.1406   1017.4513 299.8991743 +22.6887814     3297.918     72.50113      7.972    40.03     64.00983     20.43916     78.34829       283     8.251     5.390  74.53  27
        23     35.4747   1004.7636 299.9021654 +22.6840459     2422.333     72.39041      8.008    22.79     57.72642     20.43916      74.5547       108     4.510     3.199  62.88  19
        24    156.5699   1021.0281 299.9344909 +22.7250721      1056.34     68.85054      3.563     8.07     22.26384     20.43916     41.30415        13     1.933     0.942 -63.72  26
        25    694.6930   1004.7072 300.1072209 +22.8818929     350.8441     72.61167      1.789     5.19     3.559417     20.43916     33.21486         7     1.060     0.765  59.49   0
        26    341.1354   1001.7184 299.9981522 +22.7749488     6544.809     72.55642      1.675     3.32     4.488311     20.43916     582.7198        47     1.423     1.341 -84.19   0
        27     66.3974   1001.6335 299.9127887 +22.6924364     1625.599     72.40887      9.686    13.04     44.12226     20.43916     54.26191        40     2.427     1.949  -1.18   1
        28    148.8268   1023.1980 299.9313785 +22.7233686     520.5842     59.00088      4.662     6.46     24.89339     20.43916      42.3493         8     1.335     0.877 -32.96  25
        29     49.1230    988.7790 299.9116068 +22.6835659       992.07     72.44579      6.062     8.68     42.67496     20.43916     46.13623        18     1.462     1.440 -16.13   1
        30     29.9488    973.7811 299.9105326 +22.6735109     1499.604     72.42734      3.646    12.25     37.91766     20.43916     58.32936        29     3.276     1.276 -78.20   3
        31     36.7079    971.1737 299.9134803 +22.6747938     2151.058     72.39041      6.455    25.74     34.36304     20.43916     50.77295       115     5.904     3.115 -24.75   3
        32    374.1002    988.3015 300.0127720 +22.7809969     375.8637     72.68528      1.309     4.90     4.154739     20.43916     48.55028        10     1.165     0.726  72.88   0
        33    887.5648    980.2092 300.1752972 +22.9327022      2228.93     72.44579      1.721     3.71     3.701232     20.43916     170.2014        27     1.296     1.174 -13.81   0
        34    537.4579    977.6005 300.0670848 +22.8269491     373.0965     72.40887      1.502     3.55     3.650132     20.43916     46.02335         7     0.950     0.810  -4.28   0
        35    569.6541    974.8052 300.0780170 +22.8358068     282.5861     72.44579      1.399     4.52     3.603668     20.43916     29.96661         7     1.658     0.350 -46.38   0
        36    676.3638    969.5095 300.1129686 +22.8662977     739.2523     72.42734      1.921     6.23      3.56479     20.43916      62.1498        15     1.494     0.872  72.47   0
        37   1003.1260    968.5491 300.2151278 +22.9639977     440.0833     72.46424      1.706     5.38     3.605748     20.43916     39.40925        10     0.996     0.926 -71.92   0
        38     39.0460    984.9427 299.9097255 +22.6794405     1304.106     72.50113      9.822    12.52     43.09795     20.43916     63.96436        34     3.705     1.177 -48.16   3
        39     33.3800    983.4848 299.9084402 +22.6773212     1800.342     72.37194      7.742    18.52     43.41978     20.43916     56.87137        71     4.275     2.229 -28.56   3
        40    488.3444    964.3384 300.0561153 +22.8084098     424.3578     72.51956      1.673     5.12     3.635151     20.43916     36.43164         8     0.982     0.755 -26.99   0
        41    711.0063    963.3548 300.1257624 +22.8749222     964.9866     72.46424      1.545     3.77     3.563035     20.43916     92.46615        15     1.071     0.934  50.76   0
        42    733.3090    957.0882 300.1347498 +22.8798128     11340.14     72.61167      1.589     3.03     3.561243     20.43916     1025.708        50     1.358     1.292 -82.75   0
        43    924.8735    958.5721 300.1939718 +22.9376769     1992.702     72.46424      0.603     3.80     3.672933     20.43916     1422.078        11     1.031     0.402  73.21   0
        44    778.8340    956.9220 300.1489881 +22.8934172     450.8198     72.39041      1.484     5.23     3.566202     20.43916     45.06865         8     1.072     0.722  83.96   0
        45     44.7004    948.9279 299.9232018 +22.6708208      313.397     72.61167      1.635     6.89       19.039     20.43916     39.20496        12     1.249     1.066 -36.77   0
        46    438.2644    945.2120 300.0467564 +22.7878981     530.6924     72.39041      1.708     4.23     3.610888     20.43916     47.68762        11     1.075     0.947  52.36   0
        47    785.3634    944.4967 300.1550666 +22.8918096     410.6786     72.44579      1.583     3.88     3.532695     20.43916     38.36124         6     0.903     0.479 -86.52   0
        48    741.9380    939.1041 300.1432910 +22.8772403     1270.008     72.53799      1.423     3.10     3.556533     20.43916     124.0798        19     1.104     0.958 -42.23   0
        49    925.0875    938.2264 300.2006602 +22.9319007     430.4008     72.42734      1.609     4.76     3.635978     20.43916     44.97565         7     1.083     0.594 -25.19   0
        50    594.1620    936.0982 300.0982443 +22.8320564      561.451     72.44579      1.849     4.57     3.532276     20.43916     42.16483        10     0.978     0.750  24.38   0
        51    780.1359    932.6131 300.1573051 +22.8868319     823.5164     72.40887      1.733     3.86     3.509647     20.43916     71.46165        14     1.145     0.876  12.31   0
        52    119.4615    932.3282 299.9518275 +22.6885135     410.4438     72.48269      2.702     5.02     7.937377     20.43916      30.4122         7     1.234     0.578 -19.30   0
        53    889.3693    929.6678 300.1923094 +22.9187366     470.9856     72.42734      1.995     4.53     3.581083     20.43916      39.7954         9     0.938     0.827  48.75   0
        54    828.3734    923.7554 300.1752202 +22.8987530     551.6497     72.46424      1.627     3.72     3.513916     20.43916     66.11322        12     1.010     0.852 -13.58   0
        55    679.5986    922.6496 300.1292264 +22.8538238     804.9362     72.42734      1.605     3.74     3.590301     20.43916      69.4114        14     1.096     0.931  87.85   0
        56    392.4106    919.3880 300.0408944 +22.7667338     4265.553     72.33499      1.571     2.78     3.630561     20.43916     405.0525        35     1.269     1.219  -5.11   0
        57    691.2399    919.9178 300.1337413 +22.8565312     617.8702     72.40887      1.472     3.74     3.598188     20.43916     57.87125        10     0.909     0.851 -65.81   0
        58     53.9813    908.3515 299.9392870 +22.6619819      689.932     72.48269      2.194     5.99     5.960234     20.43916     50.53973         9     1.391     0.727 -60.06   0
        59     34.6204    907.6535 299.9335006 +22.6559683     475.6992     72.42734      2.603     6.42     5.745317     20.43916     45.94534        10     1.659     0.698 -34.27   0
        60    435.6778    907.3838 300.0582609 +22.7762743     326.0622     72.44579      1.676     4.38     3.534297     20.43916     38.27129         5     1.031     0.704 -22.21   0
        61    117.5332    905.4035 299.9599888 +22.6802187     914.8832     72.42734      1.983     3.66     5.987904     20.43916     99.36499        15     1.184     0.969   2.01   0
        62     19.5677    903.9603 299.9300272 +22.6503899     360.4149     72.48269      2.359     3.45     5.466386     20.43916      26.4311         5     1.792     0.192  54.26   0
        63     94.4979    902.1627 299.9538865 +22.6723739     1664.006     72.44579      1.726     3.53     6.095234     20.43916     155.2982        24     1.244     1.153 -42.15   0
        64     26.4286    903.1390 299.9324252 +22.6522149     511.4629     72.44579      1.913     3.41     5.496563     20.43916     39.49062         5     0.800     0.421  67.53   0
        65    723.1323    897.8471 300.1508577 +22.8597622     285.5771     72.42733      1.793     5.58     3.666237     20.43916      25.2312         6     1.337     0.657   8.21   0
        66    966.5170    890.9047 300.2289785 +22.9307332     2052.617     72.63008      1.562     3.29     3.570832     20.43916     166.5986        27     1.302     1.105 -42.57   0
        67    920.7088    889.3525 300.2151992 +22.9165578     2191.149     72.44579      1.628     3.12     3.621292     20.43916     171.3598        25     1.159     1.119 -89.26   0
        68    626.3726    889.0852 300.1235715 +22.8282306     346.8933     72.44579      1.228     2.46     3.525903     20.43916     58.39798         6     0.746     0.654 -67.76   0
        69    704.3231    883.1989 300.1497644 +22.8499184     694.4744     72.33498      1.466     3.44      3.71698     20.43916     69.27446        14     1.074     0.876 -55.47   0
        70    127.1333    883.5968 299.9700661 +22.6768514     591.9502     72.42733      1.959     3.47     4.933226     20.43916     60.41768         9     0.923     0.780 -14.71   0
        71    572.2507    877.3844 300.1105269 +22.8086408     4690.326     72.46424      1.411     2.63     3.385421     20.43916     491.1115        30     1.187     1.045  58.84   0
        72     61.6125    877.4227 299.9517193 +22.6554106     470.5947     72.42734      1.796     5.18      4.75364     20.43916     41.44288         9     0.970     0.783  20.96   0
        73    374.5482    874.8001 300.0498449 +22.7485882     629.8636     72.39041      1.397     3.57     3.789812     20.43916     81.38262        12     1.074     0.820 -27.85   0
        74    122.5700    871.4510 299.9725993 +22.6720005      1346.29     72.46424      1.652     3.44     4.371294     20.43916     133.2381        22     1.201     1.120  36.78   0
        75    592.8757    869.8127 300.1194116 +22.8126548     849.9207     72.46424      1.543     3.75     3.398225     20.43916     84.54304        15     1.093     0.965 -10.03   0
        76    141.7507    868.1453 299.9796346 +22.6768111     516.3179     72.48269      1.791     5.75     4.195525     20.43916       52.569         9     1.175     0.895   7.21   0
        77    509.0881    861.0004 300.0961958 +22.7849947     262.5083     72.35346      1.434     3.77     3.356006     20.43916     41.17134         5     1.023     0.399 -30.49   0
        78    748.3162    857.1183 300.1719549 +22.8556250     3979.827     72.57484      1.388     2.59     3.794945     20.43916       442.02        29     1.132     1.077 -58.91   0
        79    965.2284    857.4568 300.2394594 +22.9207432     1141.759     72.44579      1.593     3.71     3.604632     20.43916     99.88371        18     1.183     0.969  31.81   0
        80   1003.6003    856.6021 300.2517051 +22.9319970     389.6901     72.22401      1.860     5.22     3.551336     20.43916     30.74227         8     1.104     0.697  34.64   0
        81    156.4786    851.4083 299.9896555 +22.6764350     525.4053     72.39041      1.722     4.76     4.027507     20.43916     47.23021        10     1.026     0.813  17.16   0
        82    465.2075    849.5358 300.0862693 +22.7685428     637.9623     72.42733      1.446     3.04     3.462408     20.43916      78.3427        13     0.994     0.837  58.31   0
        83    111.7032    847.5421 299.9770003 +22.6618858     971.3566     72.51956      1.667     3.84     4.064789     20.43916     104.5245        20     1.322     1.016 -34.94   0
        84    261.3782    839.8400 300.0260241 +22.7046034     52555.66     72.48269      1.536     2.73     4.000846     20.43916     6022.156       103     1.432     1.414  59.05   0
        85    527.0461    842.8901 300.1076766 +22.7851862     477.6677     72.42733      1.347     2.90     3.424569     20.43916      61.8732        10     0.880     0.749 -83.80   0
        86    519.2681    838.8075 300.1065837 +22.7816820     1678.484     72.42734      1.384     2.52     3.447953     20.43916     206.2595        19     1.069     0.977 -66.71   0
        87    189.4380    837.9952 300.0042615 +22.6824832     495.6054     72.46424      1.552     5.93     4.018312     20.43916     46.23162        12     1.339     0.895  39.02   0
        88    932.1455    837.7241 300.2355623 +22.9051625     852.7302     72.48269      1.534     3.27     3.719167     20.43916     84.41647        14     1.011     0.919  -7.18   0
        89    548.1486    834.8431 300.1168629 +22.7892072     839.3808     72.48269      1.281     2.34     3.443453     20.43916     119.0598        10     0.835     0.711  75.56   0
        90    559.2982    833.0667 300.1209117 +22.7920416     514.6544     72.53799      1.454     3.41     3.476481     20.43916     58.74321        11     0.906     0.877  72.39   0
        91    879.0964    830.0084 300.2215325 +22.8870477     241.4188     72.33498      1.221     4.15     3.855688     20.43916     47.25451         9     0.902     0.752 -79.69   0
        92    664.3946    829.2782 300.1548690 +22.8224721     350.2618     72.35347      1.142     2.71     3.873523     20.43916     61.06678         8     0.851     0.672   1.09   0
        93    311.0615    817.0692 300.0488788 +22.7129834     31085.44     72.48268      1.466     2.75     3.994563     20.43916     3240.747        81     1.390     1.328  52.81   0
        94    702.3436    819.6715 300.1698142 +22.8310939     769.2692     72.46424      1.239     2.38     3.974371     20.43916     104.4232        11     0.849     0.771  40.64   0
        95    325.3589    817.6588 300.0531333 +22.7174426      2009.74     72.44579      1.552     2.77     4.018379     20.43916     205.2682        25     1.254     1.054 -21.01   0
        96    834.1204    812.7344 300.2131317 +22.8686075     2805.699     72.55642      1.478     2.69     4.035842     20.43916     298.1086        26     1.157     1.073 -69.55   0
        97    321.9663    811.3799 300.0541204 +22.7146241      594.461     72.44579      1.411     3.58     4.021749     20.43916     64.42768        12     1.149     0.737  32.18   0
        98    864.0547    811.4315 300.2228862 +22.8772058      259.894     72.46424      1.360     4.27     4.026691     20.43916     40.47379         6     1.084     0.479   7.35   0
        99    591.9229    809.0234 300.1388893 +22.7949275     875.9393     72.44579      1.310     2.77     3.681245     20.43916     119.7075        13     0.904     0.872  35.86   0
       100    428.4727    808.8810 300.0880628 +22.7458615     377.7667     72.57484      1.223     3.65     3.674587     20.43916     52.74198         9     0.991     0.696  56.98   0
       101    193.6948    808.8451 300.0150654 +22.6754042     823.6385     72.46424      1.357     2.89     3.948468     20.43916     111.5926        13     1.035     0.810  23.86   0
       102    439.1296    803.9532 300.0929813 +22.7476450     876.7844     72.42733      1.364     3.17     3.687361     20.43916     104.9881        12     0.966     0.850 -72.63   0
       103    840.2945    800.4727 300.2190444 +22.8669379     451.6507     72.57484      1.298     3.98     4.124793     20.43916     68.51336        11     1.275     0.637  76.97   0
       104    341.2002    799.7869 300.0638725 +22.7170705     331.4791     72.26102      1.462     4.05     4.079642     20.43916     47.38212        10     1.035     0.817  28.28   0
       105    385.0424    798.8834 300.0778031 +22.7299649     362.9684     72.40887      1.247     2.86     3.909491     20.43916     53.70824         9     0.790     0.752  81.72   0
       106    593.4912    798.0074 300.1429605 +22.7922368     261.0578     72.35347      1.122     3.18     3.736399     20.43916     47.02781         6     0.783     0.497  85.32   0
       107     26.9025    798.3320 299.9666627 +22.6223241     499.5104     72.55642      1.377     3.89     3.932438     20.43916     61.13692        10     1.136     0.646 -14.87   0
       108    817.6549    795.1202 300.2137290 +22.8586153     303.1991     72.48269      1.400     3.98     4.146488     20.43916      46.9625         7     0.914     0.818  64.20   0
       109    191.0459    793.0213 300.0193882 +22.6700726     515.7993     72.50113      1.546     4.75     3.912009     20.43916     51.58843         9     1.066     0.804  51.89   0
       110    514.6353    783.4482 300.1231473 +22.7644104     351.0349     72.48269      1.190     4.05     3.730252     20.43916      51.4651         7     0.986     0.475   9.72   0
       111    484.1382    781.6918 300.1142269 +22.7547596      435.575     72.53799      1.163     2.35     3.814437     20.43916     86.22945         9     0.841     0.658  66.86   0
       112    506.1813    779.1164 300.1219247 +22.7606321     1405.438     72.39041      1.344     2.44     3.777971     20.43916      185.834        19     1.077     0.942  36.24   0
       113    900.5325    778.0778 300.2451065 +22.8785614     4415.352     72.55642      1.464     2.67     3.982203     20.43916     473.7964        32     1.194     1.137 -66.47   0
       114    425.7033    778.4510 300.0970976 +22.7363021     471.5319     72.51956      1.904     2.99     3.845722     20.43916     54.21347         6     0.840     0.506  44.12   0
       115    587.8651    773.9969 300.1490174 +22.7836598     183.2061     72.46424      0.892     2.03     3.800575     20.43916      52.0079         5     0.634     0.512  -0.17   0
       116    888.9998    769.5436 300.2442865 +22.8726547     1187.354     72.35347      1.375     2.61      4.02583     20.43916     190.8062        19     1.030     0.945 -17.79   0
       117    118.6816    764.4838 300.0061802 +22.6401725     264.5025     72.57484      1.405     3.90     3.842808     20.43916     30.64179         6     0.938     0.465 -88.70   0
       118    251.8399    763.6802 300.0478273 +22.6799035     861.0513     72.40887      1.429     3.37     3.909813     20.43916     88.69722        14     1.035     0.895 -13.66   0
       119    715.4893    760.8289 300.1930469 +22.8181458     2547.636     72.42733      1.455     2.51     4.021591     20.43916     316.3403        28     1.477     1.058  -4.31   0
       120    920.2695    759.9184 300.2571661 +22.8792613      1614.14     72.55642      1.519     2.85     3.942208     20.43916     176.7494        22     1.247     0.966  58.13   0
       121    934.0395    749.8416 300.2647367 +22.8804936     239.3541     72.53799      1.497     4.76     3.929732     20.43916     33.20386         6     1.124     0.573  76.12   0
       122    100.6646    747.5518 300.0060877 +22.6299109     567.8849     72.46424      1.608     4.94     3.791306     20.43916     54.37678        11     1.027     0.864 -41.79   0
       123    797.7657    746.5881 300.2233137 +22.8387203     594.3101     72.42734      1.588     4.37     4.157264     20.43916     60.21971        11     1.120     0.763  18.95   0
       124    833.8233    737.7559 300.2374236 +22.8469912     146157.5     72.50113      1.380     2.36      4.13071     20.43916     19659.56       164     1.430     1.377  82.58   0
       125    596.4238    741.9454 300.1621048 +22.7770283     356.9558     72.46424      1.117     3.21     3.912063     20.43916     48.48326         6     0.768     0.494 -88.23   0
       126    980.8264    739.4285 300.2827138 +22.8915214     1236.238     72.42733      1.437     2.88     3.944945     20.43916     129.5037        19     1.115     1.003  37.67   0
       127    686.0998    737.9918 300.1913178 +22.8027799     862.1627     72.35346      1.461     2.67     3.947891     20.43916      102.661        11     0.934     0.735 -81.31   0
       128    438.8554    738.9072 300.1140483 +22.7289031     123.7441     72.50113      1.149     4.36     4.098174     20.43916     36.16473         6     0.987     0.583  11.93   0
       129    866.7067    730.6124 300.2499965 +22.8547947     406.3747     72.39041      1.440     3.08     4.073114     20.43916     49.95145         7     0.846     0.625 -68.12   0
       130    520.0081    726.6186 300.1432990 +22.7497157     1639.101     72.40887      1.272     2.32     4.038261     20.43916     224.0622        17     0.975     0.922 -39.85   0
       131    701.2652    723.9018 300.2006233 +22.8032816     9300.865     72.53799      1.307     2.23     4.008545     20.43916     1310.794        41     1.170     1.084  75.18   0
       132    202.7211    719.1832 300.0470257 +22.6524050     4798.585     72.44579      1.447     2.52     3.866684     20.43916     594.2651        35     1.194     1.148  35.34   0
       133    284.8489    717.1119 300.0732314 +22.6764527      1219.13     72.44579      1.406     2.92     3.959073     20.43916     145.5485        20     1.091     1.017  -2.95   0
       134    160.0531    714.9051 300.0351553 +22.6383745     448.6205     72.51956      1.559     3.67     3.876251     20.43916     56.98609         9     1.081     0.954 -62.10   0
       135    493.2872    712.5768 300.1395476 +22.7376733     852.7631     72.39041      1.480     3.33     4.128635     20.43916     103.3157        14     1.077     0.859 -44.11   0
       136    484.7368    704.7865 300.1394192 +22.7328738     3099.869     72.40887      1.273     2.17       4.1517     20.43916     474.3436        27     1.048     1.026  78.41   0
       137    474.8831    698.5056 300.1383946 +22.7281165     1371.926     72.63008      1.275     2.35      4.16224     20.43916     200.1701        15     0.929     0.837  44.15   0
       138    403.7476    698.1904 300.1163630 +22.7066917     280.3301     72.44579      1.348     3.20     4.150868     20.43916     42.46992         5     0.912     0.351  43.86   0
       139    868.7585    696.0846 300.2618624 +22.8454940     478.6284     72.40887      1.143     2.29     3.941245     20.43916     69.27125         7     0.784     0.626   5.92   0
       140    138.2379    694.6985 300.0349449 +22.6260342     634.8773     72.44579      1.466     3.93     3.912711     20.43916     73.79166        12     1.092     0.879  59.61   0
       141    152.2721    693.2365 300.0397813 +22.6298264     666.4011     72.39041      1.592     3.62     3.928114     20.43916     72.52003        14     1.036     0.967 -37.31   0
       142    209.7290    690.0595 300.0586717 +22.6461560     417.7852     72.48269      1.565     4.11     3.942276     20.43916     54.02855         7     1.032     0.635  24.06   0
       143    178.1651    690.0959 300.0488492 +22.6366956     520.3398     72.44579      1.409     3.81     3.942276     20.43916      57.3042         9     1.022     0.686  15.66   0
       144    921.8925    689.3248 300.2806260 +22.8594731     502.8534     72.61167      1.249     2.60     3.884526     20.43916     61.27571         8     0.779     0.657  32.82   0
       145    499.1339    688.7965 300.1490982 +22.7326029     369.8137     72.44579      1.215     2.42     4.177467     20.43916     56.94957         6     0.710     0.567 -53.63   0
       146    399.7887    688.2708 300.1183561 +22.7026584     1738.018     72.46424      1.276     2.33     4.158042     20.43916     253.3662        19     0.966     0.924  75.76   0
       147     53.7149    683.4023 300.0123568 +22.5974293     19502.19     72.37194      1.568     2.81     3.901755     20.43916     1968.737        65     1.394     1.328  19.12   0
       148    484.5382    683.6091 300.1462420 +22.7267375     1067.023     72.37194      1.363     2.48     4.182749     20.43916     150.6624        15     1.050     0.796 -34.63   0
       149    519.8199    682.9552 300.1574356 +22.7371296     408.3333     72.50113      1.338     2.38     4.203114     20.43916     64.02871         6     0.868     0.411 -56.41   0
       150    433.7451    687.5265 300.1291626 +22.7126290     255.0131     72.44579      1.471     4.08     4.174399     20.43916     34.80785         7     1.026     0.464 -11.68   0
       151    237.9653    675.2852 300.0722517 +22.6503907     319.3155     72.40887      1.296     2.30     3.982235     20.43916     51.31837         5     0.763     0.460 -59.62   0
       152    567.9682    671.3479 300.1761972 +22.7482349     256.5561     72.46424      1.320     2.72     4.272474     20.43916     58.44777         7     0.915     0.584  56.41   0
       153    902.7960    669.7758 300.2810270 +22.8481366     882.4839     72.40887      1.320     2.79     3.863816     20.43916     121.6476        14     0.994     0.836  70.90   0
       154      1.0890    667.3526 300.0012283 +22.5770331     588.0387      54.9171      1.377     3.68     4.037113     20.43916      103.887         7     1.375     0.284 -89.01  24
       155    975.5982    685.4269 300.2986413 +22.8744434      843.518     72.39041      1.444     2.87      3.92958     20.43916     87.22707        16     1.031     0.913 -29.29   0
       156    769.5994    667.4764 300.2402575 +22.8075636     448.9167     72.33499      1.343     2.82     4.186832     20.43916     65.59048         8     0.884     0.628  -5.55   0
       157    448.1373    664.0898 300.1412592 +22.7102205     393.1934     72.53799      1.285     2.77     4.272344     20.43916     63.50611         8     0.821     0.691 -73.15   0
       158    240.6730    663.3849 300.0769615 +22.6477899     343.4105     72.44579      1.265     3.86     3.998683     20.43916     48.83309         6     1.017     0.458  55.21   0
       159    842.9247    662.2433 300.2648109 +22.8280341     714.6654     72.42734      1.283     4.37     3.999986     20.43916     93.62928        12     1.150     0.736  22.30   2
       160    838.4804    661.9916 300.2635074 +22.8266301      478.114     72.39041      1.344     3.43     4.024472     20.43916     53.11655         8     0.928     0.602  76.44   2
       161    404.8486    656.2064 300.1303528 +22.6949763     808.3767     72.44579      1.350     4.19     4.249632     20.43916     117.0107        13     1.194     0.826 -28.14   0
       162    552.9381    654.9363 300.1768527 +22.7390182      508.834     72.48268      1.177     2.76     4.471478     20.43916     76.34016         9     0.842     0.739  74.63   0
       163    449.1065    652.4612 300.1453405 +22.7071743     976.0156     72.53799      1.341     2.31     4.379619     20.43916     128.4323        17     1.432     0.769  51.39   0
       164    600.2223    653.4667 300.1920520 +22.7527723     356.1103     72.42734      1.086     2.65     4.400666     20.43916     62.82351         9     0.841     0.740  19.84   0
       165    570.5032    653.2047 300.1828839 +22.7437874     658.1615     72.35347      1.348     2.77      4.45861     20.43916     75.69208        12     0.975     0.794 -72.85   0
       166    882.8719    647.7214 300.2819842 +22.8358325     3408.388     72.55642      1.317     2.16     3.924437     20.43916     482.2298        25     1.066     1.005 -70.96   0
       167    414.4837    647.8712 300.1360596 +22.6954743      1805.13     72.57484      1.265     2.24     4.299378     20.43916     258.4699        17     0.944     0.887  70.63   0
       168    980.8951    645.7907 300.3131782 +22.8646437     699.6979     72.35347      1.446     2.82     3.939469     20.43916     86.61815        12     0.991     0.764 -51.12   0
       169    779.5095    644.7878 300.2507206 +22.8040183     317.8285     72.39041      1.520     3.47     4.143413     20.43916     40.73873         5     0.842     0.566  40.35   0
       170    764.5944    643.2996 300.2465567 +22.7991213     307.7589     72.33498      1.462     3.50     4.127796     20.43916     35.54007         5     0.747     0.474 -77.00   0
       171    389.2234    642.7213 300.1298748 +22.6864211     322.0224     72.40887      1.597     3.82     4.271774     20.43916     31.45394         5     1.021     0.411  85.90   0
       172    443.4681    638.8079 300.1480236 +22.7015656     441.0603     72.42733      1.423     3.15     4.466444     20.43916     67.70618         8     0.844     0.797 -72.31   0
       173    922.0542    637.4250 300.2975476 +22.8446138      296.412     72.46424      1.174     2.85     3.915985     20.43916     45.40718         7     0.731     0.643  21.82   0
       174    277.9311    634.6269 300.0978921 +22.6507180     9326.622     72.44579      1.350     2.37     4.138822     20.43916     1250.995        39     1.160     1.104  43.28   0
       175    400.3867    631.6254 300.1369539 +22.6865852      8925.62     72.44579      1.285     2.18     4.337632     20.43916     1122.388        37     1.131     1.071  80.39   0
       176   1005.0589    626.8013 300.3268875 +22.8664258     965.8533     72.40887      1.397     3.10     3.954302     20.43916     117.0419        12     0.937     0.858  82.80   0
       177     44.3426    627.0208 300.0277698 +22.5784520     297.7223     72.44579      1.736     4.00     4.317393     20.43916     32.66052         6     1.424     0.321  60.93   0
       178    812.0947    625.5210 300.2671378 +22.8082496     1764.011     72.55642      1.277     2.27     4.089559     20.43916     270.9233        15     0.889     0.871  50.75   0
       179    896.6678    622.7881 300.2943895 +22.8328039      12403.9     72.44579      1.318     2.19     3.972559     20.43916     1738.701        51     1.198     1.153  67.80   0
       180    460.9527    621.1793 300.1591937 +22.7017496     11397.86     72.48269      1.270     2.14     4.739285     20.43916     1729.984        43     1.133     1.072  76.09   0
       181    630.4609    616.9365 300.2133411 +22.7513502     479.2496     72.48269      1.195     2.22      4.47709     20.43916     85.20879         6     0.746     0.493  82.71   0
       182    188.4417    616.7012 300.0758974 +22.6187304     1257.645     72.42734      1.347     2.56     3.986589     20.43916     165.9935        17     1.062     0.895  30.35   0
       183    346.0961    615.9550 300.1251585 +22.6658070     224.7317     72.46424      1.064     2.32      4.27496     20.43916     54.23662         5     0.626     0.555  87.01   0
       184    110.2840    616.0013 300.0518364 +22.5950798      67.2989     72.33498      1.178     3.94     3.958276     20.43916     32.77708         5     1.018     0.511 -51.14   0
       185    435.0585    613.9919 300.1534719 +22.6919225     448.5225     72.42733      1.339     4.37       4.6019     20.43916      63.0806         7     1.135     0.547 -76.85   0
       186    392.6313    609.3760 300.1417718 +22.6778752     4312.852     72.44579      1.227     2.14     4.409945     20.43916     578.8398        28     1.037     1.001  40.83   0
       187    735.4556    609.2142 300.2485557 +22.7806010     832.4589     72.42733      1.374     2.54     4.044943     20.43916     100.0589        12     0.891     0.821 -41.29   0
       188    370.7450    607.7453 300.1354934 +22.6708438      1248.91     72.48269      1.290     2.54     4.349572     20.43916     164.1387        14     0.920     0.857  56.28   0
       189    125.3129    607.1673 300.0593768 +22.5970559     798.1644     72.42734      1.515     2.67     3.987533     20.43916     85.99014        12     0.925     0.788 -35.73   0
       190    812.5684    604.6605 300.2740651 +22.8024003     1651.946     72.48269      1.390     2.86     4.071147     20.43916     195.0078        20     1.073     0.988 -31.33   0
       191    509.2408    596.8763 300.1821198 +22.7092528     198586.2     72.40887      1.282     2.09     5.028865     20.43916     30605.35       210     1.447     1.410  45.89   0
       192    332.8281    603.3366 300.1251323 +22.6582073     336.6548     72.44579      1.221     3.48     4.306153     20.43916     51.63404         5     0.763     0.459 -10.67   0
       193    692.8792    601.6717 300.2377428 +22.7656756     754.6297     72.55642      1.161     2.06     4.091649     20.43916     140.7851        12     0.841     0.778  52.10   0
       194    195.3724    596.8741 300.0844944 +22.6151228     3044.575     72.44579      1.205     2.37     4.092832     20.43916     457.3005        28     1.120     1.033  80.78   0
       195    897.2238    598.1495 300.3025704 +22.8258927     221.6564     72.44579      1.270     3.48     4.052729     20.43916     39.59761         6     0.734     0.601  47.71   0
       196    374.8249    593.2377 300.1414768 +22.6679045     260.5272     72.46424      2.004     4.18     4.395674     20.43916     31.98318         6     1.104     0.452 -55.76   2
       197    761.2806    592.3481 300.2620833 +22.7834964     417.6819     72.44579      1.387     4.15     4.096718     20.43916     74.99745         7     1.128     0.446  86.92   0
       198    540.7172    583.7570 300.1961808 +22.7149234     334.7924     72.40887      1.289     1.99     5.016072     20.43916     49.35603         5     0.700     0.431  76.43   0
       199    399.8025    577.5139 300.1543562 +22.6708825     2843.296     72.37194      1.466     2.56      4.52419     20.43916     402.5197        30     1.515     1.020 -83.22   0
       200    243.9856    579.6224 300.1052120 +22.6247568     454.8114     72.44579      1.417     3.08     4.225606     20.43916     63.07442         8     0.864     0.656  63.02   0
       201    556.5842    574.3007 300.2041930 +22.7169653     365.5314     72.35347      1.910     4.61     4.976048     20.43916     36.19253         6     1.341     0.449 -64.65   0
       202    811.4814    573.4000 300.2838849 +22.7930959     419.2236     72.31651      1.116     2.56     4.159002     20.43916     60.45848         6     0.796     0.487  -5.11   0
       203    717.0516    565.7536 300.2569447 +22.7626054     378.0503     72.48269      1.092     1.99      4.23841     20.43916     74.38192         7     0.667     0.638 -83.75   0
       204    796.7431    563.3271 300.2825646 +22.7857869     1791.571     72.48269      1.244     2.10     4.185341     20.43916     249.0972        18     0.945     0.921 -84.97   0
       205    668.0453    561.0300 300.2432137 +22.7465630     2584.104     72.48268      1.263     2.04     4.485458     20.43916      431.018        23     1.025     0.943 -53.08   0
       206    912.4212    558.2822 300.3202639 +22.8189918     645.8405     72.40887      1.308     2.58      4.23956     20.43916     70.30927        10     0.855     0.733 -34.06   0
       207    877.4857    557.0220 300.3097811 +22.8081649     362.3487     72.39041      1.495     4.43     4.213587     20.43916     47.82571         8     0.853     0.738  41.29   0
       208    572.8406    557.3906 300.2147486 +22.7169837      420.887     72.44579      1.217     3.83     4.946647     20.43916     59.52071         7     0.848     0.611  32.07   0
       209    455.2041    556.9388 300.1782793 +22.6815890     655.2699     72.42734      1.188     2.55     4.857707     20.43916     103.1012        11     0.875     0.784 -18.24   0
       210    925.4580    554.9279 300.3254188 +22.8219330     1268.415     72.48269      1.294     2.13      4.26775     20.43916     185.3334        14     0.960     0.791  15.32   0
       211    797.0963    553.3956 300.2859016 +22.7830401     2272.139     72.35346      1.439     2.57      4.21276     20.43916     339.2563        25     1.485     0.885  74.25   0
       212    911.0999    553.9238 300.3212680 +22.8173438     728.3033     72.57484      1.340     2.26     4.258968     20.43916     97.96264        10     0.827     0.705  88.25   0
       213    733.8188    553.2191 300.2662413 +22.7640300     150.4973     72.44579      1.313     3.36     4.210704     20.43916     31.06903         5     0.944     0.346  46.06   0
       214    550.5730    551.6502 300.2096811 +22.7086610     547.7426     72.46424      1.247     2.57     4.978549     20.43916     63.80385         8     0.833     0.644   1.53   0
       215    835.2912    548.4084 300.2994265 +22.7930504     4244.021     72.35347      1.222     2.18     4.227638     20.43916     612.4944        27     1.089     0.970 -78.16   0
       216    388.9161    550.1821 300.1598498 +22.6597746     358.2272     72.40887      1.117     2.48     4.559014     20.43916     55.77199         8     0.781     0.650  40.32   0
       217    549.6709    547.6674 300.2106943 +22.7072472       351.45     72.48269      1.889     2.82     4.977282     20.43916     44.32682         5     0.730     0.450  76.38   1
       218    495.6584    544.3495 300.1949594 +22.6901036     266.5103     72.50113      1.057     2.11     4.975695     20.43916     58.49383         5     0.668     0.469 -81.41   0
       219     67.2845    538.9779 300.0635024 +22.5600897     1150.254     72.39041      1.562     2.87     4.565193     20.43916     126.3781        18     1.167     0.894  39.07   0
       220    926.9965    538.8840 300.3311115 +22.8177841      665.512     72.37194      1.222     1.81      4.33585     20.43916     128.9796        10     0.794     0.681 -84.16   0
       221     59.8608    529.6400 300.0642295 +22.5551843     444.9926     72.44579      1.456     3.78     4.563623     20.43916     62.05633         8     0.789     0.718 -39.47   0
       222    667.4573    523.0109 300.2553827 +22.7354691     494.8738     72.40887      1.225     2.09     4.650861     20.43916      77.4822         6     0.716     0.490  79.97   0
       223    556.6983    520.8339 300.2215996 +22.7016498      351.922     72.42734      1.453     4.31      4.89641     20.43916     38.70144         7     0.872     0.606 -54.19   0
       224    608.8103    519.0176 300.2384152 +22.7167470     723.1803     72.40887      1.222     2.37     4.912148     20.43916     120.8773        12     0.913     0.749 -77.11   0
       225   1016.2354    516.6945 300.3661531 +22.8381330     985.2573     72.44579      1.281     2.08     4.447762     20.43916     159.4885        16     0.949     0.902 -58.90   0
       226    923.2617    511.3532 300.3388911 +22.8087549     558.6208     72.46424      1.225     2.78     4.365203     20.43916     75.21349        10     0.854     0.818 -27.80   0
       227    669.3897    511.0153 300.2598814 +22.7326033       880.22     72.37194      1.229     2.19     4.659805     20.43916     140.0903        11     0.800     0.774  11.29   0
       228    826.6995    507.2909 300.3101068 +22.7786646        966.4     72.61167      1.274     2.38     4.223948     20.43916     134.4394        14     0.965     0.835  73.64   0
       229     14.6526    504.3449 300.0584035 +22.5343661     236.4667     72.48269      1.935     4.75     4.572547     20.43916     29.27421         5     1.379     0.464 -45.07   0
       230    810.9578    503.8144 300.3063297 +22.7729503     628.7896     72.46424      1.220     2.13     4.191826     20.43916     106.2742         9     0.734     0.714 -16.09   0
       231    555.1822    501.7221 300.2273359 +22.6957081     3174.465     72.44579      1.256     2.06     4.836311     20.43916     530.5957        25     1.067     0.960  61.95   0
       232    915.9750    500.3929 300.3401795 +22.8034232     439.5073     72.44579      1.075     1.82     4.369868     20.43916     90.04275         7     0.671     0.625 -20.88   0
       233     31.3411    493.0577 300.0672529 +22.5361361     474.0854     72.51956      1.559     4.46     4.567597     20.43916      46.5633         8     1.109     0.712  87.52   0
       234    560.5058    489.2935 300.2330304 +22.6937351      275.329     72.61167      1.506     3.37      4.80724     20.43916     43.28809         5     0.746     0.441  66.94   0
       235    394.9265    488.9945 300.1815961 +22.6440155      493.805     72.39041      1.602     2.61     4.679955     20.43916     57.20612         6     0.740     0.549 -58.55   0
       236    327.1644    489.1756 300.1604592 +22.6237506     308.2105     72.46424      1.624     4.34     4.566212     20.43916     30.38328         5     0.789     0.680 -49.62   0
       237    966.5352    480.6995 300.3623437 +22.8129055     1441.192     72.53799      1.433     2.38     4.419718     20.43916     172.3445        18     0.970     0.946 -39.85   0
       238    838.2910    480.3184 300.3224815 +22.7743876     590.8013     72.55642      1.179     3.12     4.249953     20.43916     84.09792         9     0.940     0.689 -82.22   0
       239    924.8958    479.4225 300.3497731 +22.8000689     1003.921     72.35346      1.329     2.60     4.405413     20.43916     145.1613        12     0.975     0.756  87.74   0
       240    665.7388    475.7204 300.2702089 +22.7213728     1140.657     72.51956      1.186     2.11     4.730692     20.43916     182.4128        14     0.899     0.780  78.93   0
       241    461.5183    476.3365 300.2064275 +22.6603452     420.1238     72.55642      1.195     2.87     4.709452     20.43916     72.93954         8     0.890     0.669  10.75   0
       242    169.8688    474.0009 300.1164834 +22.5722250     665.3969     72.40887      1.323     2.57     4.526083     20.43916     82.05029         9     0.793     0.723  74.85   0
       243    232.1194    469.8209 300.1371910 +22.5896954     3666.699     72.40887      1.337     2.30     4.406808     20.43916     507.4927        32     1.156     1.060  31.38   0
       244    965.2800    468.0132 300.3660730 +22.8088837     4369.657     72.42733      1.317     2.24     4.419225     20.43916     633.0439        31     1.130     1.057 -86.19   0
       245    179.4140    464.6586 300.1224841 +22.5724076     7658.816     72.42734      1.395     2.46      4.52666     20.43916     905.0016        40     1.231     1.116  45.15   0
       246    320.1734    458.7206 300.1681760 +22.6129141     4625.961     72.44579      1.277     2.22     4.593235     20.43916     680.8718        28     1.078     0.978  69.09   0
       247    564.3432    455.3214 300.2452589 +22.6851304     18206.02     72.48269      1.221     2.11     4.835797     20.43916      2514.79        50     1.201     1.059  59.36   0
       248    411.6216    456.9350 300.1972026 +22.6398182     327.7975     72.40887      1.155     4.47     4.701671     20.43916     42.37288         6     0.814     0.697 -71.48   0
       249    582.0328    455.2832 300.2507790 +22.6904206     835.7468     72.40887      1.640     5.12     4.864418     20.43916     92.56929        15     1.609     0.654 -43.27   0
       250    945.3185    459.0947 300.3627443 +22.8003431     1872.607     72.61167      1.284     2.38     4.414293     20.43916     254.7885        16     0.899     0.870 -89.08   0
       251    808.1152    451.3136 300.3224966 +22.7570156     473.0213     72.57484      1.971     5.06     4.202577     20.43916     39.47134         8     0.934     0.775  85.98   0
       252    761.2281    445.4674 300.3097835 +22.7412911     407.1115     72.42734      1.110     3.31     4.195004     20.43916      67.8015         7     0.952     0.695 -63.28   0
       253    184.3042    442.7657 300.1311136 +22.5675928      450.624     72.44579      1.339     4.04     4.578343     20.43916     53.76748         8     1.088     0.571 -78.64   0
       254    897.9966    437.7834 300.3549096 +22.7800475     741.1164     72.35347      1.210     2.39       4.3721     20.43916     130.4513        12     0.955     0.770 -68.03   0
       255    434.9560    437.2615 300.2108520 +22.6411653     447.0826     72.46424      1.478     3.17     4.721035     20.43916     48.35484         8     0.801     0.751   6.44   0
       256    118.9346    435.6198 300.1131187 +22.5459370     1893.704     72.42734      1.409     2.63     4.568852     20.43916     220.5771        22     1.149     0.988 -81.31   0
       257    607.7466    436.4455 300.2649034 +22.6927162     303.4941     72.48269      1.025     2.21     4.913906     20.43916     45.55438         5     0.681     0.463 -21.21   0
       258    505.0384    424.8505 300.2366927 +22.6586075     6422.778     72.46424      1.265     2.02     4.813652     20.43916     1089.193        31     1.089     0.954  77.22   0
       259    918.5614    424.9987 300.3654737 +22.7825316     1188.498     72.46424      1.314     2.47      4.39801     20.43916     153.3606        14     0.883     0.875  52.37   0
       260    219.7819    424.2360 300.1481587 +22.5729151     700.1523     72.44579      1.463     2.32     4.591316     20.43916     89.61023         9     0.839     0.656  22.89   0
       261     77.5885    417.8450 300.1060437 +22.5284362     549.0398     72.44579      1.435     3.40     4.510081     20.43916     53.63272         9     0.889     0.770  40.96   0
       262    765.1240    416.4150 300.3204321 +22.7341115     354.4999     72.44579      1.098     2.36     4.243332     20.43916     63.47469         5     0.724     0.423  25.56   0
       263    618.8730    414.8953 300.2753663 +22.6898608     550.3773     72.57484      1.282     2.03     4.915699     20.43916     86.83559         8     0.754     0.629 -52.15   0
       264    709.2496    413.6862 300.3039091 +22.7165901     1204.182     72.44579      1.342     2.18     4.526175     20.43916     196.2151        15     0.985     0.847  50.14   0
       265    411.6388    411.1520 300.2120751 +22.6266803     5944.879     72.48269      1.247     2.17     4.719683     20.43916     885.1753        33     1.090     0.999  74.26   0
       266    900.8120    405.4572 300.3662850 +22.7716004     598.8102     72.42733      1.222     2.54     4.375364     20.43916      80.1032        10     0.860     0.727  40.93   0
       267    803.5459    405.2486 300.3360318 +22.7424114     1441.216     72.48269      1.279     2.43     4.247679     20.43916     178.2968        17     1.002     0.853 -80.20   0
       268    396.0881    399.6248 300.2109797 +22.6187097     570.2588     72.40887      1.598     3.89     4.745363     20.43916     61.64623        10     1.093     0.673 -75.88   0
       269    478.7537    397.7952 300.2372967 +22.6429614     283.0049     72.42734      1.211     2.81     4.796343     20.43916     65.44205         8     0.939     0.591  80.00   0
       270    459.3363    395.5512 300.2319824 +22.6364975     264.0489     72.48269      1.088     3.59     4.787301     20.43916      42.4243         6     0.822     0.555  42.85   0
       271    776.3022    393.0075 300.3315161 +22.7307343     613.6145     72.31651      1.247     2.79     4.240765     20.43916     74.98032         9     0.903     0.655 -63.81   0
       272    299.2397    390.2880 300.1838867 +22.5869966     2252.047     72.42734      1.227     2.26     4.717153     20.43916      339.515        20     1.040     0.873  65.24   0
       273     17.5577    387.8438 300.0971362 +22.5018233     1000.264     72.53799      1.531     2.91     4.707685     20.43916     110.3629        16     1.042     0.898  70.73   0
       274    646.8975    384.8489 300.2938500 +22.6896268     300.9897     72.50113      1.315     3.28     4.693886     20.43916     37.38946         5     0.773     0.516 -57.05   0
       275    268.5298    379.8194 300.1777357 +22.5747848     29546.92     72.46424      1.332     2.25     4.743608     20.43916     4034.043        73     1.289     1.193  61.13   0
       276    246.0919    383.3515 300.1696125 +22.5690712     374.1955     72.48269      1.672     4.78     4.733135     20.43916     25.14351         8     1.110     0.583  25.00   0
       277    803.2225    377.2482 300.3450226 +22.7342687     1346.404     72.46424      1.190     2.02     4.246383     20.43916     229.3314        16     0.966     0.822  41.99   0
       278    758.9191    375.1837 300.3318863 +22.7204065     346.2589     72.44579      1.331     3.15     4.235465     20.43916     49.83725         5     0.780     0.505  52.34   0
       279    718.5894    366.0805 300.3222758 +22.7057112     583.9672     72.42733      1.187     2.03     4.271729     20.43916     97.84038         7     0.759     0.562  65.46   0
       280    142.6027    366.2824 300.1429852 +22.5331411     379.8218     72.35347      1.208     2.20     4.667613     20.43916     55.87049         6     0.656     0.609  28.44   0
       281    367.0976    364.8305 300.2132571 +22.6000308     497.5379     72.39041      1.188     2.97     4.853364     20.43916     70.77095        11     0.915     0.783 -70.59   0
       282    678.9684    359.4126 300.3120975 +22.6919272     1895.069     72.42734      1.238     2.10     4.300049     20.43916     285.3413        20     1.057     0.891  67.15   0
       283    487.0585    354.1646 300.2540463 +22.6329214     402.6508     72.44579      1.239     2.24      4.81572     20.43916     61.17939         6     0.841     0.444 -36.05   0
       284    894.0695    351.8446 300.3815897 +22.7541725     636.6733     72.40887      1.219     2.38     4.366914     20.43916     105.6289         9     0.844     0.671  68.91   0
       285    340.6934    344.0736 300.2117820 +22.5861572     2026.818     72.57484      1.418     2.86     4.846832     20.43916     242.5327        21     1.245     0.857  63.94   0
       286    552.9321    342.7612 300.2782535 +22.6493851     322.7331     72.40887      1.160     2.38     4.788501     20.43916       56.582         7     0.707     0.647  17.50   0
       287    779.7650    337.0287 300.3507690 +22.7156860     595.4667     72.46424      1.201     2.18     4.258947     20.43916     95.76416         9     0.813     0.657  14.92   0
       288    772.6714    337.5840 300.3483782 +22.7137212     194.4764     72.44579      1.029     3.49     4.254873     20.43916     38.03173         5     0.741     0.476  13.04   0
       289    662.4271    334.1315 300.3151520 +22.6797092     404.9451     72.42733      1.442     3.65     4.437228     20.43916     49.68465         7     0.857     0.665 -33.05   0
       290    741.1135    328.2275 300.3415818 +22.7015813      201.622     72.44579      1.340     4.25     4.253344     20.43916     39.07866         6     0.977     0.527  68.16   0
       291    416.3437    323.5553 300.2419763 +22.6029399     1175.182     72.46424      1.287     2.26     4.856863     20.43916     158.9172        16     0.942     0.916  45.90   0
       292    223.6590    324.1263 300.1818633 +22.5453470      316.346     72.48269      1.266     3.06     4.810065     20.43916     44.49784         5     0.762     0.420 -69.84   0
       293    269.3084    321.7152 300.1968390 +22.5583402     162.1207     72.61167      1.303     4.49     4.754499     20.43916     29.57666         5     1.157     0.495  31.57   0
       294    501.6774    320.8698 300.2694041 +22.6277402     302.1344     72.55642      1.124     3.36     4.798694     20.43916     41.52494         5     0.782     0.419  71.64   0
       295    927.9065    319.3297 300.4026957 +22.7549568     424.4755     72.57484      1.287     2.63     4.416686     20.43916      60.6387         7     0.716     0.651 -47.97   0
       296    799.6345    316.7292 300.3635507 +22.7158026      245.929     72.44579      1.034     2.64     4.296444     20.43916     44.25625         5     0.737     0.429  68.59   0
       297    661.3993    315.2898 300.3209478 +22.6739881     2188.046     72.33498      1.169     2.03     4.541588     20.43916     313.4637        19     0.983     0.877  71.02   0
       298    922.6738    309.5150 300.4042497 +22.7505688      3214.31     72.55642      1.226     2.14     4.414636     20.43916     472.3767        25     1.049     0.975 -82.39   0
       299    983.6953    304.0261 300.4250623 +22.7672578     482.0887     72.39041      1.527     5.20     4.471481     20.43916     44.83566        10     1.098     0.694  44.48   0
       300    294.1936    300.9223 300.2113258 +22.5598308     235.7504     72.37194      0.928     3.78     4.657175     20.43916     35.02596         5     0.796     0.515  35.77   0
       301    369.5363    299.1263 300.2353426 +22.5818973     655.4899     72.48269      1.323     2.71     4.703997     20.43916     86.04935        12     0.950     0.815 -79.01   0
       302    992.0280    297.4806 300.4297859 +22.7678700     1630.614     72.46424      1.329     2.33     4.487869     20.43916      211.782        19     1.012     0.911  54.17   0
       303     75.3132    293.3488 300.1457487 +22.4920343     668.7486     72.46424      1.464     3.71     4.961154     20.43916     70.57025        15     1.200     0.837  38.58   0
       304     44.6567    293.3628 300.1362203 +22.4828450     1309.114     72.44579      1.605     3.14     4.969876     20.43916     129.9714        23     1.287     1.073 -18.32   0
       305    938.4738    289.8355 300.4155642 +22.7496411     557.3997     72.40887      1.211     2.66     4.441954     20.43916     76.57905        10     0.839     0.783 -44.51   0
       306    782.0877    286.6973 300.3678296 +22.7019171     297.2031     72.63008      1.379     3.40     4.324987     20.43916     35.58744         5     0.973     0.345  44.21   0
       307    128.6975    285.2117 300.1649768 +22.5057067     466.8372     72.33498      1.195     4.59     4.908182     20.43916     67.53812         8     1.088     0.628  46.03   0
       308    923.6765    282.4752 300.4133386 +22.7430955     313.6806     72.53799      1.237     2.52     4.425461     20.43916     52.36052         6     0.818     0.468 -89.66   0
       309    733.0851    276.6411 300.3558236 +22.6843529     633.0859     72.40887      1.216     2.49     4.311707     20.43916      113.708        11     1.049     0.672 -86.72   0
       310    323.5675    276.4250 300.2284111 +22.5616019     545.8767     72.44579      1.203     3.46     4.663106     20.43916      60.5638        10     1.114     0.643  61.04   0
       311    823.8577    269.4090 300.3864588 +22.7094552     425.4459     72.42733      1.265     4.96     4.333288     20.43916     49.61792         8     1.110     0.628 -73.78   0
       312    831.0182    265.6282 300.3899178 +22.7105124     2209.888     72.42733      1.306     2.07     4.331103     20.43916     365.0806        18     0.948     0.915  79.50   0
       313    249.7027    263.2172 300.2097272 +22.5356701     2017.724     72.35347      1.290     2.13     4.764617     20.43916     299.4184        20     1.066     0.899  77.03   0
       314    327.4215    258.2202 300.2355172 +22.5575299     930.8055     72.44579      1.405     3.05     4.731172     20.43916     103.9867        15     1.077     0.875 -87.05   0
       315     79.6455    258.6484 300.1583548 +22.4833757      261.647     72.48269      1.345     3.93     5.006872     20.43916     33.67256         6     0.849     0.529 -44.91   0
       316    729.4084    257.4296 300.3609125 +22.6777308     645.0934     72.44579      1.289     2.37     4.317976     20.43916     93.88307         9     0.818     0.687  69.01   0
       317    836.5267    254.2577 300.3953247 +22.7088932     414.9392     72.48269      1.336     2.51     4.325393     20.43916      72.3432         7     0.900     0.470 -77.41   0
       318    144.3279    250.4122 300.1811263 +22.5004054     696.8869     72.46424      1.320     2.83     4.890151     20.43916     100.8587        12     0.932     0.823  25.32   0
       319    262.7328    250.0956 300.2180363 +22.5358088      337.507     72.57484      1.451     3.35     4.776649     20.43916     44.25492         5     0.964     0.336  48.21   0
       320    747.0808    246.8111 300.3698647 +22.6799711     707.9036     72.42734      1.362     3.02     4.299815     20.43916     84.82854        10     0.960     0.704 -89.75   0
       321    682.3069    247.1902 300.3495611 +22.6606827     1735.969     72.39041      1.242     2.21     4.421612     20.43916     234.6356        16     0.956     0.814  88.38   0
       322    165.7716    243.4236 300.1900583 +22.5048282     591.3893     72.44579      1.333     2.58     4.843557     20.43916     77.81859        10     0.900     0.686  37.85   0
       323    953.8813    239.6249 300.4366640 +22.7398166     845.4655     72.42733      1.282     2.70     4.581515     20.43916     128.4984        12     1.001     0.707 -33.31   0
       324    455.6438    239.6976 300.2814193 +22.5906335     262.3504     72.44579      1.149     3.42     4.572044     20.43916     52.65985         5     0.762     0.444  73.24   0
       325    686.3928    238.7121 300.3535849 +22.6594700     684.7358     72.35347      1.136     2.30     4.380913     20.43916     113.4261        11     0.870     0.737 -15.20   0
       326    606.7283    237.9206 300.3290293 +22.6353831     1149.896     72.55642      1.257     2.11     4.354777     20.43916     191.3727        14     0.926     0.755  62.74   0
       327    428.3868    234.6935 300.2745610 +22.5810294     391.2516     72.37194      1.458     2.67     4.789223     20.43916     45.44048         5     0.697     0.470 -75.63   0
       328    802.3140    229.3188 300.3927532 +22.6914813     1453.847     72.59326      1.168     2.26     4.334167     20.43916     218.4173        15     0.983     0.766  62.73   0
       329    532.9041    229.5930 300.3087456 +22.6108772     997.3215     72.33498      1.346     2.32     4.291957     20.43916     146.3898        12     1.008     0.686  81.61   0
       330    814.1033    228.3658 300.3967369 +22.6947370     947.2894     72.44579      1.404     2.76     4.327757     20.43916     101.9368        12     0.957     0.756  57.17   0
       331    860.6044    227.5186 300.4115072 +22.7084147     273.1429     72.37194      1.092     4.65     4.302937     20.43916     38.18082         7     0.899     0.682 -62.51   0
       332    975.1957    219.2088 300.4499364 +22.7403253     1674.678     72.27953      1.323     2.35     4.795182     20.43916     216.6356        22     1.136     0.960  48.52   0
       333    930.9987    218.5134 300.4363780 +22.7268972      1100.19     72.35347      1.299     2.38      4.46009     20.43916     178.0065        16     1.114     0.847  66.16   0
       334    164.8498    211.7312 300.2000540 +22.4954545     799.5815     72.44579      1.463     4.40      4.79776     20.43916     90.00142        12     1.173     0.707  73.26   0
       335     27.0093    206.9146 300.1587873 +22.4527464     2068.485     72.37194      1.442     2.67     5.050027     20.43916     263.3837        25     1.181     1.062  60.70   0
       336    849.9778    203.5968 300.4159559 +22.6983562     653.7786     72.40887      1.182     2.20     4.304104     20.43916     115.4465        11     0.871     0.717  77.37   0
       337    184.2891    200.1111 300.2098658 +22.4979458     5507.536     72.61167      1.374     2.54     4.749702     20.43916     605.0015        35     1.258     1.039  66.41   0
       338    166.1947    200.8511 300.2040016 +22.4927344     350.6924     72.42733      1.577     4.96     4.755353     20.43916     37.57941         6     1.084     0.643  81.19   0
       339    167.7662    190.9479 300.2077025 +22.4903625     576.4948     72.46424      1.265     2.57     4.716765     20.43916     82.99796        10     0.877     0.714  30.98   0
       340    983.2279    187.3380 300.4627820 +22.7335637     18132.03     72.44579      1.335     2.29      4.97196     20.43916     2530.942        54     1.238     1.163  77.20   0
       341    828.4777    181.4692 300.4164325 +22.6855585      3427.75     72.55642      1.209     2.20     4.303059     20.43916     465.5744        23     1.084     0.898 -88.64   0
       342    932.0440    180.1814 300.4491402 +22.7161876     2835.384     72.46424      1.329     2.13     4.547169     20.43916     399.1109        26     1.152     0.951  86.93   0
       343    377.5854    176.6181 300.2775958 +22.5491280     638.6653     72.42734      1.335     3.28     4.667429     20.43916     100.0081        10     0.971     0.699  17.96   0
       344    302.0282    168.4118 300.2567556 +22.5241311     689.2173     72.44579      1.462     2.81     4.624327     20.43916     82.43269        11     0.929     0.794  19.55   0
       345    306.4629    167.2657 300.2585066 +22.5251309     368.8269     72.48269      1.255     2.36     4.620627     20.43916     48.71523         5     0.702     0.442 -64.88   0
       346     67.8928    165.7941 300.1848261 +22.4532025     585.1713     72.35347      1.569     4.25     4.945817     20.43916     57.53003        11     1.245     0.672 -38.02   0
       347    429.2863    164.1029 300.2977413 +22.5610228     1669.896     72.63008      1.280     2.25     4.573139     20.43916     254.6789        18     0.946     0.932 -72.29   0
       348    357.2385    164.5605 300.2751772 +22.5395685     469.6044     72.51956      1.235     2.55     4.614084     20.43916     66.32873         7     0.810     0.572 -83.96   0
       349    491.3409    163.1184 300.3173729 +22.5793293     443.8294     72.51956      1.436     4.33     4.471735     20.43916     46.15471         9     0.955     0.648 -17.74   0
       350    172.6365    159.2079 300.2195117 +22.4827102     411.3967     72.44579      1.376     3.70     4.601695     20.43916     48.67462        10     1.170     0.579 -80.98   0
       351    934.6253    158.6406 300.4569329 +22.7107656     174.3289     72.50113      1.357     4.06     4.613037     20.43916     33.56126         5     0.975     0.483  87.81   0
       352    717.6931    153.3281 300.3910365 +22.6443023     447.0099     72.57484      1.288     2.89     4.382702     20.43916     75.29344         8     0.896     0.688  65.72   0
       353    863.2880    148.1397 300.4380956 +22.6863954     386.2038     72.51956      1.350     4.16     4.316981     20.43916     43.47021         8     0.935     0.632 -79.32   0
       354    993.5885    144.6657 300.4798562 +22.7243912     3569.371     72.40887      1.334     2.27     5.105838     20.43916     507.4785        32     1.258     1.136 -18.03   0
       355    203.3255    143.9901 300.2339868 +22.4875389     6094.752     72.44579      1.434     2.61     4.606595     20.43916      684.322        38     1.252     1.094  75.57   0
       356    614.7802    145.3813 300.3615575 +22.6112030     184.8366     72.44579      1.013     3.40     4.431004     20.43916     35.26137         5     0.758     0.442 -19.07   0
       357     54.3153    143.5801 300.1878126 +22.4427560     711.8765     72.37194      1.594     3.44     4.811357     20.43916     75.16811        12     1.019     0.847  67.35   0
       358    709.5300    144.1521 300.3914696 +22.6392207     473.1865     72.42733      1.236     3.10      4.40028     20.43916      63.9521         8     0.812     0.700 -48.75   0
       359    832.5389    140.9908 300.4308287 +22.6751361     340.3716     72.39041      1.301     3.80     4.307476     20.43916     55.66206         7     0.957     0.615  68.51   0
       360    174.8791    137.8899 300.2271227 +22.4772618     424.8745     72.57484      1.657     2.32     4.602862     20.43916     51.69536         6     0.736     0.540  52.20   0
       361    218.5999    134.9620 300.2416632 +22.4895244     360.5338     72.44579      1.490     3.92     4.612773     20.43916     41.48151         7     0.858     0.696 -25.23   0
       362    449.3372    129.2443 300.3152869 +22.5570154     6184.377     72.46424      1.306     2.28     4.528817     20.43916     742.4677        35     1.194     1.015  73.36   0
       363    335.0500    129.0146 300.2798041 +22.5227109     546.6245     72.46424      1.274     2.19     4.614761     20.43916      108.285         9     0.841     0.674  67.03   0
       364    926.5848    124.8470 300.4653866 +22.6986408    -12.68652     72.46424      1.032     4.47     4.544358     20.43916     27.09682         5     1.157     0.491 -87.63   0
       365    643.3541    120.1950 300.3786253 +22.6125206      393.208     72.44579      1.390     3.10     4.433031     20.43916     40.79618         5     0.714     0.466  78.74   0
       366    701.9659    118.7258 300.3973596 +22.6296472     746.6039     72.42733      1.250     1.98     4.359787     20.43916     135.3461        11     0.846     0.763  59.04   0
       367    794.1526    117.8230 300.4263782 +22.6569847     392.8781     72.46424      1.230     3.67     4.277431     20.43916     59.45115         9     1.044     0.629 -15.95   0
       368    817.6561    113.4271 300.4351294 +22.6627560     189.7617     72.44579      1.121     5.36     4.302215     20.43916     27.91955         5     1.076     0.753 -20.98   0
       369    142.3334    112.8497 300.2251278 +22.4603179      598.782     72.42734      1.533     3.59     4.560376     20.43916     65.48796         8     0.893     0.647 -88.09   0
       370    500.5797    111.6499 300.3369414 +22.5673088     366.9198     72.42734      1.125     2.73     4.521683     20.43916      63.0136         6     0.695     0.616 -60.93   0
       371    577.7449    109.3318 300.3617164 +22.5897523      6140.52     72.48269      1.288     2.25     4.501469     20.43916     784.4866        35     1.182     1.032  59.36   0
       372    618.8606    106.8267 300.3753323 +22.6013443     818.1118     72.44579      1.278     2.62     4.411422     20.43916      137.878        12     1.091     0.737  89.84   0
       373    352.7040    108.4116 300.2919770 +22.5220823     1362.173     72.35347      1.245     2.44     4.626283     20.43916     162.6876        14     0.910     0.832  80.78   0
       374    688.7877    105.3103 300.3976049 +22.6218453     384.3439     72.39041      1.824     6.31     4.342503     20.43916     50.94653        11     1.836     0.609  78.87   0
       375    634.8987    102.6620 300.3816778 +22.6049495     697.6233     72.53799      1.367     2.16      4.39519     20.43916     94.53542         9     0.799     0.664 -63.87   0
       376    101.4628    101.0179 300.2162636 +22.4446710      602.718     72.40887      1.494     3.99     4.389431     20.43916     61.33134        10     0.878     0.852 -84.61   0
       377    943.9609     99.4464 300.4790433 +22.6965350     164.8079     72.50113      1.061     4.11     4.632457     20.43916     38.41621         5     0.963     0.558 -77.03   0
       378    904.6384    100.1659 300.4665475 +22.6849750     554.8365     72.48269      1.287     3.50     4.486448     20.43916     59.89417         9     0.948     0.712  28.80   0
       379    673.3831     97.9385 300.3951967 +22.6151143     484.7499     72.40887      1.310     2.76     4.339347     20.43916     67.69038         9     0.825     0.719 -33.15   0
       380    621.9269     94.1169 300.3804089 +22.5986093     2571.221     72.57484      1.280     2.22     4.406466     20.43916     379.3345        22     0.992     0.930 -66.19   0
       381    262.8342     94.7254 300.2684647 +22.4912250     411.4174     72.42734      1.422     3.32     4.628915     20.43916     70.34337         6     0.924     0.539  63.82   0
       382    636.9462     92.8828 300.3854868 +22.6027517     999.4838     72.48268      1.762     4.91      4.39061     20.43916      91.0762        13     1.564     0.593  52.61   0
       383    708.4249     85.6142 300.4101097 +22.6220622     1447.752     72.46424      1.171     2.36     4.330613     20.43916     227.3819        16     0.920     0.891  46.01   0
       384    786.3091     80.7734 300.4359485 +22.6439842     288.5379     72.39041      1.439     2.39     4.320979     20.43916     46.59558         5     0.715     0.443 -76.58   0
       385    646.2502     78.8124 300.3929472 +22.6014929     634.4098     72.50113      1.304     3.01     4.417223     20.43916     100.9874        11     0.982     0.795 -88.94   0
       386    451.8361     78.1806 300.3326237 +22.5430928     998.8582     72.46424      1.279     2.36     4.532952     20.43916     145.1414        16     1.087     0.788  66.24   0
       387     24.8778     77.9295 300.1999565 +22.4150865     685.3599     72.55642      1.722     4.20     4.350079     20.43916     72.43369        13     1.276     0.829  51.81   0
       388    355.9032     76.4105 300.3033489 +22.5138482     861.7941     72.35346      1.349     2.83     4.588113     20.43916     102.6018        12     0.940     0.779 -54.79   0
       389    737.8674     74.8052 300.4227881 +22.6277683     310.6725     72.42733      1.204     2.46     4.353698     20.43916     73.51082         6     0.746     0.571 -87.79   0
       390    998.7582     72.9574 300.5047249 +22.7053110     2316.589     72.55642      1.388     2.49     4.809893     20.43916     293.4828        24     1.121     0.981  72.10   0
       391    127.2202     66.6017 300.2354267 +22.4425097     3873.292     72.37194      1.505     2.52     4.330622     20.43916     435.3216        36     1.325     1.135  43.98   0
       392    695.4678     66.7789 300.4121805 +22.6127684      618.891     72.42734      1.166     2.32     4.418405     20.43916     115.1476        10     0.800     0.794 -76.02   0
       393    453.1536     63.4814 300.3377997 +22.5392638     315.7147     72.42733      1.314     4.51       4.5216     20.43916     47.18375         8     1.013     0.597 -70.24   0
       394    549.7542     63.6069 300.3678283 +22.5682294     247.6214     72.46424      1.237     3.39     4.518599     20.43916     33.88596         5     0.762     0.437  20.42   0
       395    688.3137     58.6635 300.4125831 +22.6082937     994.7783     72.53799      1.311     2.35     4.451593     20.43916     133.7756        14     0.962     0.806 -81.58   0
       396    243.1909     58.7748 300.2740133 +22.4750141     1419.569     72.44579      1.446     2.70     4.567164     20.43916     161.6408        17     0.975     0.962 -40.91   0
       397    654.3671     57.7761 300.4022963 +22.5978760     307.7808     72.44579      1.312     2.08     4.469376     20.43916     58.44583         5     0.712     0.428 -67.04   0
       398    469.7712     55.6637 300.3455061 +22.5419943     223.5212     72.44579      1.176     4.12     4.507944     20.43916     37.58064         6     0.760     0.638 -42.73   0
       399    726.4283     53.4916 300.4261346 +22.6182162     653.5212     72.42734      1.624     3.66     4.467349     20.43916     81.75949        13     1.216     0.753  72.19   0
       400    649.6555     53.8290 300.4021085 +22.5953308     563.9887     72.44579      1.503     2.86       4.4824     20.43916     60.97316        10     0.869     0.786  61.70   0
       401    746.3210     50.0098 300.4334619 +22.6231696     2206.235     72.40887      1.316     2.39     4.471033     20.43916     294.5023        19     1.077     0.866  79.21   0
       402    451.9617     48.3575 300.3423322 +22.5345611     443.8524     72.53799      1.425     2.60     4.511602     20.43916     58.43486         7     0.811     0.580  29.17   0
       403    129.4891     45.5105 300.2429696 +22.4371336     1070.898     72.61168      1.564     2.96     4.239699     20.43916      107.442        15     1.057     0.843  56.51   0
       404    921.3829     43.3786 300.4901828 +22.6736522     663.0941     72.42734      1.349     3.27     4.542112     20.43916     89.88026        13     1.046     0.872  76.02   0
       405    694.8033     42.6799 300.4197870 +22.6056411     966.5897     72.35347      1.315     2.72     4.510912     20.43916     138.6756        14     1.033     0.802  67.43   0
       406    401.9592     40.4833 300.3293255 +22.5173224     313.1327     72.40887      1.526     5.07     4.512348     20.43916     38.60435         6     0.952     0.765  77.64   0
       407    452.6948     35.2739 300.3468020 +22.5310211     297.7387     72.59326      1.137     2.34     4.502306     20.43916     48.24731         5     0.715     0.436  -9.43   0
       408    279.6114     32.1327 300.2939754 +22.4782736     502.2257     72.46424      1.387     3.00     4.520852     20.43916     56.00931         7     0.754     0.623 -70.01   0
       409    547.2301     27.5509 300.3787320 +22.5571108     823.5429     72.46424      1.358     2.50     4.503264     20.43916      109.077        14     0.921     0.866  75.00   0
       410    682.6441     25.1583 300.4216795 +22.5969638     374.0999     72.53799      1.343     4.10     4.572484     20.43916     39.58672         6     0.751     0.640  14.77   0
       411    281.3161     25.3574 300.2967019 +22.4768381     314.5665     72.40887      1.353     3.81     4.508845     20.43916     43.81989         5     0.953     0.437  45.54   0
       412    156.5480     24.9541 300.2580431 +22.4393394     541.8873     72.48269      1.254     2.49      4.13071     20.43916     78.46137         8     0.785     0.665  -4.71   0
       413    340.8208     22.9659 300.3159842 +22.4939766     336.8618     72.46424      1.707     4.90     4.485085     20.43916     32.23145         7     1.062     0.639  29.78   0
       414    710.4061     22.2546 300.4312698 +22.6044391     726.5467     72.42734      1.235     2.57     4.602925     20.43916     93.89735        12     1.006     0.675 -16.18   0
       415    518.8669     20.4733 300.3721965 +22.5465838     1729.499     72.50113      1.262     2.32     4.498473     20.43916     252.6442        17     1.001     0.855  69.51   0
       416    241.6842     18.0565 300.2867450 +22.4628676       560.31     72.53799      1.401     3.82     4.496838     20.43916     72.59195        12     1.075     0.884  63.13   0
       417    410.4419   1003.7888 300.0190358 +22.7963441     1119.857     72.44579      1.783     4.76     3.903018     20.43916     78.27349        21     1.337     1.113 -50.63   0
       418    608.2651   1016.3608 300.0765116 +22.8593090      6799.09     72.40887      1.690     3.35     3.565092     20.43916       518.88        44     1.346     1.328   3.38  16
       419    198.8207   1010.9857 299.9508901 +22.7348810     729.2924     72.40887      1.881     6.78     11.89174     20.43916     51.11864        16     1.699     0.760 -42.62   1
       420    487.6351   1010.8790 300.0407462 +22.8215426     564.9153     72.39041      1.850     4.35     3.772355     20.43916     38.09396         7     0.900     0.598 -65.36   0
       421    118.6808   1008.6079 299.9267608 +22.7101358     1026.822     72.39041      7.248     7.79     29.52473     20.43916     48.61543        11     1.821     0.931 -69.92  16
       422    759.9308   1009.8525 300.1258693 +22.9029358     328.9189     72.44579      1.323     4.67     3.630729     20.43916     44.18408         9     0.979     0.692  75.71   0
       423    516.7510   1007.2692 300.0509827 +22.8292443     1326.813     72.44579      1.499     2.70     3.774979     20.43916     155.8243        20     1.092     1.004 -80.37   0
