#   1 NUMBER                 Running object number                                     
#   2 X_IMAGE                Object position along x                                    [pixel]
#   3 Y_IMAGE                Object position along y                                    [pixel]
#   4 ALPHA_J2000            Right ascension of barycenter (J2000)                      [deg]
#   5 DELTA_J2000            Declination of barycenter (J2000)                          [deg]
#   6 FLUX_APER              Flux vector within fixed circular aperture(s)              [count]
#   7 FLUXERR_APER           RMS error vector for aperture flux(es)                     [count]
#   8 FLUX_RADIUS            Fraction-of-light radii                                    [pixel]
#   9 FWHM_IMAGE             FWHM assuming a gaussian core                              [pixel]
#  10 BACKGROUND             Background at centroid position                            [count]
#  11 THRESHOLD              Detection threshold above background                       [count]
#  12 FLUX_MAX               Peak flux above background                                 [count]
#  13 ISOAREA_IMAGE          Isophotal area above Analysis threshold                    [pixel**2]
#  14 A_IMAGE                Profile RMS along major axis                               [pixel]
#  15 B_IMAGE                Profile RMS along minor axis                               [pixel]
#  16 THETA_IMAGE            Position angle (CCW/x)                                     [deg]
#  17 FLAGS                  Extraction flags                                          
         1    228.0391     19.3293 300.2354665 +22.4424689     3829.672     72.29971      1.520     2.83     5.073556     20.41355     439.8195        31     1.283     1.104  68.00   0
         2    789.3375     11.9979 300.4125649 +22.6084732     820.7395     72.35501      1.352     2.55     5.076809     20.41355      106.969        15     0.960     0.887 -74.67   0
         3    344.0826     11.5418 300.2740775 +22.4750027     1245.461      72.4287      1.475     2.70      3.91277     20.41355     158.8053        17     1.092     0.888  40.87   0
         4    827.3242      7.3868 300.4258992 +22.6185172     504.0855     72.37344      1.473     3.54     5.137934     20.41355      61.9599         9     0.996     0.608  85.83   0
         5    750.6109      6.9933 300.4021181 +22.5954414     515.1905     72.22589      1.643     2.92     5.080731     20.41355      64.5539         6     0.936     0.463  30.38   0
         6    847.2377      3.3048 300.4334296 +22.6233032     2093.399     66.17516      1.341     2.56     5.187259     20.41355     296.9077        23     1.125     1.012 -78.07  24
         7    552.8431      1.6056 300.3422640 +22.5346783     372.6573     57.89967      1.111     2.71     4.088069     20.41355      57.6013         7     0.740     0.611  16.47  24
         8    690.2995   1002.5700 300.0600290 +22.8633307      8854.78     72.29971      1.977     4.39     3.078767     20.41355     526.9879        50     1.589     1.432  29.57   3
         9    295.1637    989.5690 299.9412915 +22.7410104     7136.788     72.37344      7.446    30.29     48.54303     20.41355     158.9121       584     9.397     4.508  63.38  18
        10    275.1047   1001.1921 299.9312729 +22.7383193     4680.785     72.24435     11.293    45.03     61.08445     20.41355     93.41482       537    12.168     4.625 -47.34  19
        11    256.2723   1002.3068 299.9250554 +22.7329840     4128.308      72.4839      7.588    23.22     61.57244     20.41355     97.02919       232     5.239     3.879 -69.45  19
        12    230.5242   1006.8214 299.9155823 +22.7265461     2671.375     72.35501      8.727    16.10     64.48396     20.41355     79.66402        76     3.047     2.364 -27.03  19
        13    231.4449   1015.6367 299.9130001 +22.7293490     2523.704     72.39186      6.339    14.98     70.26727     20.41355     83.22388        59     4.135     1.510  85.71  19
        14    227.0795   1013.4334 299.9123601 +22.7274066     3309.878     72.31815      6.250    14.57     68.21677     20.41355     74.54134        77     3.257     2.408   5.32  19
        15    205.3954   1022.9202 299.9025332 +22.7236134     1227.324     60.37995      4.436    10.33     74.38634     20.41355     46.30181        28     2.797     1.064  -3.18  27
        16    194.4769   1022.9189 299.8991401 +22.7203340     809.2241     60.51231      2.830     7.17     74.33497     20.41355     49.22975        15     1.928     0.747 -23.55  27
        17    187.8904   1022.4365 299.8972501 +22.7182177     1771.534     62.84721      3.328    13.18     73.67635     20.41355     77.00647        55     3.355     1.639 -16.56  27
        18    136.5862   1013.2701 299.8842901 +22.7001823     5685.363     72.37344     14.144    53.49     49.89972     20.41355     109.9654      1330    13.266     8.222  17.61  27
        19    132.3315    970.3394 299.8969359 +22.6866029     5107.799     72.39186     30.620   106.35     27.92229     20.41355     112.4152      4551    22.581    18.274 -69.88  27
        20    555.2686    991.4117 300.0216137 +22.8196137     328.5756     72.37344      1.447     4.21     2.366924     20.41355     37.59702         7     0.967     0.522  59.88   0
        21    987.7383    933.5070 300.1752061 +22.9327117     2071.506     72.44711      1.936     4.44     2.893943     20.41355     127.0146        31     1.462     1.328 -70.37   0
        22    790.1281   1003.3926 300.0908622 +22.8935137     474.7464     72.33658      1.871     6.96     3.176476     20.41355     36.37039        12     1.440     0.944  42.58   0
        23    983.2457    986.5648 300.1565414 +22.9465976     746.3674     72.39186      1.909     6.46     3.399239     20.41355     50.19242        18     1.485     1.014  -4.76   0
        24    638.0671    931.6463 300.0668376 +22.8273130     257.9737     72.33658      1.239     4.74     3.026575     20.41355     39.66098         6     1.352     0.472 -27.21   0
        25    178.4413    982.2540 299.9073879 +22.7038649     631.0768     72.33658      5.159     5.13     48.42627     20.41355     36.10221         5     1.060     0.703  -5.35   1
        26    670.7319    927.6669 300.0783049 +22.8359704     258.4059     72.41028      1.572     4.09     3.058073     20.41355     31.38444         5     1.032     0.464   5.21   0
        27     11.9014    975.6976 299.8577837 +22.6519650     449.6305     72.55746      2.845     4.00     1.126091     20.41355     43.80111         7     1.007     0.571 -87.30   0
        28    776.8779    921.9952 300.1132171 +22.8661808     754.3043      72.2628      2.070     7.81     3.141181     20.41355     47.66412        17     1.679     1.016  38.89   0
        29    811.2986    916.7648 300.1256449 +22.8750024     966.3931     72.33658      1.782     5.24     3.133395     20.41355     68.53112        21     1.395     1.102 -63.50   0
        30    589.1066    918.2784 300.0559411 +22.8087892     273.4345      72.4839      1.360     4.22     3.019214     20.41355     33.39712         6     0.778     0.651 -70.66   0
        31    201.5313    971.4260 299.9180868 +22.7076955     1920.592     72.35501      7.462    12.79     41.54528     20.41355     54.69801        40     2.382     1.910  -7.46   3
        32    833.7194    910.2758 300.1347434 +22.8798633     11433.06     72.46551      1.807     3.92     3.138173     20.41355     692.6863        57     1.472     1.459 -68.64   0
        33     21.0746    913.3821 299.8809028 +22.6368669     496.0788     72.35501      1.644     6.14     3.657686     20.41355     52.03233        10     1.370     0.773  59.50   0
        34    708.5501    969.5013 300.0764741 +22.8593183     6869.424      72.4287      1.854     4.03     3.103381     20.41355     396.5327        46     1.475     1.387  47.92   0
        35    588.0912    963.9463 300.0407682 +22.8215850     451.7619     72.41028      1.983     5.18     2.850526     20.41355     31.78768         6     0.913     0.831 -15.85   0
        36    879.3308    909.8093 300.1491126 +22.8934062     386.5521     72.33658      1.798     5.21      3.16481     20.41355      44.9961         9     1.059     0.858 -23.24   0
        37    617.1086    960.3018 300.0509888 +22.8292459     1480.118     72.53908      1.736     3.95     3.008472     20.41355     131.5951        25     1.304     1.198  73.92   0
        38    966.0286    903.5775 300.1781720 +22.9176101     325.4256     72.35501      1.652     4.33     2.921805     20.41355     23.97126         5     1.578     0.338 -27.67   0
        39    145.0337    901.2122 299.9233687 +22.6706065     1045.998     72.33658      3.514     6.85     9.169267     20.41355     69.90358        17     1.579     1.021  13.85   0
        40    195.5805    900.8759 299.9391864 +22.6856874      580.375     72.35501      3.821     4.19     10.73668     20.41355     29.80978         5     1.138     0.440 -77.72   0
        41    538.6454    898.3919 300.0467008 +22.7879443     533.1837     72.37344      1.817     4.49     2.945882     20.41355     46.74166        10     1.122     0.810 -15.08   0
        42    842.3376    892.3856 300.1432490 +22.8773123     1337.334     72.31815      1.794     4.96      3.11769     20.41355     89.81831        20     1.290     1.122  46.72   0
        43    135.4692    893.0369 299.9230555 +22.6653914     603.4606     72.33658      2.145     4.65     7.418556     20.41355     40.33152         7     1.013     0.605  35.09   0
        44    694.2618    889.4891 300.0980524 +22.8320736      682.572     72.44711      2.013     6.16      3.14272     20.41355     43.41616        12     1.233     0.865  -0.38   0
        45    880.2667    886.1311 300.1571064 +22.8868894     843.9877     72.41028      1.806     5.35     3.136691     20.41355     53.14551        16     1.233     0.964  34.27   0
        46    929.0530    877.8105 300.1750232 +22.8991270     484.4882     72.35501      1.544     4.11     2.942383     20.41355     56.29739        12     1.204     0.839  -6.80   0
        47    780.1580    875.9705 300.1292100 +22.8539550     611.6589     72.39186      1.523     5.50     2.962297     20.41355     61.64778        11     1.113     0.767  47.47   0
        48     39.5970    874.2693 299.8993756 +22.6312223     449.5682     72.29971      1.937     5.70     3.715153     20.41355     38.47483         7     1.055     0.866 -87.07   0
        49    791.0424    873.4474 300.1334223 +22.8564947     547.0912     72.39186      1.665     6.61     2.925759     20.41355     40.36557        15     1.250     0.980 -18.86   0
        50    492.7133    872.3917 300.0408611 +22.7667042      4098.22     72.28126      1.640     3.28     2.835861     20.41355     357.6313        34     1.356     1.184  29.56   0
        51    535.7846    860.5014 300.0581336 +22.7762162     396.0804      72.2628      1.780     5.48     3.016968     20.41355     27.90603         6     1.000     0.848  62.41   0
        52    270.9944    860.8167 299.9756572 +22.6968434     488.6287     72.29971      1.681     4.53     4.288785     20.41355     42.19244         6     1.208     0.482  53.80   0
        53    510.9497    956.7574 300.0190941 +22.7963749     1131.446     72.39186      1.818     3.78     2.531385     20.41355       77.004        18     1.132     1.041  15.35   0
        54    218.0539    858.0084 299.9601126 +22.6801459     1011.275     72.35501      2.013     3.72     5.084349     20.41355     91.44526        20     1.247     1.097  51.04   0
        55    441.4407    954.6728 299.9981422 +22.7749164     6382.384     72.33658      1.801     3.97       3.1527     20.41355     502.7385        42     1.442     1.350  15.51   0
        56    195.2579    855.0773 299.9539802 +22.6724620     1616.868     72.39186      1.744     3.51     4.955631     20.41355     155.1484        24     1.278     1.108 -24.80   0
        57   1021.0467    842.8666 300.2150784 +22.9166677     2147.652     68.70607      1.941     4.33     2.728825     20.41355     127.5848        30     1.390     1.298 -71.48  24
        58    695.7708   1000.2209 300.0624976 +22.8642982       9090.5     72.35501      1.895     4.35      3.08654     20.41355     555.5154        47     1.501     1.419  31.86   3
        59    726.6636    842.8824 300.1233037 +22.8284157     582.9411     72.46551      2.011     4.97     3.107801     20.41355     47.95367         7     1.256     0.556 -25.91   0
        60    804.6406    836.6063 300.1496414 +22.8499969     567.5947     72.39186      1.613     5.12     3.167005     20.41355     49.39601        11     1.012     0.852  26.55   0
        61    227.4469    836.7770 299.9699362 +22.6768787     362.5944     72.37344      1.441     5.29     4.494837     20.41355     46.12146         8     1.006     0.787 -10.19   0
        62    672.7009    830.5143 300.1105164 +22.8086824     4758.839     72.52069      1.588     3.22     3.115696     20.41355      430.035        33     1.246     1.201 -40.01   0
        63     95.0305    999.5350 299.8758484 +22.6837652     949.9868     72.37344      3.798     4.47     17.21151     20.41355     42.57457         5     1.184     0.480   7.16   1
        64    474.7758    827.3124 300.0499383 +22.7483908     526.2067     72.31815      1.444     3.40     3.365698     20.41355     64.46967        11     1.002     0.779  40.57   0
        65    693.4422    823.1810 300.1193614 +22.8127982     815.4668     72.37344      1.650     4.03      3.10663     20.41355     70.95763        19     1.217     1.116   0.48   0
        66    222.8633    824.2429 299.9725868 +22.6719091     1441.137     72.35501      1.764     3.88     4.159453     20.41355     116.5261        24     1.348     1.132 -11.11   0
        67    242.3395    821.0252 299.9796873 +22.6768328     450.1789     72.35501      1.683     3.73     3.952929     20.41355     42.84497         7     0.731     0.691  78.47   0
        68    848.7274    810.3108 300.1719327 +22.8556657     4246.085     72.52069      1.640     3.23     3.493866     20.41355     353.4079        38     1.358     1.293  59.23   0
        69    256.9971    804.6334 299.9895736 +22.6765323      604.055     72.33658      2.193     6.40       3.5571     20.41355     34.96838        12     1.185     0.971 -54.82   0
        70    565.9016    802.7355 300.0862927 +22.7686773     632.3077     72.44711      1.512     3.72     3.282343     20.41355     67.40175        12     1.180     0.763 -13.89   0
        71    212.0339    800.6956 299.9768763 +22.6619069      1031.75     72.35501      1.626     3.45     3.542746     20.41355     97.21004        18     1.139     1.016  -0.70   0
        72    626.9821    795.9146 300.1075283 +22.7850407     545.7311      72.2997      1.663     6.69     3.190735     20.41355     56.03395        11     1.200     1.047  13.12   0
        73    361.7861    792.7714 300.0260159 +22.7045793     53343.54     72.37344      1.597     3.22     3.485334     20.41355     5220.125        93     1.411     1.380  27.83   0
        74    619.6624    791.9695 300.1065316 +22.7817132     1748.302     72.37344      1.610     3.08     3.244363     20.41355     178.2521        22     1.193     1.080  45.07   0
        75    289.8172    790.9158 300.0042376 +22.6824491     474.8806     72.31815      1.419     4.80      3.47468     20.41355     51.11565         9     0.985     0.663 -20.38   0
        76    648.6039    788.1459 300.1167875 +22.7892958     969.5489     72.33658      1.523     3.00     3.158666     20.41355     98.03871        15     0.972     0.944 -81.72   0
        77     14.9897    787.6147 299.9199074 +22.5989987      816.215      72.2628      1.871     4.32     3.549191     20.41355     80.02943        16     1.445     1.121  20.77   0
        78     47.8743    787.4326 299.9301801 +22.6088208     784.4163     72.35501      1.987     5.52     3.568816     20.41355     62.03075        16     1.472     1.013  19.14   0
        79    659.5735    786.3811 300.1207776 +22.7920791     635.5823     72.37344      1.591     3.45     3.126511     20.41355     70.04652        15     1.124     0.920   8.54   0
        80    980.2439    784.3640 300.2213751 +22.8876366     343.6713     72.41028      1.873     3.41     3.149267     20.41355     30.80278         5     0.743     0.452  16.24   0
        81    764.9749    782.4890 300.1548774 +22.8225680     483.1201     72.29971      1.378     4.18     3.405031     20.41355      56.7935        10     0.936     0.779 -81.23   0
        82    802.5742    773.1761 300.1696217 +22.8311672     657.1495     72.31815      1.519     3.81     3.559749     20.41355     76.06479        15     1.286     0.792  -0.74   0
        83    411.4954    770.0267 300.0488733 +22.7129709     31485.76     72.29971      1.531     2.94     3.630076     20.41355     3436.696        75     1.385     1.314  40.91   0
        84    425.7194    770.6270 300.0531035 +22.7174108     2041.009     72.35501      1.632     3.15     3.647926     20.41355     183.3096        23     1.305     1.089 -36.68   0
        85    934.7085    766.0317 300.2131350 +22.8687242     2779.633     72.29971      1.662     3.44     3.650895     20.41355     207.8044        28     1.317     1.164  60.06   0
        86    422.6679    764.6274 300.0541044 +22.7147741     767.7526     72.33658      2.173     4.22     3.665946     20.41355      52.6866        13     1.025     0.867  26.39   0
        87    692.5607    761.9333 300.1390001 +22.7949541     963.6512     72.31815      1.510     3.29     3.251656     20.41355     95.60459        17     1.113     0.961 -89.54   0
        88    294.0705    761.9227 300.0149852 +22.6754107     702.7906     72.46551      1.494     3.28      3.55949     20.41355     90.09821        14     1.004     0.954 -81.46   0
        89    528.9771    761.8730 300.0880829 +22.7458761     340.4432     72.39186      1.375     2.73     3.606658     20.41355     50.43157         5     0.608     0.601 -67.93   0
        90    586.8695    760.3517 300.1065998 +22.7628040     207.2727     72.33658      1.162     3.45     3.538165     20.41355     33.54567         5     0.780     0.442 -16.40   0
        91     98.9493    757.2308 299.9558637 +22.6154981     427.9665     72.39186      1.542     5.46     3.558781     20.41355     41.51566        10     1.041     0.856 -35.08   0
        92    539.5416    756.8521 300.0930035 +22.7476041     884.2269     72.41028      1.561     2.96     3.595657     20.41355     97.54639        12     0.952     0.820 -15.33   0
        93    940.2135    754.0786 300.2187375 +22.8669411     396.9968     72.35501      1.421     3.86     3.690302     20.41355     50.84588        10     0.932     0.845  72.80   0
        94    441.5322    753.1157 300.0637158 +22.7171312     393.5177     72.46551      1.736     4.92     3.737481     20.41355     39.23695         8     0.997     0.759 -59.30   0
        95    485.2876    751.6860 300.0777964 +22.7298474     415.1422      72.4839      1.557     5.08       3.7741     20.41355      40.7295         9     0.894     0.816  24.22   0
        96    397.8468    752.3936 300.0503591 +22.7038174     381.4842     72.37344      1.269     3.47      3.70768     20.41355     46.01991         5     1.250     0.279  34.84   0
        97    127.4137    751.1762 299.9666756 +22.6223074     723.3814     72.35501      2.065     4.95     3.580835     20.41355     58.69417        15     1.257     0.988  31.39   0
        98    694.1390    750.8831 300.1430839 +22.7922553     300.2948     72.44711      1.351     3.96     3.306238     20.41355     41.30959         6     0.800     0.562 -56.34   0
        99    917.8938    748.9429 300.2134474 +22.8587767      482.046     72.41028      1.941     4.04     3.808681     20.41355     37.41702         5     0.850     0.549 -33.59   0
       100    291.6591    746.0790 300.0193853 +22.6701430     557.7787     72.39186      1.486     3.36     3.601607     20.41355     72.94518        11     0.980     0.811  33.68   0
       101    614.6774    736.8743 300.1228899 +22.7644058     509.2509     72.46551      1.316     2.92     3.662372     20.41355     80.18781         9     0.905     0.782  78.99   0
       102    584.4605    734.9580 300.1141042 +22.7547937     588.9766     72.33658      1.408     3.84     3.708514     20.41355     66.00155        10     0.956     0.772 -52.81   0
       103    494.0363    733.9926 300.0862704 +22.7273949     315.5135     72.35501      1.545     4.20     3.794573     20.41355     30.61864         8     0.864     0.851  12.15   0
       104   1001.0598    731.3278 300.2451095 +22.8786406     4428.877     72.39186      1.659     3.42     3.459347     20.41355     347.7867        35     1.341     1.221 -36.89   0
       105    606.4628    732.3227 300.1218115 +22.7606359     1394.139      72.4287      1.403     2.68     3.717859     20.41355      152.199        18     1.023     0.969  30.91   0
       106    526.5687    731.8138 300.0971041 +22.7365280     338.6289     72.35501      1.248     2.26     3.760888     20.41355     56.89942         6     0.684     0.603 -36.84   0
       107    989.4726    722.8226 300.2442600 +22.8727253     1810.118     72.39186      1.619     3.73     3.577933     20.41355     136.9727        21     1.197     1.046  57.07   0
       108    352.6367    716.4474 300.0479795 +22.6799409     690.0598     72.39186      1.361     3.58     3.777794     20.41355     93.59846        12     1.000     0.906  77.55   0
       109    815.7525    713.9877 300.1929690 +22.8181229     2644.706     72.35501      1.505     3.09     3.813644     20.41355     258.1453        26     1.158     1.104  24.43   2
       110   1020.7236    712.8214 300.2572587 +22.8792163     1691.209     69.78448      1.827     3.96     3.487345     20.41355     112.9024        25     1.309     1.174  -1.17  24
       111     38.1264    703.9877 299.9542736 +22.5819745     786.2903     72.37344      1.697     4.88      3.63526     20.41355     87.58121        16     1.375     1.008  12.29   0
       112    201.0334    700.5626 300.0060041 +22.6298918     521.0735     72.39186      1.483     3.93     3.818126     20.41355      56.7334        12     1.006     0.855 -66.29   0
       113    898.3968    699.9965 300.2232783 +22.8388755     619.3462     72.13351      1.649     4.38     3.979458     20.41355     56.18219         8     0.878     0.698 -34.55   0
       114    934.3098    690.9547 300.2374147 +22.8470409     148410.7     72.33658      1.575     3.17     3.950514     20.41355     12612.55       172     1.520     1.496  59.14   0
       115    696.2037    694.6649 300.1619998 +22.7767355     357.8636     72.35501      1.518     4.59     3.683724     20.41355     44.52443         7     1.144     0.665   3.18   0
       116    786.4057    691.2388 300.1912168 +22.8027934     764.9159     72.37344      1.405     3.19     3.909482     20.41355     74.11584        13     1.135     0.716  -9.67   0
       117    967.0368    683.7983 300.2499464 +22.8547920      374.498     72.37344      1.432     4.46     3.874351     20.41355     47.10763         7     1.085     0.693 -21.10   0
       118    620.4600    679.7845 300.1432452 +22.7497529     1633.937     72.31815      1.444     2.80     3.886273     20.41355     197.9341        19     1.037     1.000 -23.58   0
       119    801.7363    677.0218 300.2006147 +22.8033062     9333.751     72.33658      1.454     2.76      4.04685     20.41355     982.9859        44     1.240     1.214  48.53   0
       120    283.5693    678.0225 300.0389877 +22.6481950     265.7546     72.35501      1.741     3.97     3.624092     20.41355     34.43107         5     1.037     0.434  27.07   0
       121    303.2445    672.0594 300.0470434 +22.6523879     4953.748     72.37344      1.455     2.77     3.639139     20.41355     593.4106        35     1.235     1.146  -4.04   0
       122    385.2879    670.0334 300.0732191 +22.6764210      1053.36     72.31815      1.412     3.14     3.890168     20.41355     126.0765        17     1.109     0.924  13.36   0
       123     17.0113    670.3235 299.9586543 +22.5659846      1627.21     72.37344      1.768     3.61     3.897737     20.41355     163.9048        26     1.459     1.096  20.75   0
       124    261.0942    667.5184 300.0354128 +22.6384381     429.8638     72.52069      1.688     2.73     3.792245     20.41355     67.90065         7     0.990     0.466  47.01   0
       125    593.6415    665.7367 300.1394594 +22.7376787     672.5964     72.33658      1.249     2.59     4.037691     20.41355      107.172        13     0.938     0.854 -51.88   0
       126    585.2018    657.8602 300.1393911 +22.7328870     3268.731     72.31815      1.369     2.63     4.105601     20.41355     410.9203        26     1.116     1.024  71.92   0
       127    575.5164    651.6078 300.1384071 +22.7281880     1366.258     72.28126      1.266     2.39     4.159201     20.41355     185.2665        16     0.945     0.920  40.12   0
       128    504.6021    651.0519 300.1165127 +22.7067622     331.0428     72.33658      1.466     2.58     4.123851     20.41355      45.7788         7     0.716     0.666 -67.89   0
       129    968.9741    649.4233 300.2617214 +22.8454972     401.8297     72.31815      1.447     3.81     3.976211     20.41355     43.86935         7     0.859     0.599 -25.82   0
       130    486.3120    648.3243 300.1117066 +22.7004940     294.0039      72.4839      1.198     3.90      4.05771     20.41355     39.05367         5     0.911     0.478  45.21   0
       131    238.7448    647.7357 300.0348921 +22.6260574       612.16     72.41028      1.444     3.27     3.961773     20.41355     76.34657        12     0.949     0.872   5.70   0
       132    252.9051    646.5251 300.0396878 +22.6299591     683.3699      72.5023      1.504     3.40     3.906634     20.41355     65.32137        14     0.997     0.938 -38.12   0
       133   1022.5587    642.7646 300.2805988 +22.8596382     523.8545     62.35729      1.605     6.10     3.978548     20.41355      44.6307        14     1.308     1.092  75.05  24
       134    310.0126    643.2838 300.0584978 +22.6461635     396.2054     72.29971      1.497     3.59     3.813789     20.41355      41.4229         6     0.843     0.599 -89.42   0
       135    279.1665    643.1027 300.0489648 +22.6368569     569.3984     72.33658      1.560     3.57     3.822754     20.41355     83.76824        15     1.132     0.985 -21.95   0
       136    599.5789    642.1522 300.1489715 +22.7326889     453.1279     72.39186      1.268     2.24      4.13489     20.41355     69.60383         8     0.802     0.625 -35.22   0
       137    500.1736    641.2718 300.1183121 +22.7026271      1779.61     72.33658      1.344     2.58      4.10621     20.41355     197.1956        20     1.066     0.943 -22.53   0
       138    534.1237    640.5566 300.1291118 +22.7126032     304.3184     72.33658      1.279     2.34     4.239265     20.41355     42.51162         5     0.704     0.459 -20.78   0
       139    154.2108    636.1794 300.0123716 +22.5973754     19885.79     72.33658      1.602     2.98     4.099781     20.41355      2049.47        64     1.412     1.331  27.69   0
       140     75.0486    637.7504 299.9872646 +22.5740670     716.0597     72.39186      1.777     3.98      3.78645     20.41355     63.73859        13     1.180     0.869  40.77   0
       141    585.1823    636.5747 300.1463011 +22.7267710     983.4961     72.37344      1.384     2.55     4.195922     20.41355     111.7526        14     0.942     0.866  61.35   0
       142    620.5967    635.8318 300.1575698 +22.7371763     430.6178     72.33658      1.498     3.46     4.126149     20.41355     49.71885         7     0.961     0.472 -80.75   0
       143    338.6612    628.2326 300.0722975 +22.6504400     273.5942     72.39186      1.107     2.22     3.910365     20.41355     44.83064         5     0.698     0.452 -74.74   0
       144   1003.1771    622.9162 300.2810023 +22.8481286     1188.143     72.31815      1.606     3.69     4.072232     20.41355      99.5605        19     1.199     1.007   6.10   0
       145    100.3708    620.3920 300.0007707 +22.5766896     1507.116     72.35501      1.968     4.76     3.911381     20.41355     110.6448        30     1.587     1.326  74.88   0
       146    870.0848    621.1293 300.2400803 +22.8077375     462.6595     72.46551      1.345     2.58     4.006709     20.41355     61.25806         8     0.788     0.648 -36.43   0
       147    166.5904    620.9244 300.0211747 +22.5967154     369.5442     72.33658      1.393     4.37     4.143401     20.41355     44.97808         7     0.853     0.721 -38.81   0
       148    548.6591    617.1553 300.1412396 +22.7102448     488.5146     72.37344      1.436     2.47     4.336034     20.41355     52.53899         7     0.712     0.639 -75.53   0
       149    943.5211    615.5670 300.2647844 +22.8281441     779.2023     72.33658      1.916     3.32     4.015549     20.41355     69.96787        14     1.055     0.866  17.16   2
       150    341.3759    615.9432 300.0771343 +22.6477284     316.5223     72.35501      1.276     3.33     3.956398     20.41355     33.52238         6     0.825     0.698 -78.99   0
       151    687.8008    613.6365 300.1857115 +22.7509515     235.0878     72.35501      1.168     3.68     4.174155     20.41355     36.76139         6     0.722     0.654 -50.72   0
       152    505.3351    609.6389 300.1301958 +22.6950957     673.1423     72.33658      1.239     2.66     4.131749     20.41355      85.5046         8     0.897     0.554  14.08   0
       153    653.1169    608.1419 300.1766936 +22.7389762     526.7595     72.44711      1.284     3.05     4.258919     20.41355     60.66947         8     0.835     0.632 -38.62   0
       154    700.5532    606.5665 300.1919808 +22.7527441     400.0932     72.39186      1.288     3.54      4.17099     20.41355     53.17227         8     0.924     0.741  28.11   0
       155    671.0161    606.3240 300.1828591 +22.7438201     573.4559     72.35501      1.370     2.80     4.246475     20.41355     70.53761         9     0.927     0.626  53.63   0
       156    549.6899    605.2503 300.1454281 +22.7071365     852.1095     72.35501      1.293     3.02     4.369954     20.41355     112.1855        14     0.965     0.932  32.95   0
       157    514.9972    600.7603 300.1360874 +22.6954446     1708.555     72.37344      1.335     2.34     4.225186     20.41355     252.0623        18     1.033     0.870  37.71   0
       158    880.2466    597.8275 300.2508187 +22.8040887     263.3634     72.39186      1.171     4.00     3.985688     20.41355     33.13131         6     0.819     0.558 -50.17   0
       159     77.0313    594.3120 300.0019914 +22.5622058     5044.165     72.31815      1.624     3.09      3.79013     20.41355     489.0235        39     1.336     1.268 -51.74   0
       160    865.6158    596.0566 300.2468329 +22.7991959     273.1109     72.33658      1.694     4.89     3.982541     20.41355     29.55039         6     1.401     0.483 -52.34   0
       161    490.3201    596.1642 300.1298999 +22.6867254     310.2831     72.29971      1.449     4.39     4.116027     20.41355     35.94661         5     0.775     0.708  66.67   0
       162   1022.8733    591.2383 300.2974381 +22.8449262     400.6588     60.64439      1.673     3.94      4.17347     20.41355     33.81479         6     0.792     0.562 -40.84  24
       163    983.3831    600.9420 300.2819677 +22.8358846     3270.195     72.31815      1.545     3.03     4.096141     20.41355     337.7584        31     1.217     1.188 -12.09   0
       164    378.4430    587.5044 300.0979022 +22.6506867     9099.759     72.37344      1.420     2.53     3.974847     20.41355     1179.261        38     1.180     1.148  67.59   0
       165    500.8781    584.6093 300.1369394 +22.6865747     8903.409     72.31815      1.340     2.43     4.228839     20.41355     1257.071        32     1.090     1.061  68.04   0
       166    905.5938    581.6941 300.2639624 +22.8070486     288.6144     72.24435      1.575     3.91     3.984766     20.41355     39.47005         5     0.967     0.452  77.08   0
       167    747.3211    581.4834 300.2146996 +22.7595589     329.7337      72.4839      1.584     4.88     4.064997     20.41355     34.20627         6     0.945     0.715 -27.19   0
       168    144.9200    580.9445 300.0274270 +22.5787455     141.3101     72.39186      1.139     3.81     4.135431     20.41355     35.63763         5     0.800     0.521 -32.22   0
       169    912.6569    578.6653 300.2671486 +22.8082947     1849.881     72.41028      1.525     2.86     3.986351     20.41355     214.5336        23     1.138     1.106  -1.36   0
       170    997.2820    576.0598 300.2943862 +22.8328985     12267.11     72.46551      1.516     2.98     4.123206     20.41355      1153.35        47     1.278     1.272 -55.68   0
       171    561.5051    574.1860 300.1591974 +22.7017613     11604.38     72.28126      1.317     2.39     4.469925     20.41355     1418.835        40     1.131     1.121 -36.66   0
       172    731.2028    570.3157 300.2133053 +22.7515205      575.534     72.28126      1.373     2.73     4.095345     20.41355     92.26055        12     1.063     0.701  44.02   0
       173    289.0774    569.6068 300.0759216 +22.6187446     1426.266     72.28126      1.392     2.57     4.019666     20.41355     160.7743        17     1.019     0.921 -28.66   0
       174    535.8068    567.2319 300.1534561 +22.6920597      406.315     72.35501      1.140     2.68     4.464566     20.41355      61.9895         6     0.753     0.532 -48.63   0
       175    493.1670    562.2695 300.1417958 +22.6778498     4339.208     72.33658      1.319     2.47     4.311925     20.41355     511.4105        29     1.143     1.032 -89.38   0
       176    835.9735    562.5199 300.2484871 +22.7806795     827.0197     72.35501      1.319     2.55     3.975324     20.41355     112.8198        11     0.962     0.701  43.32   0
       177    471.4018    560.9366 300.1354550 +22.6709406     1239.284     72.33658      1.332     2.63     4.224282     20.41355     163.8655        16     1.004     0.893  63.04   0
       178    225.8015    560.1182 300.0593302 +22.5970395     785.8602      72.2628      1.466     3.07     4.033286     20.41355     89.28956        13     1.001     0.851 -45.06   0
       179    912.9203    558.0317 300.2739332 +22.8024452     1611.781     72.35501      1.468     2.95     3.982574     20.41355     156.6296        22     1.202     0.999 -18.60   0
       180    793.5541    554.6938 300.2378082 +22.7657200     815.2545     72.37344      1.389     3.43     4.002921     20.41355     111.4661        15     1.121     0.907  13.76   0
       181    609.7849    549.9247 300.1821099 +22.7092699     200384.4     72.35501      1.347     2.38     4.548883     20.41355     29474.99       197     1.452     1.369   0.63   0
       182    295.9107    549.8506 300.0844630 +22.6151258     3516.043     72.35501      1.400     2.55     4.020858     20.41355      470.114        28     1.155     1.046  58.71   0
       183    861.7161    546.1031 300.2618438 +22.7836767     520.7386     72.52069      1.359     2.62     3.948558     20.41355     76.21776         7     0.828     0.614 -86.99   0
       184    500.4057    530.2292 300.1544548 +22.6708225     2738.474     72.35501      1.393     2.32     4.416369     20.41355     331.9901        26     1.100     1.020  69.61   2
       185    344.6200    532.4240 300.1052711 +22.6247353     511.3454     72.35501      1.253     2.45     3.970137     20.41355     68.68446         5     0.701     0.467 -75.47   0
       186    912.0091    526.5524 300.2838735 +22.7931273     425.6387     72.37344      1.284     3.76     3.952492     20.41355     52.17005         6     1.224     0.332 -18.31   0
       187    817.8317    518.7820 300.2570381 +22.7626785     434.7561     72.33658      1.304     3.39     3.949727     20.41355     61.45844         8     1.019     0.636 -49.25   0
       188    897.3291    516.6351 300.2825172 +22.7858798      1680.34     72.35501      1.361     2.23     3.919332     20.41355     219.1244        17     0.984     0.922 -42.08   0
       189     27.3446    515.0825 300.0122879 +22.5245724      723.067     72.41028      1.553     3.36     4.135106     20.41355     88.69673        14     1.104     0.863  10.44   0
       190    768.6238    514.1465 300.2432083 +22.7466018     2505.749     72.37344      1.293     2.34     3.991474     20.41355     338.4261        24     1.062     1.001 -77.38   0
       191    128.2752    514.1937 300.0439326 +22.5546041     110.7726     72.28126      1.192     4.31     4.141992     20.41355     35.35732         5     0.747     0.708 -29.78   0
       192    673.5305    510.8301 300.2146593 +22.7171508     351.1094     72.35501      1.220     5.03     4.260271     20.41355      62.5633         9     1.411     0.560  67.04   0
       193   1013.1389    511.6400 300.3202563 +22.8191346     488.9496     72.35501      1.493     4.34     4.030685     20.41355     51.13219         7     0.783     0.685  -2.85   2
       194   1011.3701    507.4879 300.3210529 +22.8174115      866.566     72.33658      1.890     3.68      4.01041     20.41355     69.95896        13     1.093     0.897  44.72   2
       195    978.1108    511.3989 300.3094087 +22.8085738     233.2154     72.28126      1.104     3.42     3.995227     20.41355     46.70567         5     0.883     0.500 -50.56   0
       196    555.7129    510.0139 300.1782358 +22.6816003     819.0541     72.29971      1.360     2.19     4.467778     20.41355     133.9535        13     0.929     0.782  62.08   0
       197    897.6270    506.5648 300.2858804 +22.7830754     2205.162     72.37344      1.670     3.60     3.903077     20.41355     240.7975        29     1.560     1.021  74.67   0
       198    651.1270    504.4676 300.2097475 +22.7086087     650.5077     72.41028      1.486     2.94     4.315521     20.41355     78.10969        11     0.948     0.780  59.84   0
       199    935.8300    501.6463 300.2993899 +22.7931062     4251.291     72.39186      1.409     2.51     3.944432     20.41355      566.054        31     1.208     1.048  75.11   0
       200    437.2067    504.4907 300.1431454 +22.6444839     342.1168      72.2628      1.163     2.37     4.102791     20.41355     42.48824         5     0.704     0.457  22.33   0
       201    489.5190    503.3028 300.1598105 +22.6598282     379.4777      72.4839      1.093     3.10     4.388764     20.41355     67.68163         5     0.731     0.439  65.97   0
       202    576.8184    500.9819 300.1877397 +22.6853339     223.8922     72.35501      1.062     3.15     4.428918     20.41355     46.21867         6     0.774     0.527  56.55   0
       203    596.6470    497.5478 300.1950287 +22.6902916     329.9392     72.39186      1.184     3.53     4.407559     20.41355      46.7967         9     0.877     0.783  16.45   0
       204    167.9370    491.8023 300.0635286 +22.5600801     851.3098     72.35501      1.380     2.47     4.107634     20.41355     115.2899        15     1.156     0.793  18.04   0
       205    797.4325    489.7974 300.2600929 +22.7482392     288.5129     72.31815      1.255     2.72      3.95293     20.41355     44.91092         5     0.813     0.645  34.17   0
       206    828.6498    485.9003 300.2710879 +22.7564728     352.4084     72.44711      1.431     4.69     3.887727     20.41355     42.98507         7     1.073     0.581  69.37   0
       207    160.6634    481.9661 300.0644617 +22.5550760     348.6824     72.35501      1.296     3.30     4.119071     20.41355     42.23969         7     0.758     0.630 -73.84   0
       208    768.0875    476.1527 300.2553787 +22.7355266     450.8806     72.33658      1.279     2.32     3.933997     20.41355      65.6154         8     0.775     0.656 -40.74   0
       209    657.1630    474.0234 300.2215130 +22.7016741     272.5299     72.37344      1.211     2.58      4.25285     20.41355     52.36317         7     0.708     0.677 -10.84   0
       210    709.1500    471.9516 300.2383795 +22.7166588     637.9191     72.39186      1.202     2.63      4.05358     20.41355     104.8978        12     0.904     0.882  12.44   0
       211   1023.5936    464.6455 300.3387780 +22.8087580     348.2217     56.78343      1.114     3.65     3.914715     20.41355     73.98685         8     1.215     0.458  80.99  24
       212    770.3325    464.2559 300.2599411 +22.7327814     901.1012     72.39186      1.268     2.60     3.905899     20.41355     117.8465        13     0.950     0.786   3.04   0
       213    927.2123    460.6519 300.3100140 +22.7787438     1013.784     72.39186      1.348     2.72     3.911035     20.41355     121.6587        15     1.024     0.878  -5.17   0
       214    885.4564    458.5187 300.2976872 +22.7656231     307.1367     72.39186      1.505     4.78     3.833743     20.41355      29.3926         7     0.954     0.679  72.31   0
       215    911.5248    456.8194 300.3063668 +22.7729434     629.6654     72.35501      1.426     2.98      3.88343     20.41355      75.9508        10     0.933     0.742 -89.10   0
       216    655.8228    454.8467 300.2273219 +22.6957644     3301.558     72.37344      1.301     2.15     4.219014     20.41355     518.7376        27     1.153     0.941  65.59   0
       217   1015.8297    453.6461 300.3399274 +22.8032711     526.9142     72.39186      1.492     3.91     3.914715     20.41355     66.66399        10     0.960     0.878 -68.53   0
       218    131.7241    446.0708 300.0671216 +22.5360957     466.2931      72.4287      1.341     2.98     4.119654     20.41355     60.81309         9     1.024     0.573 -26.38   0
       219    661.2445    442.6306 300.2329766 +22.6938804     237.7686     72.39186      1.079     2.75     4.181334     20.41355     42.16241         6     0.705     0.617  47.14   0
       220    427.6167    442.7443 300.1602091 +22.6238825     312.7212     72.31815      1.406     2.28     4.220725     20.41355      45.0635         5     0.707     0.443  68.71   0
       221    495.9250    442.0396 300.1816952 +22.6441592     399.2787     72.31815      1.178     3.43     4.370742     20.41355     57.58655         6     0.742     0.573 -30.62   0
       222    939.0222    433.6861 300.3224518 +22.7745309     488.6171     72.29971      1.327     2.96     3.914715     20.41355     71.76205        10     1.000     0.625  57.50   0
       223    766.5407    428.9165 300.2702328 +22.7214921     1127.557     72.46551      1.329     2.31     3.823947     20.41355     162.8666        15     0.930     0.852  81.13   0
       224    675.3882    430.6405 300.2412746 +22.6946747     312.7875     72.33658      1.132     2.51     4.105134     20.41355     56.47882         5     0.708     0.471 -10.17   0
       225    562.1280    429.3674 300.2064173 +22.6603650     414.3363     72.35501      1.084     2.51     4.358567     20.41355       59.542         7     0.728     0.618  14.81   0
       226    270.1933    426.9500 300.1163706 +22.5721432     552.5784     72.35501      1.218     2.55     4.033811     20.41355     89.56975         9     0.826     0.726  69.31   0
       227    110.7307    425.5997 300.0672433 +22.5239244      253.193     72.29971      1.405     3.15     4.120992     20.41355     34.86768         5     0.730     0.450  19.73   0
       228    332.7363    422.6035 300.1372312 +22.5896514     3679.731     72.31815      1.350     2.39     4.048833     20.41355     568.5532        30     1.159     1.040  51.65   0
       229    279.9900    417.3664 300.1225277 +22.5723306     7618.536     72.33658      1.424     2.63     4.053737     20.41355     928.4843        41     1.250     1.120  61.36   0
       230    658.5265    417.1130 300.2404138 +22.6857360     216.3242      72.5023      1.014     3.25     4.135497     20.41355     46.98327         5     1.075     0.285  33.90   0
       231    420.7878    411.6856 300.1681664 +22.6129182     4722.688     72.29971      1.292     2.29     4.335418     20.41355      710.122        30     1.143     1.011  80.30   0
       232    664.9620    408.4159 300.2452415 +22.6851662     18699.37     72.35501      1.305     2.28     4.151574     20.41355     2776.799        50     1.218     1.085  66.24   0
       233    682.5684    408.3267 300.2507546 +22.6904163     921.8331     72.35501      2.080     5.83     4.082183     20.41355     78.11936        19     1.635     0.859 -43.21   0
       234    524.4593    406.0143 300.2022713 +22.6423677     283.8352     72.31815      1.586     4.57     4.359155     20.41355     27.84018         5     1.063     0.558 -14.17   0
       235    861.7752    398.8490 300.3096756 +22.7413816      344.057     72.35501      1.279     2.72     3.808709     20.41355     67.26378         8     0.841     0.778  85.27   0
       236    285.3121    395.5295 300.1312704 +22.5676589     316.5416     72.52069      1.111     2.74     4.154962     20.41355     52.70406         7     0.803     0.650  -8.20   0
       237    998.5131    390.8835 300.3549009 +22.7800432     844.1685     72.46551      1.598     3.85     3.914715     20.41355     78.02956        15     1.077     1.017 -46.98   0
       238    535.4633    390.1977 300.2108305 +22.6411237      435.731     72.35501      1.225     1.81     4.358967     20.41355     59.67071         5     0.643     0.486  74.66   0
       239    266.1123    389.3517 300.1273053 +22.5601280     1383.557     72.35501      0.667     1.25     4.183323     20.41355      596.187         7     0.564     0.416 -86.24   0
       240    219.6849    388.3691 300.1131898 +22.5459225     2045.361     72.37344      1.426     2.59     4.173829     20.41355      252.306        23     1.166     1.017  45.88   0
       241   1019.3013    378.3246 300.3654620 +22.7826572     1102.062      72.4839      1.368     2.50     3.914715     20.41355     149.4613        18     1.071     0.905  86.82  16
       242    605.6070    377.8049 300.2366919 +22.6585863     6623.208     72.20742      1.278     2.24     4.415811     20.41355     1033.141        35     1.149     1.031  62.59   0
       243    320.6610    377.3367 300.1481679 +22.5730364     660.2278     72.39186      1.312     2.71     4.237936     20.41355     80.08786        10     0.852     0.777  57.40   0
       244    178.2031    370.4925 300.1060971 +22.5283509     498.4717      72.2628      1.258     2.63     4.160687     20.41355     64.49488         9     0.809     0.725  11.23   0
       245    865.9341    369.6639 300.3204450 +22.7342393     377.0203     72.41028      1.473     3.77     3.829128     20.41355     51.92002         6     0.895     0.759  67.93   0
       246     25.2810    367.9965 300.0593924 +22.4817629     1391.516      72.2628      1.616     3.17     4.229918     20.41355     151.0517        19     1.099     1.043 -40.81   0
       247    809.9376    366.9218 300.3038802 +22.7166788     1168.997      72.4287      1.372     2.76     3.829533     20.41355     155.3153        18     1.070     0.923  47.15   0
       248    719.2697    368.1454 300.2752299 +22.6898688     417.7915     72.39186      1.119     2.15     4.221375     20.41355     85.99339         8     0.861     0.549  25.45   0
       249    512.3149    364.0534 300.2121100 +22.6266770     6167.406     72.39186      1.297     2.37     4.351836     20.41355     807.8214        31     1.083     1.044  51.35   0
       250   1001.6280    359.1176 300.3661828 +22.7718433     554.0042     72.35501      1.366     2.86     3.914715     20.41355     82.13756        11     0.938     0.795 -86.61   0
       251    904.1493    358.6508 300.3359339 +22.7425191      1428.55     72.39186      1.361     2.33     3.883571     20.41355     194.0511        16     0.995     0.878  54.46   0
       252      3.6871    353.6219 300.0573500 +22.4711606     363.0431      67.6893      1.392     3.22     4.283754     20.41355     54.82515         8     0.971     0.657  34.80  16
       253    497.0648    352.8393 300.2110025 +22.6188856     507.3354     72.31815      1.331     2.71     4.345457     20.41355     72.89033         7     0.861     0.595  75.75   0
       254    579.4445    350.7497 300.2373259 +22.6429745     417.7236     72.39186      1.047     2.10     4.417907     20.41355     68.13193         6     0.748     0.513  41.41   0
       255    857.5154    349.7980 300.3242679 +22.7260080     334.0796     72.28126      1.344     2.07     3.865674     20.41355     51.52802         5     0.691     0.467 -69.46   0
       256     23.8468    349.3254 300.0650056 +22.4759760     1071.543     72.35501      1.579     3.95      4.25613     20.41355     121.2736        20     1.365     0.960  49.02   0
       257    876.8837    345.9825 300.3315442 +22.7307121     521.6622     72.31815      1.286     2.93       3.9127     20.41355     84.73674        10     0.906     0.730 -85.50   0
       258    399.9068    343.3337 300.1838530 +22.5870327     2616.082      72.5023      1.326     2.33     4.337925     20.41355     356.2857        21     1.055     0.934  47.65   0
       259    118.2212    340.5930 300.0971585 +22.5017800     936.2877     72.33658      1.530     3.04     4.202099     20.41355      110.742        17     1.159     0.880  13.93   0
       260    746.9852    337.9275 300.2936718 +22.6894890     352.9652     72.35501      1.284     3.94     4.271415     20.41355     42.53953         6     0.759     0.585  45.45   0
       261    369.1891    332.7267 300.1777387 +22.5747784     29590.85     72.37344      1.347     2.31     4.378561     20.41355      4120.21        70     1.296     1.179  80.07   0
       262    347.1716    337.0295 300.1694937 +22.5694131     220.5163     72.33658      1.266     3.03     4.388225     20.41355     40.98764         5     0.803     0.482  34.00   0
       263    903.8499    330.1890 300.3450772 +22.7342479     1489.859     72.37344      1.356     2.53     4.052912     20.41355     202.1667        20     1.090     0.961  87.84   0
       264    859.2187    328.3190 300.3317692 +22.7203444     283.5263     72.33658      1.041     2.52     4.062332     20.41355     53.67034         6     0.689     0.641 -66.03   0
       265     65.5517    320.4953 300.0873150 +22.4802147      4918.07     72.39186      1.591     2.90     4.323564     20.41355     591.3973        36     1.286     1.213  72.67   0
       266    819.4090    319.1056 300.3223496 +22.7057733     529.5353     72.28126      1.376     3.46     4.117216     20.41355     71.92175        11     1.056     0.724   9.84   0
       267    243.7217    318.6678 300.1432809 +22.5331245     513.9953     72.46551      1.587     4.53     4.482534     20.41355     54.65885         9     0.908     0.769  89.85   0
       268    467.3681    318.0757 300.2130405 +22.6000008     505.3799     72.35501      1.177     2.68     4.335863     20.41355     84.99019         8     0.873     0.629 -86.91   0
       269    779.6034    312.4734 300.3120957 +22.6919446     1881.107     72.28126      1.310     2.22     4.231506     20.41355     264.9912        19     1.032     0.909  72.58   0
       270    587.4080    307.0041 300.2540004 +22.6327943      391.302     72.18896      1.303     3.00     4.434473     20.41355     59.89988         6     0.912     0.458  76.92   0
       271    994.7422    305.7257 300.3813614 +22.7544303     538.5423     72.41028      1.326     2.43     4.038237     20.41355     69.44756         9     0.788     0.727  82.22   0
       272    848.3442    298.9549 300.3379074 +22.7086472     155.1424     72.39186      1.251     3.84     4.310332     20.41355     30.79287         5     0.889     0.475 -88.46   0
       273    441.3127    297.0521 300.2117533 +22.5861535     2217.722     72.39186      1.552     3.06     4.334149     20.41355     227.9475        25     1.333     0.986  64.86   0
       274    653.7378    295.9660 300.2782383 +22.6494966     320.5399     72.35501      1.288     2.14     4.464307     20.41355      58.7775         5     0.756     0.454  34.84   0
       275    873.1309    291.1603 300.3481635 +22.7138293     348.6749     72.31815      1.520     3.85     4.387143     20.41355      32.8944         6     0.742     0.584  37.65   0
       276    880.4341    289.9761 300.3508246 +22.7156759     606.4796     72.37344      1.416     3.43     4.384296     20.41355     77.20627         9     0.972     0.679  57.51   0
       277     11.7505    289.2497 300.0807396 +22.4551107     592.3257     72.39186      2.308     4.94     4.311617     20.41355     33.76377         8     0.970     0.711 -43.41   3
       278     14.4070    287.5434 300.0821183 +22.4554180     532.2628     72.33658      1.461     2.77      4.32512     20.41355     66.87112         9     0.875     0.731 -72.58   2
       279    762.6177    287.5246 300.3148974 +22.6796867     267.6296     72.35501      1.089     3.33     4.387162     20.41355     65.93754         8     1.013     0.582  45.98   0
       280     90.3642    277.4321 300.1089944 +22.4752992     339.1469     72.39186      1.550     3.31     4.537371     20.41355     45.87265         6     0.948     0.853  41.62   0
       281    517.2141    276.5384 300.2420313 +22.6030086     1204.199     72.31815      1.283     2.49     4.330655     20.41355     171.5211        18     1.033     0.887  45.79   0
       282    900.4310    269.4999 300.3637026 +22.7157770     380.2955     72.33658      1.728     5.73     4.362387     20.41355     41.58545         8     1.295     0.713  33.50   0
       283    762.1223    268.4182 300.3209417 +22.6740470     2134.932     72.35501      1.233     2.17     4.395494     20.41355     355.1947        20     1.003     0.920 -87.08   0
       284   1023.0992    262.7997 300.4041345 +22.7505757       2534.5     59.33288      1.284     2.75     4.130105     20.41355     398.6441        19     1.182     0.806  84.84  24
       285    394.8307    253.9662 300.2112680 +22.5598478     233.6461     72.37344      1.378     3.83     4.462065     20.41355     29.54491         5     0.838     0.502  28.94   0
       286    470.4291    252.1808 300.2353710 +22.5819918     661.0351     72.35501      1.274     2.39     4.293904     20.41355     85.41437        11     0.886     0.717  15.90   0
       287    145.2757    246.3272 300.1361472 +22.4828392     1366.808      72.4287      1.759     3.92     4.549902     20.41355     123.9284        23     1.406     1.017 -34.16   0
       288    176.0726    246.2577 300.1457414 +22.4920539     637.1495     72.39186      1.357     3.19     4.550226     20.41355     88.33553        12     1.007     0.816  60.11   0
       289    882.6850    240.4532 300.3675925 +22.7021124     341.7887     72.39186      1.110     2.86     4.383758     20.41355      46.8036         5     0.699     0.484 -13.35   0
       290    229.1574    238.3971 300.1647928 +22.5057137     482.3862     72.37344      1.282     3.51     4.569925     20.41355     59.20218        11     0.996     0.777   9.22   0
       291     84.6997    235.3389 300.1208879 +22.4615197     394.3939     72.44711      1.389     3.85     4.579907     20.41355     48.00555         7     0.954     0.520 -28.68   0
       292    905.2193    232.1333 300.3773173 +22.7064673     345.3349     72.31815      1.428     4.58     4.364843     20.41355     45.67081         7     0.892     0.667  36.31   0
       293    833.9336    229.8793 300.3558243 +22.6844747     630.9276     72.46551      1.212     2.34      4.37375     20.41355     102.2369        10     0.832     0.719  88.56   0
       294    423.7601    229.3187 300.2282637 +22.5614391     423.3745     72.31815      1.330     4.22     4.319782     20.41355     49.02459        10     0.893     0.845  32.97   0
       295    931.8785    218.8789 300.3899296 +22.7106375     2139.913      72.4839      1.433     2.58     4.349582     20.41355      276.676        25     1.121     1.117 -40.28   0
       296    428.3119    211.0990 300.2355893 +22.5575698     1022.914     72.52069      1.479     3.48     4.409251     20.41355     103.0144        17     1.062     1.006 -83.25   0
       297    180.1326    211.5374 300.1582642 +22.4833039     222.8655     72.41028      1.257     4.52     4.578451     20.41355     44.03882         7     0.958     0.606 -52.05   0
       298    830.2076    210.5535 300.3609313 +22.6778030     481.4213     72.37344      1.092     2.20     4.361259     20.41355     85.83074         8     0.782     0.636 -46.03   0
       299    350.5020    215.9861 300.2097967 +22.5356538     2096.421     72.24435      1.329     2.52     4.888133     20.41355     282.9635        21     1.125     0.947  88.22   0
       300     26.1638    204.5869 300.1126765 +22.4351389     477.1058     72.33658      2.105     4.53     4.786038     20.41355      32.2981         7     1.044     0.559 -75.41   0
       301    245.1897    203.5297 300.1810856 +22.5005091     732.9196     72.33658      1.284     2.99     4.776849     20.41355     86.99796        11     0.869     0.840  38.44   0
       302    783.0648    200.3400 300.3495505 +22.6607502     1659.297     72.39186      1.310     2.40     4.376414     20.41355     238.3506        19     0.985     0.970  30.12   0
       303     97.4726    200.4098 300.1361844 +22.4553245     217.6402     72.35501      1.361     3.46     4.550787     20.41355     37.93839         5     1.066     0.585  54.10   0
       304    847.9485    199.8583 300.3699303 +22.6800402     597.3475     72.41028      1.337     2.62     4.359243     20.41355     91.49997        10     0.887     0.720 -60.66   0
       305    266.7693    196.8309 300.1899678 +22.5050546      613.848     72.35501      1.312     2.87     4.879739     20.41355     83.48376        10     0.935     0.688  -6.24   0
       306    786.9625    191.6896 300.3535707 +22.6594305     724.8547     72.33658      1.403     2.49     4.369139     20.41355     107.0232        12     0.939     0.757 -88.62   0
       307    707.6398    191.0900 300.3290484 +22.6355033     1221.763     72.35501      1.271     2.40     4.459332     20.41355     154.7505        16     0.982     0.901  28.72   0
       308    556.7332    192.5745 300.2815684 +22.5907271     313.9282     72.33658      1.111     2.12     4.313648     20.41355     58.31006         5     0.697     0.445 -23.69   0
       309    528.8531    187.6544 300.2744843 +22.5809607     416.5461     72.39186      1.395     1.83       4.2844     20.41355     71.74398         6     0.658     0.597 -66.51   0
       310    903.2192    182.5163 300.3927863 +22.6916014     1453.264     72.29971      1.508     2.47     4.346488     20.41355     196.8631        19     1.062     1.011 -82.76   0
       311    633.6418    182.8112 300.3086833 +22.6109603     896.8984     72.35501      1.254     2.33     4.461892     20.41355     139.3675        13     0.977     0.716  43.73   0
       312    915.2310    181.6588 300.3968099 +22.6949507     820.5126     72.37344      1.506     3.55     4.347469     20.41355     108.4502        15     1.176     0.868 -44.27   0
       313    961.5998    181.1602 300.4114320 +22.7086877     312.7857     72.35501      1.246     3.29     4.400136     20.41355     39.20441         7     0.834     0.619 -11.65   0
       314      4.8776    171.3256 300.1168504 +22.4192091     397.4556     71.52087      1.669     4.74     4.856567     20.41355     41.16384         7     1.128     0.577 -19.82  16
       315     55.4241    168.5801 300.1334417 +22.4335793     397.8574     72.35501      1.394     4.46     4.689219     20.41355     53.80988        11     1.311     0.617  50.14   0
       316    265.9286    164.7726 300.2001019 +22.4955967     725.2974     72.33658      1.385     2.87     5.017575     20.41355     90.52655        14     0.992     0.877  18.11   0
       317    127.7462    159.6270 300.1588159 +22.4526946     2159.159     72.37344      1.525     2.57     4.555779     20.41355     287.0384        27     1.180     1.098  25.39   0
       318    950.8953    156.7039 300.4160243 +22.6984499     721.6898     72.52069      1.408     3.33     4.396316     20.41355     106.8088        13     1.095     0.833 -70.58   0
       319     77.5875    156.1819 300.1443473 +22.4366663     545.6763     72.31815      1.602     3.71     4.647397     20.41355     55.62752         9     0.911     0.843 -64.06   0
       320    285.1288    153.0090 300.2098867 +22.4979733     5649.354     72.33658      1.380     2.58     5.036075     20.41355     681.7384        33     1.254     1.059  57.75   0
       321     30.5089    148.8642 300.1320944 +22.4204488     317.6953     72.46551      1.347     4.50     4.836185     20.41355     40.61935         6     0.984     0.584 -24.40   0
       322     69.2458    147.1662 300.1446787 +22.4315770     1373.915     72.39186      1.657     3.42     4.737461     20.41355     139.2909        21     1.300     1.010  54.49   0
       323    268.4515    143.8439 300.2076723 +22.4903426     597.4985     72.39186      1.291     2.91     5.043576     20.41355     88.12985        12     0.989     0.799  -2.48   0
       324    929.1398    134.6754 300.4163826 +22.6856024     3589.168     72.41028      1.426     2.34     4.349213     20.41355     530.9147        32     1.266     1.037  79.81   0
       325    231.4879    130.5886 300.2004768 +22.4754567     280.0173     72.29971      1.128     3.36     5.075812     20.41355     45.60291         8     0.921     0.633  -6.80   0
       326    478.6873    129.5370 300.2777140 +22.5492326     689.3564     72.46551      1.512     2.90     4.262711     20.41355     99.30519        11     1.005     0.728  76.44   0
       327    592.8911    127.9125 300.3137940 +22.5829767     318.7101     72.52069      1.195     2.07     4.410673     20.41355     59.46754         5     0.717     0.489 -51.19   0
       328    402.6154    121.8701 300.2565271 +22.5242375     734.7897     72.37344      1.584     2.47      4.49418     20.41355     73.21696         9     0.850     0.673 -87.78   2
       329    168.6369    118.8562 300.1847424 +22.4532477      557.967     72.35501      1.360     3.17     4.901627     20.41355     90.48478        11     1.009     0.820 -10.07   0
       330    530.0410    116.9857 300.2977682 +22.5610103     1886.475     72.37344      1.419     2.61     4.244322     20.41355     242.1782        20     1.085     0.942  87.23   0
       331    457.9055    117.6337 300.2751053 +22.5395863     422.2692     72.33658      1.212     3.29     4.295816     20.41355     74.76701         8     0.953     0.608  35.21   0
       332    591.9692    116.3874 300.3172434 +22.5793882     453.2592     72.35501      1.304     2.54     4.403239     20.41355     72.80653         6     0.853     0.458 -38.12   0
       333    273.5762    112.1213 300.2195503 +22.4827680     373.8642     72.33658      1.293     4.05     5.052532     20.41355      55.2182         9     1.004     0.723 -79.66   0
       334    818.1667    106.4990 300.3909196 +22.6442796     388.6588     72.33658      1.444     2.80     4.422078     20.41355     51.67761         7     0.856     0.551  77.60   0
       335    964.4052    101.2335 300.4382232 +22.6865386     400.6418     72.33658      1.615     3.18     4.350904     20.41355     36.82575         5     0.726     0.457  71.56   0
       336    304.0699     96.8330 300.2339892 +22.4875155     5870.804     72.35501      1.424     2.86     4.893455     20.41355     693.2277        33     1.250     1.074  68.73   0
       337    810.5598     97.5984 300.3914341 +22.6394429     231.8671     72.37344      1.162     3.24     4.447712     20.41355     53.22694         6     0.920     0.434 -72.69   0
       338    155.3758     96.2621 300.1879450 +22.4427847     753.3514     72.33658      1.444     3.34     5.046677     20.41355     78.37239        10     1.011     0.744  24.97   0
       339    933.2723     94.6481 300.4306486 +22.6753266      393.985     72.33658      1.171     3.45     4.365389     20.41355     52.19183         5     0.814     0.422 -18.79   0
       340    276.2760     90.6020 300.2273655 +22.4773964     339.1608      72.2628      1.497     3.30     4.985276     20.41355     46.21555         5     1.038     0.304 -70.71   0
       341    319.4868     88.1158 300.2416098 +22.4896315     203.3286      72.4839      1.118     4.10     4.657253     20.41355     54.48677         6     0.966     0.577  24.44   0
       342     65.9491     87.2110 300.1630903 +22.4133769     366.2689     72.39186      1.376     3.80      5.09536     20.41355     53.49478         5     0.854     0.485 -47.55   0
       343    550.1672     82.2600 300.3152910 +22.5570593     6457.143     72.39186      1.332     2.34     4.216511     20.41355      856.649        35     1.178     1.079  83.41   0
       344    435.8454     81.9657 300.2798028 +22.5227289     605.4949     72.37344      1.328     2.47     4.171494     20.41355     100.3702        10     0.925     0.696 -87.12   0
       345    607.5779     76.6814 300.3349756 +22.5726505     276.2078     72.31815      1.280     4.04     4.357642     20.41355     33.55095         5     0.955     0.489  85.16   0
       346    570.7645     76.2765 300.3236436 +22.5615087     350.7515     72.31815      1.434     3.61     4.259943     20.41355      43.8915         7     0.957     0.576 -68.71   0
       347    744.2352     73.4713 300.3785857 +22.6126486     319.2622     72.35501      1.328     3.30     4.826524     20.41355     48.03901         5     0.771     0.410  25.84   0
       348    802.6735     71.7810 300.3973452 +22.6296579     776.8549     72.35501      1.502     2.69     4.646409     20.41355      118.628        13     1.030     0.779 -50.40   0
       349    895.1112     70.8672 300.4264579 +22.6570648    -1.654946     72.46551      0.288     2.16     4.585346     20.41355      76.8242         8     0.763     0.646  46.85   0
       350    243.2554     66.0513 300.2250556 +22.4604489     355.1455     72.39186      1.435     4.92     4.977434     20.41355     46.50733         8     0.924     0.760  -4.06   0
       351    601.6562     64.9475 300.3369349 +22.5675043     545.7162     72.39186      1.464     2.63     4.287405     20.41355     68.81404         9     0.938     0.606  35.72   0
       352    678.5302     62.3224 300.3617289 +22.5897700     6264.805     72.46551      1.340     2.37      4.91291     20.41355     840.1773        33     1.200     1.040  69.83   0
       353    453.1966     61.1841 300.2919384 +22.5219555     1523.364      72.2628      1.394     3.08     4.130086     20.41355     170.0446        18     1.185     0.901  47.84   0
       354    719.7045     59.7498 300.3753901 +22.6013588     888.3447      72.4287      1.361     2.27     4.900095     20.41355     135.1602        14     0.920     0.844  70.67   0
       355    789.7307     57.5361 300.3979287 +22.6216869      365.076     72.39186      1.480     4.47     4.775547     20.41355     39.28072         7     0.898     0.631  75.05   0
       356    735.4989     55.8798 300.3815656 +22.6049749     625.5542      72.4839      1.524     2.69     4.906898     20.41355     79.82683         9     0.850     0.747 -77.84   0
       357    202.3750     54.0279 300.2162430 +22.4447437     585.8597     72.33658      1.430     3.25     5.140053     20.41355     85.82962        14     1.182     0.780 -33.16   0
       358   1005.4161     53.7203 300.4664174 +22.6851428     619.4005     72.37344      1.671     3.59     4.085593     20.41355      58.1451         7     0.937     0.551  67.63   0
       359     49.4640     54.1813 300.1686741 +22.3989519     283.1516     72.31815      1.520     3.08     5.130666     20.41355     42.80011         6     0.719     0.644 -37.60   0
       360    260.8048     51.9882 300.2350703 +22.4616688     298.0504     72.22589      1.404     2.74     4.709059     20.41355     40.34419         5     0.784     0.484 -37.58   0
       361    774.1380     51.2963 300.3950917 +22.6152247     473.2117     72.44711      1.138     2.18     4.852084     20.41355     71.05538         8     0.757     0.641 -45.67   0
       362    737.8115     46.1940 300.3854255 +22.6028822     835.0768     72.22589      1.694     5.22     4.938031     20.41355     80.71021        13     1.363     0.718  45.54   0
       363    722.7225     47.1933 300.3804002 +22.5986520     2848.946     72.28126      1.360     2.52     4.939421     20.41355      344.328        23     1.146     0.977  63.33   0
       364    363.3949     47.8378 300.2683226 +22.4912170     557.4406     72.37344      1.525     4.38     4.139933     20.41355     67.98345         9     1.204     0.708  64.31   0
       365     16.2609     41.0689 300.1626094 +22.3852329     843.9024     72.39186      1.652     6.16     5.104444     20.41355     88.06223        15     1.252     1.127  67.78   0
       366    809.3392     38.9129 300.4100762 +22.6222011     1582.033     72.44711      1.436     2.60     4.885718     20.41355     211.2048        18     1.024     0.948  69.09   0
       367    747.2399     31.8391 300.3930158 +22.6015771     727.7543      72.4287      1.408     3.48     4.978882     20.41355     107.8073        13     1.103     0.826 -65.91   0
       368    552.6963     31.1620 300.3326402 +22.5431302      1086.09     72.33658      1.393     3.03     4.137736     20.41355     125.7576        20     1.186     0.935  71.51   0
       369    125.7581     31.2911 300.1997978 +22.4152500     353.3096     72.35501      1.446     3.94     5.215497     20.41355     62.84914        10     1.083     0.722 -62.87   0
       370    456.7726     29.3559 300.3033666 +22.5138803     814.0259     72.37344      1.282     2.74     4.068286     20.41355     110.5412        12     0.926     0.823 -83.18   0
       371    838.5777     28.1295 300.4226849 +22.6278515     445.2135     72.39186      1.488     4.58     4.972102     20.41355     49.39379         8     1.255     0.545  22.05   0
       372    473.9665    941.5439 300.0125341 +22.7809130     576.1399     72.37344      1.966     5.67     2.646513     20.41355     37.97329        12     1.177     0.769 -36.09   0
       373    796.1039     19.9873 300.4120846 +22.6127964     649.0021     72.28126      1.385     2.80     5.024572     20.41355      91.2029         8     0.906     0.675  63.89   0
       374     20.5454     19.4194 300.1709558 +22.3803018     389.5725     72.33658      1.518     3.91     5.098982     20.41355     43.17433         5     1.003     0.436 -14.80   0
       375    650.4581     16.8274 300.3677295 +22.5682846     363.3418     72.35501      1.117     1.78     4.675793     20.41355     51.80833         5     0.657     0.453 -64.28   0
       376    553.7703     17.0541 300.3375465 +22.5393967     370.3697     72.35501      1.303     2.49     4.112826     20.41355     50.04089         7     0.724     0.651 -79.96   0
       377    286.6903   1015.9368 299.9300772 +22.7460242     1067.473     72.44711      2.223     7.88     72.26978     20.41355     59.58353        23     2.014     1.049  76.79  19
       378    542.9149   1016.1888 300.0097056 +22.8230123     417.6978     72.29971      1.936     6.29      1.98239     20.41355     29.42413         8     1.106     1.005 -49.65   0
       379    275.8383     11.3693 300.2529083 +22.4545057     257.1766     72.35501      1.264     3.18     4.057838     20.41355     37.35484         5     0.757     0.426 -21.18   0
       380    412.4531   1014.0150 299.9698156 +22.7832308     476.2725     72.35501      1.686     4.56     4.253049     20.41355     48.24391         8     1.112     0.737 -18.62   0
       381    223.9303    991.2182 299.9186095 +22.7200942     2462.764     72.37344     30.978    59.51     54.23883     20.41355     63.85218       274    17.806     5.518  69.58  19
       382    603.7686   1007.2708 300.0315523 +22.8387162     2213.225     72.35501      1.826     4.41     2.929301     20.41355     156.8414        28     1.395     1.253 -49.89   0
