#   1 NUMBER                 Running object number                                     
#   2 X_IMAGE                Object position along x                                    [pixel]
#   3 Y_IMAGE                Object position along y                                    [pixel]
#   4 ALPHA_J2000            Right ascension of barycenter (J2000)                      [deg]
#   5 DELTA_J2000            Declination of barycenter (J2000)                          [deg]
#   6 FLUX_APER              Flux vector within fixed circular aperture(s)              [count]
#   7 FLUXERR_APER           RMS error vector for aperture flux(es)                     [count]
#   8 FLUX_RADIUS            Fraction-of-light radii                                    [pixel]
#   9 FWHM_IMAGE             FWHM assuming a gaussian core                              [pixel]
#  10 BACKGROUND             Background at centroid position                            [count]
#  11 THRESHOLD              Detection threshold above background                       [count]
#  12 FLUX_MAX               Peak flux above background                                 [count]
#  13 ISOAREA_IMAGE          Isophotal area above Analysis threshold                    [pixel**2]
#  14 A_IMAGE                Profile RMS along major axis                               [pixel]
#  15 B_IMAGE                Profile RMS along minor axis                               [pixel]
#  16 THETA_IMAGE            Position angle (CCW/x)                                     [deg]
#  17 FLAGS                  Extraction flags                                          
         1    689.8337     16.5322 300.3928871 +22.6015425     841.8135     72.23306      1.494     3.30      5.85256     20.37914     101.4677        13     1.039     0.911 -70.67   0
         2    495.5590     15.9144 300.3325507 +22.5432432     1058.338     72.21465      1.500     2.51      5.78551     20.37914     135.4717        16     1.089     0.940  25.01   0
         3    399.2855     13.8089 300.3032525 +22.5138271     825.8562     72.17783      1.697     3.15     6.264661     20.37914     93.56041        12     1.017     0.785  59.93   0
         4    170.7271      3.6836 300.2354077 +22.4424973     3828.897     67.69311      1.718     3.31      5.40619     20.37914     376.4462        38     1.432     1.304  27.59  24
         5    738.7609      4.3916 300.4120739 +22.6126831     586.6357     70.04734      1.412     4.28      6.21342     20.37914     68.58068        10     1.080     0.697  57.28  16
         6    197.8174   1002.2664 299.9197099 +22.7372877      1551.37     72.21465      3.629    12.87     83.79099     20.37914     47.22667        43     2.544     1.813 -89.75   3
         7     85.2158   1010.1973 299.8821191 +22.7057740     5243.947     72.08572     16.946   109.28     76.54233     20.37914     167.4799      2288    19.759    16.770 -44.65  27
         8     75.2019    946.1483 299.8998363 +22.6844062     5397.233     72.21465     30.513   117.10     26.09872     20.37914      1341.61      4569    21.796    17.457 -58.08  27
         9    638.1394    984.7140 300.0624955 +22.8643005     9567.404     72.34336      2.127     5.06     4.833226     20.37914     499.1191        55     1.665     1.581  24.25   3
        10    733.6603    987.2854 300.0914309 +22.8936686     546.2469     72.34336      1.630     4.35     4.660702     20.37914     42.45163         8     1.439     0.374  77.91   0
        11      4.8030   1022.7687 299.8530382 +22.6852436     1078.043     59.92437      4.585    10.62    -6.382219     20.37914     39.35215        19     2.591     1.214   6.29  26
        12    205.7655   1005.8466 299.9210173 +22.7406990     949.0031     72.26984      2.645     9.93     87.41795     20.37914     38.08926        16     2.484     1.108  50.15   3
        13    171.6362    999.4188 299.9124940 +22.7286159     2758.357     72.23306      5.842    23.21     81.68698     20.37914     57.42835       140     4.833     3.095  21.01  19
        14    166.0665    978.7941 299.9174700 +22.7210307      1355.39     72.23306      3.379    10.79     64.36056     20.37914     50.10195        28     3.027     1.073 -44.11   3
        15    164.3799    974.0153 299.9184997 +22.7191543      1670.16     72.21465     10.364    17.25       60.136     20.37914     53.52226        53     4.277     1.934  64.95   3
        16    229.5865   1000.6681 299.9301108 +22.7463607      868.549     72.25145      2.236     7.90     76.29504     20.37914     47.73309        16     1.787     0.976  84.80   2
        17    925.7979    970.3905 300.1568493 +22.9463873     832.3351     72.04883      2.163     7.26     4.653681     20.37914     50.17229        22     1.665     1.472  75.39   0
        18    233.5624   1001.2731 299.9311507 +22.7477270     570.9568     72.17783      1.620     4.56     71.54545     20.37914     44.60235         6     1.216     0.486  44.97   3
        19    651.0255    954.0026 300.0764999 +22.8593470     6919.032     72.17783      2.089     4.69     4.833226     20.37914     378.8942        53     1.703     1.514  35.14   0
        20    151.2012    950.5560 299.9220307 +22.7084732     719.7946     72.23306      3.292     3.45     40.17129     20.37914     28.53691         5     1.254     0.275  54.29   0
        21    243.3211    947.9591 299.9515254 +22.7353639     63.12717     72.21465      1.279     3.78     23.34267     20.37914     33.85692         5     0.883     0.466  87.62   0
        22    161.3874    946.3211 299.9265753 +22.7103148     1009.747     72.21465      5.902     7.78     36.13636     20.37914     43.19609        11     2.157     0.785  28.77   2
        23    559.4582    944.6255 300.0510199 +22.8292080     1509.602     72.23306      1.850     4.64     4.887872     20.37914     100.3195        24     1.430     1.123 -15.30   0
        24    198.5098    986.7255 299.9249798 +22.7330389     3883.245     72.39845      7.577    24.55     69.72726     20.37914     78.44925       259     5.195     4.730  60.03   3
        25    170.7758    993.1069 299.9142794 +22.7265478     2404.611     72.15942      7.187    19.37     76.41138     20.37914     58.64732        82     4.624     2.254 -45.00   3
        26    453.2906    941.3462 300.0190220 +22.7964371     989.6525     72.28823      1.923     4.78     4.887875     20.37914     68.52081        22     1.321     1.151  68.70   0
        27    383.7984    938.9997 299.9981512 +22.7749261     6645.426     72.01193      2.030     4.41     5.275314     20.37914     448.5493        52     1.604     1.508  25.67   0
        28    218.8643    983.9963 299.9321982 +22.7383628     4808.247     72.23306      8.537    27.61     65.81954     20.37914     88.84117       398     6.248     5.098 -54.86   3
        29    416.7594    925.8613 300.0126839 +22.7810401     505.1076     72.21465      2.065     6.22     5.144236     20.37914     45.88124        10     1.298     1.109  32.45   0
        30    237.3100    973.6784 299.9412914 +22.7409374     7628.945     72.36172      8.701    31.67     46.37836     20.37914     159.6045       701    10.274     4.838  61.09  18
        31    930.2164    918.1052 300.1752326 +22.9326917     2313.612     72.15942      2.130     5.56     4.801107     20.37914     113.8392        37     1.556     1.516   4.46   0
        32    429.6129    913.7490 300.0206240 +22.7814184      369.595     72.26984      1.360     2.93     5.111736     20.37914     35.07132         5     0.714     0.463  73.95   0
        33    214.2248    910.1074 299.9547828 +22.7157793      535.121     72.17783      4.037     4.23     11.19699     20.37914     31.30627         5     1.537     0.333 -45.62   0
        34    718.7869    906.6401 300.1130218 +22.8660561     776.7293     72.25145      2.031     5.96     4.832507     20.37914     48.09552        18     1.319     1.153  42.42   0
        35    222.0071    904.0278 299.9591801 +22.7163698     594.2285     72.23306      3.776     3.77     9.694163     20.37914     27.57456         5     1.663     0.245  31.96   0
        36    753.7701    901.0554 300.1257439 +22.8749349     1036.351     72.25145      1.949     4.79     4.793828     20.37914     71.60289        23     1.399     1.193  21.30   0
        37    211.6181    898.8668 299.9576267 +22.7117732     945.0822     72.21465      4.804     5.27     10.32901     20.37914     32.34687         8     1.339     0.587 -62.35   2
        38    245.0592    996.6531 299.9362297 +22.7498511     1745.033     72.28823      3.654    12.89     55.77576     20.37914     57.40743        40     2.443     1.892 -81.13   3
        39    240.3277    999.9581 299.9336829 +22.7493795      722.266     72.21465      1.654     4.01     63.66704     20.37914     44.48721         5     1.287     0.357 -58.85   3
        40    776.1140    894.7083 300.1347743 +22.8798067     11383.26     72.39845      1.957     4.42     4.752944     20.37914     692.7062        57     1.563     1.495  52.75   0
        41    821.6390    895.0027 300.1488750 +22.8935305     554.4332     72.26984      1.910     7.25     4.667986     20.37914     48.75508        12     1.338     1.101  17.86   0
        42    967.0286    894.7339 300.1943194 +22.9370030     424.4273     72.23306      1.991     4.50      5.11634     20.37914     33.52606         7     1.300     0.442   0.01   0
        43    354.9508    998.2464 299.9699039 +22.7832717     486.8842     72.25145      1.955     4.72     5.415871     20.37914     45.50185         7     1.192     0.770  58.31   0
        44     88.0906    886.8904 299.9231096 +22.6712816      1220.38     72.39845      8.225    10.01     10.66252     20.37914     47.60526        24     2.219     1.260  39.49   0
        45    828.7382    882.0360 300.1553051 +22.8919329     466.8003     72.25145      1.833     4.96     4.676532     20.37914     38.51777         8     1.059     0.773  51.39   0
        46    481.2006    882.7094 300.0467789 +22.7879769     495.9398     72.10415      1.873     4.54     4.994809     20.37914     41.43889         7     1.209     0.484  67.86   0
        47    784.7852    876.7916 300.1433036 +22.8772590     1347.998       72.141      1.930     4.36     4.761703     20.37914     94.22691        21     1.233     1.132  54.41   0
        48    908.3604    888.5386 300.1780277 +22.9176515     329.0348     72.23306      1.450     4.26     4.788176     20.37914     33.44394         6     1.101     0.470   9.53   0
        49    968.3968    875.9182 300.2008643 +22.9320067     359.0575       72.141      1.808     5.43     5.137757     20.37914     33.13862         7     1.135     0.732 -28.63   0
        50    637.5768    874.8682 300.0980412 +22.8325972     329.8112     72.21465      1.337     3.14     5.014279     20.37914     52.94865         7     0.846     0.611  13.15   0
        51    822.0000    870.0726 300.1570933 +22.8864780      1019.23     72.10415      2.337     4.23     4.685878     20.37914     54.73985        11     1.345     0.573 -74.44   2
        52      5.5079   1009.4855 299.8575778 +22.6816478     1334.608     72.39845      9.100    12.26    -4.235861     20.37914     35.12715        19     2.410     1.737  84.08  19
        53    871.4506    861.6473 300.1752564 +22.8988707     745.8849     72.26984      2.075     6.45     4.717903     20.37914     48.37844        17     1.325     1.194  14.96   0
        54    722.6500    860.6500 300.1291790 +22.8540069     712.5206     72.26984      1.797     6.88     5.079507     20.37914      47.4954        16     1.276     1.041 -19.47   0
        55    435.0240    856.6672 300.0408670 +22.7666592     4405.803     72.21465      1.874     4.19     5.146997     20.37914     331.1953        41     1.471     1.406  35.91   0
        56    734.7730    857.9619 300.1338322 +22.8568672     506.9428     72.25145      2.294     5.96     5.079507     20.37914     38.65396         9     1.273     0.785  56.15   2
        57    732.0000    857.9027 300.1329870 +22.8560194     330.1249     72.10415      1.671     3.70     5.079507     20.37914     37.71146         5     1.269     0.310 -78.11   2
        58    213.4995    845.6445 299.9755136 +22.6970705     440.7698     72.25145      1.727     5.26     6.452189     20.37914      40.9052         7     1.158     0.674  29.88   0
        59    546.1242    991.5022 300.0316203 +22.8386642     2378.874     72.38009      2.135     4.98      4.83466     20.37914     119.3832        38     1.629     1.407  26.07   0
        60    161.0124    842.3618 299.9602570 +22.6803861     673.2682     72.23306      1.906     4.03     7.917399     20.37914     61.05334        14     1.058     0.992 -17.15   2
        61    158.0000    842.3263 299.9593318 +22.6794723     449.4261     72.10415      1.974     3.77     7.847488     20.37914     44.07277         5     1.202     0.340  81.69   3
        62    137.5686    839.2285 299.9539855 +22.6724552     1652.544     72.23306      1.960     4.75     7.249335     20.37914     112.9583        31     1.570     1.320  17.46   0
        63     69.7565    840.6780 299.9324323 +22.6525286     561.7593     72.21465      1.817     3.39     6.088458     20.37914      42.0009         5     0.741     0.450  12.38   0
        64   1009.1523    828.9539 300.2288525 +22.9307158      2121.31     72.25145      2.056     4.79       5.2226     20.37914     113.8777        32     1.464     1.427  -2.74   0
        65     13.2150    829.3079 299.9185545 +22.6323047     520.4443     72.15942      2.736     5.30     5.199547     20.37914      42.1541         6     1.066     0.745 -67.15   0
        66    963.5184    827.1184 300.2152069 +22.9165237     2233.952     72.38009      2.128     4.99     5.082809     20.37914     114.5371        35     1.559     1.418   5.33   0
        67    668.9982    827.1112 300.1233585 +22.8282998     546.4716     72.15942      1.902     7.65     5.077986     20.37914     41.43293        12     1.677     0.975  74.68   0
        68    747.3815    821.3199 300.1496745 +22.8501209     702.5107     72.23306      2.074     5.75     5.040474     20.37914     46.16433        15     1.386     1.032  34.77   0
        69    615.1175    814.9156 300.1105319 +22.8086525     4895.906     72.36172      1.778     3.79     5.067083     20.37914     355.9263        39     1.394     1.314  46.48   0
        70    105.5669    814.9749 299.9519186 +22.6558994     376.8866     72.23306      1.491     4.49     5.938055     20.37914     30.72144         7     1.342     0.427  78.57   0
        71    417.1401    812.0211 300.0498113 +22.7484839     606.9698     72.17783      1.554     5.86     5.190198     20.37914     63.66323        11     1.092     0.884  19.12   0
        72    165.1868    808.6082 299.9725257 +22.6719558     1345.123     72.12257      1.902     4.24     6.008935     20.37914     114.0183        26     1.370     1.226 -13.24   0
        73    635.5586    807.6586 300.1192602 +22.8126939     574.7475     72.23306      1.578     4.38     5.075163     20.37914     74.19444        14     1.191     0.959  52.39   0
        74    185.5778    805.3760 299.9799175 +22.6771442     307.0061     72.19624      1.525     4.87     5.725312     20.37914     35.81219         7     0.930     0.723 -69.84   0
        75   1008.0799    795.2260 300.2394811 +22.9207016      1058.02     72.21465      1.971     6.50     5.072952     20.37914     56.42675        24     1.413     1.225  10.92   0
        76    791.2350    794.7435 300.1719863 +22.8556238      4154.93     72.25145      1.805     3.91     4.937232     20.37914     310.5065        36     1.389     1.308  37.06   0
        77    200.4675    788.9825 299.9898760 +22.6769065     425.7441     72.23306      1.240     2.32     5.550185     20.37914     61.35084         6     0.752     0.499 -89.94   0
        78    508.1123    787.0496 300.0862545 +22.7685839     588.5444     72.23306      1.561     4.49     5.129761     20.37914     56.17638        12     1.189     0.761  31.93   0
        79    154.4684    785.0431 299.9768507 +22.6619810     1056.122     72.21465      1.921     4.60     5.550682     20.37914     72.81802        21     1.276     1.237  34.13   0
        80    304.1668    777.0779 300.0260052 +22.7045857     53532.83     72.21465      1.824     3.61     5.299131     20.37914     4254.712       101     1.599     1.515  30.28   0
        81    569.5170    780.3166 300.1075695 +22.7850529     446.1913     72.36172      1.539     5.29     5.091568     20.37914     46.21164         9     1.084     0.728 -19.19   0
        82    562.0745    776.3697 300.1065336 +22.7816894     1705.738     72.25145      1.751     3.53      5.08902     20.37914     138.4509        24     1.260     1.113  29.83   0
        83    975.1804    775.7148 300.2355544 +22.9052437     872.3257     72.15942      1.830     5.34     5.074256     20.37914     62.09829        15     1.159     1.122  -8.23   0
        84    232.5137    775.1778 300.0043299 +22.6825557     479.7625     72.17783      1.682     4.55     5.502149     20.37914     43.17476        10     1.081     0.754  85.36   0
        85    590.8538    772.3919 300.1167923 +22.7891711     807.6379     72.23306      1.539     3.92     5.112185     20.37914     78.81145        16     1.223     0.854 -29.33   0
        86    677.9512    772.0975 300.1440292 +22.8151828     816.1404     72.26984      0.445     1.94     5.079507     20.37914     596.7025         5     0.414     0.284 -16.53   0
        87    602.2104    770.6157 300.1209079 +22.7920640      658.793     72.15942      1.730     5.99     5.121767     20.37914     48.75391        13     1.146     0.882  66.88   0
        88    921.6176    768.3530 300.2212327 +22.8870898     358.5292     72.26984      2.001     5.01     5.093164     20.37914     36.66389         6     1.175     0.606 -67.12   0
        89    707.5346    767.1628 300.1548541 +22.8226282     396.5852     72.23306      1.612     4.58     5.079507     20.37914     39.80272         6     1.015     0.586 -25.65   0
        90    744.6861    757.2610 300.1696537 +22.8309130     930.1617     72.34336      1.921     4.98     5.072238     20.37914     67.82716        15     1.218     0.923  37.17   0
        91    353.9044    754.3489 300.0488694 +22.7129740     31837.23     72.30661      1.765     3.54     5.397169     20.37914     2651.083        79     1.534     1.443  30.96   0
        92    368.0924    754.9250 300.0530982 +22.7173926     1992.684     72.39845      1.720     3.50     5.350106     20.37914     188.4912        27     1.303     1.238  20.54   0
        93    877.1084    750.5777 300.2131231 +22.8686536     2790.199     72.15942      1.817     3.72     5.104434     20.37914     208.3129        37     1.415     1.364  -5.42   0
        94    365.1519    748.8178 300.0541674 +22.7147582     658.7474     72.26984      1.785     5.13     5.366704     20.37914     43.89142        12     1.142     0.813 -74.50   0
        95    635.0439    746.5558 300.1389572 +22.7949920     989.8741     72.26984      1.575     3.80     5.131017     20.37914     78.59495        17     1.147     0.988   7.05   0
        96    236.5724    746.2063 300.0150064 +22.6754596     823.2522     72.23306      1.699     3.87     5.485288     20.37914     77.63992        12     1.019     0.922 -28.21   0
        97    471.7302    746.4722 300.0881103 +22.7460303     454.2733     72.30661      1.937     4.72     5.234574     20.37914     42.16192         7     1.034     0.611 -23.45   0
        98    482.2537    741.0396 300.0931526 +22.7476244     957.9613     72.23306      1.774     3.75     5.248215     20.37914     83.61959        16     1.141     0.975 -13.42   0
        99     41.7212    741.7864 299.9558544 +22.6157556     549.3347     72.23306      1.932     4.13     4.980006     20.37914     43.15411         8     0.921     0.761 -51.10   0
       100    883.1896    737.9696 300.2191172 +22.8668516     538.2072     72.23306      1.714     6.03     5.152221     20.37914     47.27864        12     1.270     0.806  68.24   0
       101    340.6368    736.5551 300.0505218 +22.7038894     429.5235     72.26984      1.776     5.61     5.424192     20.37914     32.37452         7     1.072     0.827 -24.86   0
       102    636.4907    735.5315 300.1429902 +22.7922592     322.9093     72.36173      2.292     6.08     5.143349     20.37914     31.79566         7     1.181     0.879  -1.91   0
       103    428.4245    736.3047 300.0779298 +22.7301320     398.8446     72.12257      1.339     2.88     5.204668     20.37914     46.58507         5     0.698     0.479  76.20   0
       104     70.0755    735.4327 299.9667321 +22.6224378     524.8421     72.23306      1.951     4.60     5.241967     20.37914     30.39161         7     1.095     0.548 -27.28   0
       105    861.2443    733.4254 300.2137481 +22.8589743     392.6083     72.25145      1.795     4.26     5.163099     20.37914     42.89259         6     0.748     0.691  82.24   0
       106    234.1515    730.8917 300.0192291 +22.6703391     550.1552     72.26984      1.799     4.87     5.486619     20.37914     54.40046         9     1.130     0.790  14.66   0
       107    557.6117    721.2017 300.1230697 +22.7645104     472.6448     72.04883      1.702     3.88      5.15609     20.37914     52.43132         8     1.044     0.721   3.97   0
       108    527.1506    719.1462 300.1142490 +22.7547926        743.3     72.26984      1.654     4.56     5.177659     20.37914     55.81232        13     1.235     0.803   3.14   0
       109    943.5568    715.9084 300.2451204 +22.8785868      4537.03     72.23306      1.809     3.75     5.231922     20.37914     288.4935        40     1.430     1.353  35.95   0
       110    548.9422    716.7001 300.1218316 +22.7606199     1383.203     72.32499      1.565     3.28     5.148472     20.37914     135.2194        20     1.230     1.000  25.55   0
       111    469.1596    716.6641 300.0969948 +22.7367017     408.2049     72.19624      1.868     5.20     5.287535     20.37914     42.20939         9     1.251     0.695  21.30   0
       112    932.0417    707.2346 300.2443455 +22.8726462      1739.25     72.28822      1.748     3.79     5.281889     20.37914      127.845        25     1.272     1.203 -71.11   0
       113    294.8603    700.8232 300.0478853 +22.6799108     897.3134     72.21465      1.653     4.06     5.435966     20.37914     86.15203        15     1.125     0.910  11.58   0
       114    758.5276    698.4526 300.1930775 +22.8181639     2534.162     72.23306      1.843     3.83      5.17609     20.37914     196.2415        37     1.699     1.227  20.12   0
       115    963.2065    697.4819 300.2572391 +22.8791733     1607.111     72.15942      1.811     4.36     5.309622     20.37914     128.6046        26     1.308     1.268  76.70   0
       116    840.5521    684.3691 300.2232323 +22.8386810     505.6376     72.26984      1.712     4.95     5.278607     20.37914     46.91262         8     0.956     0.726 -36.62   0
       117    143.8557    684.7531 300.0061343 +22.6300247     696.1711     72.26984      1.866     4.60      5.41872     20.37914     62.89928        11     1.140     0.899  14.43   0
       118    876.8033    675.4393 300.2374412 +22.8469693     149244.5     72.25145      1.758     3.57     5.360956     20.37914     12061.93       165     1.590     1.561  64.90   0
       119    639.3469    679.5266 300.1620757 +22.7770286     370.9159     72.26984      1.357     3.80     5.368768     20.37914     40.99995         6     0.962     0.432 -16.96   0
       120   1023.0886    677.2363 300.2825066 +22.8912789     873.4216     59.45681      1.482     3.76     5.404489     20.37914     96.67352        16     1.255     0.836 -85.44  24
       121    481.9900    676.7632 300.1139527 +22.7290897     126.5763     72.23306      1.279     3.79     5.370784     20.37914     32.57967         5     0.841     0.490  46.55   0
       122    729.2916    675.4391 300.1914388 +22.8027957     809.0308     72.23306      1.906     5.98     5.233049     20.37914     58.94564        14     1.237     0.947 -22.44   0
       123    909.5970    668.6923 300.2498639 +22.8548486     366.7412       72.141      1.449     2.49     5.413985     20.37914     44.01094         5     0.698     0.457  70.35   0
       124    563.0164    664.1492 300.1432877 +22.7497448     1557.223     72.23306      1.444     3.11     5.392352     20.37914     153.1402        19     1.089     0.990  30.46   0
       125    744.2698    661.5525 300.2006194 +22.8032917     9390.912     72.21465      1.632     3.17      5.25982     20.37914     899.4259        46     1.341     1.267  31.24   0
       126    226.6503    663.0564 300.0389319 +22.6486226       149.87     72.26984      1.227     4.48     5.477235     20.37914     30.80192         6     1.251     0.456 -83.05   0
       127    245.7356    656.4434 300.0470170 +22.6524463     4941.523     72.23306      1.735     3.33     5.473876     20.37914     433.9321        40     1.435     1.292  52.75   0
       128    327.9211    654.5371 300.0732084 +22.6765348     1079.187     72.32499      1.511     3.70     5.460559     20.37914     104.2584        19     1.197     1.064  53.20   0
       129    203.9386    652.3416 300.0353475 +22.6387385     419.5157     72.28823      1.380     3.46     5.462084     20.37914     45.75447         7     0.830     0.693 -64.61   0
       130    536.1597    650.1976 300.1394533 +22.7376914      733.472     72.23306      1.500     3.06     5.430477     20.37914     78.45937        16     1.121     0.868  37.41   0
       131    527.7416    642.2947 300.1393980 +22.7328996      3397.02     72.30661      1.589     3.10     5.481339     20.37914     315.1831        29     1.206     1.173 -14.93   0
       132    517.8173    635.8537 300.1383988 +22.7280763     1572.595     72.21465      1.766     3.68     5.514592     20.37914     130.3294        25     1.319     1.135  51.73   0
       133    912.0553    634.5185 300.2617315 +22.8457617     385.0388     72.26984      1.520     5.52     5.474628     20.37914     39.09838         8     1.019     0.843  22.49   0
       134    181.1294    632.0773 300.0348345 +22.6260845      670.798     72.34336      1.790     5.63     5.467426     20.37914     67.02055        14     1.514     0.938   7.18   0
       135    195.9011    630.8071 300.0398414 +22.6301485     637.1456     72.12257      1.736     4.02     5.476543     20.37914     56.28161        12     1.033     0.833 -24.87   0
       136    965.0479    627.7175 300.2804764 +22.8596698     453.2932     72.25145      1.793     3.80     5.454698     20.37914     45.68195         7     0.987     0.620  11.02   0
       137    252.8623    627.7461 300.0585543 +22.6463457     280.7473     72.28823      1.480     4.77     5.488439     20.37914     25.05316         7     1.029     0.626 -86.00   0
       138    221.3724    627.4204 300.0488640 +22.6368125     633.9759     72.23306      1.650     3.86     5.491455     20.37914     78.84557        12     1.212     0.747  64.02   0
       139    442.7003    625.7423 300.1182899 +22.7026655     1790.085     72.32499      1.595     3.06     5.446313     20.37914     183.2341        21     1.135     1.094  78.39   0
       140    476.9296    625.0310 300.1291796 +22.7127175     1036.854     72.23306      0.402     1.76     5.536059     20.37914     864.2938         6     0.445     0.223 -26.05   0
       141   1018.6823    623.4712 300.2985958 +22.8745022     943.5527     72.36172      1.961     4.54     5.403577     20.37914         60.4        19     1.316     1.091 -14.83  16
       142     96.6612    620.4350 300.0123497 +22.5974177     19971.32     72.25145      1.864     3.76     5.696241     20.37914     1634.563        71     1.590     1.495  32.17   0
       143     17.8273    622.0533 299.9873194 +22.5742420     789.9484     72.25145      2.398     5.25     5.861078     20.37914     57.20073        11     1.473     0.821  50.37   0
       144    527.3806    621.0529 300.1461844 +22.7266906     1005.966     72.21465      1.604     4.10     5.602714     20.37914     88.37363        17     1.279     0.893  41.35   0
       145    562.4408    619.9105 300.1574770 +22.7368658     347.0881     72.23306      1.511     5.65     5.614806     20.37914     41.01054         9     1.029     0.874  39.10   0
       146    582.8633    613.3976 300.1659546 +22.7411128     188.9777     72.23306      1.157     3.49     5.623555     20.37914     28.59552         5     0.793     0.442 -18.57   0
       147    945.8384    607.4217 300.2810736 +22.8480850      1110.02     72.25145      1.758     4.22     5.482851     20.37914     88.57938        21     1.270     1.125  88.76   0
       148     42.7925    604.4740 300.0007871 +22.5766849     1604.065     72.17783      2.181     5.33     5.833139     20.37914     109.8628        34     1.691     1.386  69.99   0
       149    812.4344    605.4880 300.2400844 +22.8075923       470.59     72.21465      1.571     5.13      5.39496     20.37914     43.81425         9     1.218     0.680  66.12   0
       150    109.2324    605.2890 300.0211765 +22.5968408     297.3242     72.19624      1.584     4.70     5.694987     20.37914     40.65623         6     1.081     0.580  22.99   0
       151    491.1195    601.6498 300.1411918 +22.7102540     437.2873     72.25145      1.567     4.93     5.625205     20.37914     54.05785        12     1.272     0.800  61.49   0
       152    885.8589    600.1935 300.2647066 +22.8280527     753.4496     72.19624      2.130     4.98     5.525165     20.37914     55.41867         9     0.993     0.708  -8.04   0
       153    447.7257    593.9760 300.1301706 +22.6950488     872.4089     72.26984      1.626     4.32     5.504533     20.37914     81.37162        17     1.251     1.014 -85.56   0
       154    916.2991    593.3348 300.2764311 +22.8351932     1678.787     72.32499      0.734     1.02     5.500488     20.37914      818.655         6     0.622     0.395  42.57   0
       155    596.1418    592.8132 300.1767765 +22.7391770     531.2738     72.19624      1.391     2.84     5.634058     20.37914      57.0573         8     0.795     0.671  50.44   0
       156    643.1702    591.1424 300.1919736 +22.7527828     468.8412     72.25145      1.554     3.70     5.506813     20.37914     47.18606         8     0.818     0.689 -28.16   0
       157    613.3102    590.9017 300.1827467 +22.7437702     393.1482      72.4168      1.414     2.99     5.606983     20.37914     69.44453         5     0.802     0.463 -28.68   0
       158    492.0004    589.8644 300.1452931 +22.7071331     966.1507     72.25145      1.645     3.14     5.640184     20.37914     92.41106        14     1.085     0.818 -16.74   0
       159    678.9144    588.4341 300.2039934 +22.7627098     243.3367     72.19624      1.788     5.18     5.409031     20.37914     28.41061         6     1.441     0.527  47.23   0
       160    925.8697    585.4011 300.2819938 +22.8357772     3280.575     72.17783      1.662     3.47      5.48452     20.37914      298.524        31     1.375     1.160  84.76   0
       161    457.5338    585.2942 300.1360438 +22.6954941     1677.931     72.36172      1.556     2.91     5.551066     20.37914     182.0284        22     1.135     1.054  39.86   0
       162   1023.4088    583.7836 300.3129605 +22.8645051     502.2948      57.5717      1.664     4.20     5.061506     20.37914     61.58683         7     0.970     0.668  88.06  24
       163     19.4667    578.5696 300.0019483 +22.5622576     4977.116     72.23306      1.880     3.89     5.874371     20.37914      438.979        43     1.518     1.387  20.61   0
       164    320.9477    571.9201 300.0978675 +22.6507259      9115.92     72.25145      1.582     3.14     5.464357     20.37914     824.4438        41     1.347     1.220  53.42   0
       165    443.3456    568.9736 300.1369252 +22.6865560     9155.782     72.26984      1.574     2.99     5.514081     20.37914     943.6782        51     1.382     1.257  57.01   0
       166    855.1819    563.2441 300.2671354 +22.8082479     1773.744     72.25145      1.614     3.59     5.495612     20.37914     157.6895        23     1.258     1.105 -76.45   0
       167    689.7670    565.5901 300.2147939 +22.7593957     218.2505     72.23306      1.073     2.41     5.438099     20.37914     46.69958         5     0.734     0.413  26.18   0
       168    939.8049    560.5979 300.2943962 +22.8328172      12601.6     72.04883      1.702     3.36     5.371886     20.37914     1090.734        53     1.389     1.354 -84.39   0
       169    504.0143    558.6240 300.1591786 +22.7017590     11536.01     72.25145      1.511     2.87     5.680929     20.37914     1230.553        47     1.299     1.221  51.25   0
       170    673.6965    554.6008 300.2133529 +22.7514254     577.1672     72.10415      1.362     4.08      5.48809     20.37914     60.21814        13     1.048     0.952 -22.22   0
       171    231.2950    553.8295 300.0758460 +22.6186626     1260.829       72.141      1.564     3.76     5.402833     20.37914     133.3528        19     1.201     1.038  53.15   0
       172    478.5276    551.6025 300.1535208 +22.6921070     349.4359     72.15942      1.565     4.68     5.672009     20.37914     39.82433         7     0.911     0.682 -76.27   0
       173    778.6324    547.1113 300.2484992 +22.7806936     850.5892     72.19624      1.518     3.34     5.364941     20.37914     90.53981        17     1.128     0.999  10.66   0
       174    435.6143    546.7380 300.1417372 +22.6778535     4498.858     72.19624      1.592     3.10     5.510861     20.37914     482.4155        34     1.270     1.219  16.82   0
       175    414.0413    545.2697 300.1354972 +22.6709683      1241.08     72.19624      1.506     3.25     5.438492     20.37914      123.431        20     1.153     1.005  33.26   0
       176    168.0958    544.5674 300.0591954 +22.5970604     854.8251     72.21465      1.704     3.77     5.381497     20.37914     67.60074        14     1.016     0.956  57.63   0
       177    855.6052    542.2562 300.2740820 +22.8023412     1683.511     72.19624      1.707     3.75     5.491566     20.37914     133.5388        23     1.274     1.114 -56.50   0
       178    552.3148    534.3492 300.1821048 +22.7092538     207057.1     72.21465      1.530     2.78     5.694935     20.37914     22532.88       203     1.536     1.479   0.01   0
       179    736.1259    539.3748 300.2377575 +22.7657434     802.2101     72.25145      1.481     4.24     5.377487     20.37914     95.58348        18     1.265     1.029 -79.90   0
       180    376.1424    540.4663 300.1252584 +22.6582335     255.3648     72.26984      1.363     2.21     5.439101     20.37914     42.03514         5     0.698     0.462  20.97   0
       181    238.4417    534.1249 300.0844662 +22.6151478     3580.782     72.21465      1.671     3.28     5.402198     20.37914     339.6637        33     1.275     1.231  31.87   0
       182    804.7527    530.7547 300.2619552 +22.7838120     589.7228     72.25145      1.629     3.18     5.399658     20.37914     57.55813         9     0.890     0.695 -72.94   0
       183    822.9679    528.0167 300.2685251 +22.7884779     160.4932     72.21465      1.715     5.73     5.436995     20.37914     30.07577         6     1.259     0.734  66.33   0
       184    583.7548    521.4065 300.1961015 +22.7149519     234.5384     72.25145      1.426     4.58     5.644807     20.37914     28.31539         5     0.816     0.731  75.22   0
       185    442.9564    514.8619 300.1543715 +22.6708976     2881.854     72.23306      1.624     2.77     5.546423     20.37914     285.1523        34     1.513     1.133 -83.69   0
       186    287.3843    516.9976 300.1052535 +22.6248979     418.0479     72.08572      1.402     4.97     5.440844     20.37914     44.04163         8     0.997     0.701  20.84   0
       187    854.6912    511.1819 300.2838853 +22.7931342     454.2352     72.15942      1.625     5.26     5.498806     20.37914     37.73069         9     1.226     0.733 -85.84   0
       188    760.2693    503.5036 300.2569304 +22.7626618     394.7066     72.36172      1.307     4.59     5.439374     20.37914     60.28411         8     1.067     0.560  19.75   0
       189    839.9227    500.9346 300.2826052 +22.7857676     1768.526     72.32499      1.533     3.30     5.487629     20.37914     158.1542        23     1.290     1.036  83.81   0
       190    711.1188    498.5587 300.2432117 +22.7465253     2635.438     72.19624      1.549     2.91     5.461972     20.37914     262.9116        27     1.208     1.103  77.85   0
       191    955.3831    496.4099 300.3200969 +22.8190226     454.8708     72.17783      1.469     4.06     5.131916     20.37914     47.04536         9     1.025     0.616   8.12   0
       192    616.2252    495.7772 300.2145386 +22.7173117     329.0927     72.19624      1.375     2.99     5.521764     20.37914     55.65595         7     0.909     0.583 -21.10   0
       193    498.5122    494.3340 300.1783357 +22.6816427     729.6987     72.32499      1.536     3.62     5.692205     20.37914     75.31429        12     1.008     0.896  85.05   0
       194    968.4457    492.9395 300.3253001 +22.8219336     1184.562     72.25145      1.541     3.30     5.026402     20.37914     113.7515        15     1.058     0.902  29.12   0
       195    954.1533    491.6972 300.3212429 +22.8172994     818.0836     72.26984      1.716     4.85     5.135108     20.37914      66.9986        14     1.244     0.929 -36.32   0
       196    840.2641    490.8949 300.2859707 +22.7829834     2319.215     72.32499      1.815     4.09     5.495238     20.37914     205.0723        29     1.569     1.069  76.34   0
       197    593.7233    489.1559 300.2096763 +22.7086706     742.0864     72.21465      1.742     4.41     5.549054     20.37914     63.66457        12     1.303     0.703  -4.67   2
       198    593.1838    485.5807 300.2106687 +22.7074817     580.7289     72.21465      2.137     3.57     5.544629     20.37914     39.56831         8     0.894     0.659   8.55   3
       199    379.4146    488.7747 300.1430567 +22.6443684     274.4323     72.25145      1.423     4.10     5.446201     20.37914     37.31992         5     0.999     0.482 -83.17   0
       200    878.4369    486.1675 300.2994129 +22.7930496     4411.342     72.25145      1.591     2.94     5.472241     20.37914     416.1938        35     1.290     1.210  66.76   0
       201    432.2135    487.8559 300.1597926 +22.6599221     391.8839     72.21465      1.317     3.37     5.512066     20.37914     50.86888         7     0.874     0.575  27.64   0
       202    539.1788    482.2660 300.1949197 +22.6903557     419.1185     72.21465      1.410     3.58     5.698496     20.37914     38.29377         7     0.860     0.586 -29.96   0
       203    970.3611    477.0703 300.3310490 +22.8179430     677.5963     72.19624      1.447     3.71      5.00135     20.37914     70.11783        10     1.083     0.664   8.40   0
       204    110.6856    476.0789 300.0635738 +22.5601921     984.8473     72.38009      1.704     3.87     5.598785     20.37914     96.10355        19     1.215     1.102  84.40   0
       205    966.4377    466.0165 300.3334124 +22.8135900     325.6669     72.23306      1.239     3.07     5.029019     20.37914     48.15203         6     0.887     0.517  -0.80   0
       206    710.2925    460.8149 300.2552052 +22.7354294     481.3275     72.15942      1.350     3.00      5.47637     20.37914     75.25407         7     0.926     0.526  15.62   0
       207    319.6590    458.6964 300.1342198 +22.6178267     325.1412     72.30661      1.660     4.41     5.443721     20.37914     30.69363         6     1.046     0.529  57.10   0
       208    651.9181    456.7876 300.2383168 +22.7167947     788.6212     72.21465      1.519     3.22     5.465527     20.37914     86.37029        14     1.033     0.908  65.34   0
       209    599.9632    458.5093 300.2215675 +22.7017326     363.4692     72.21465      1.486     2.87     5.481216     20.37914     43.79195         5     0.732     0.599 -84.14   0
       210    966.3549    449.2307 300.3388347 +22.8087376     602.2773     72.26984      1.632     6.25     5.025372     20.37914     59.16235        13     1.353     0.841  65.72   0
       211    712.5552    448.8385 300.2597975 +22.7326642      964.864     72.30661      1.526     2.91      5.47637     20.37914     101.0789        14     0.972     0.903 -21.95   0
       212    869.8702    444.9780 300.3101093 +22.7786422     1056.895     72.23306      1.641     3.68      5.49098     20.37914     94.95102        18     1.176     1.030  55.54   0
       213    854.1383    441.5401 300.3063176 +22.7729455     624.3019     72.26984      1.516     4.16     5.504519     20.37914      71.1535        13     1.179     0.870  86.56   0
       214    834.6332    441.8582 300.3001302 +22.7671993     222.5423     72.25145      1.179     2.97     5.502001     20.37914     43.38636         5     0.729     0.451  72.82   0
       215    598.4214    439.2868 300.2273255 +22.6957469     3276.904     72.15942      1.489     2.77     5.465675     20.37914     350.5434        28     1.151     1.130 -60.31   0
       216    959.0156    438.6504 300.3399780 +22.8034987     484.6028     72.25145      1.490     3.73      5.07732     20.37914      50.2339         9     0.988     0.601  47.58   0
       217    438.4773    426.1190 300.1817788 +22.6440634     497.9559     72.34336      1.579     3.87     5.762277     20.37914     54.47685         8     0.960     0.754 -40.26   0
       218    985.9403    425.2593 300.3527270 +22.8077030     339.4529     72.30661      1.532     3.67     4.864046     20.37914     36.08996         5     0.803     0.512  57.27   0
       219   1009.9299    418.5375 300.3623963 +22.8129467     1411.707     72.26984      1.759     3.68     4.673815     20.37914     126.0789        22     1.269     1.125   3.37   0
       220    968.2428    417.3378 300.3497742 +22.8001296     946.0864     72.23306      1.601     3.64     5.002796     20.37914     82.51644        19     1.187     1.046  71.83   0
       221    881.6752    418.8119 300.3222837 +22.7746506     448.5451     72.25145      1.296     3.07     5.451377     20.37914     65.62908         9     1.026     0.659 -10.77   0
       222    708.9653    413.3937 300.2701808 +22.7214007     941.1926     72.23306      1.319     2.92     5.468177     20.37914     111.2367        15     1.007     0.892 -35.03   0
       223    504.8778    413.8115 300.2064508 +22.6604142     410.5349     72.21465      1.352     3.41     5.754905     20.37914     49.53052         6     0.754     0.548  28.87   0
       224    212.9128    411.1053 300.1164501 +22.5721752     694.8827      72.4168      1.561     3.88     5.159526     20.37914     70.40453        13     1.197     0.899  58.29   0
       225    275.4081    407.0509 300.1372085 +22.5897362     3783.948     72.23306      1.572     3.02     5.392718     20.37914     377.8925        32     1.333     1.131  38.90   0
       226   1008.5088    405.7979 300.3660867 +22.8088569     4441.126       72.141      1.683     3.35     4.730423     20.37914      371.919        35     1.343     1.251 -45.41   0
       227    222.5788    401.7394 300.1224958 +22.5723820     7633.591     72.17783      1.657     3.12     5.190541     20.37914     808.7144        45     1.401     1.279  60.59   0
       228    601.1620    401.6399 300.2403957 +22.6857480     403.9221     72.30661      1.840     3.38     5.406332     20.37914     34.23502         5     0.768     0.430 -19.61   0
       229    988.4610    396.8857 300.3627210 +22.8002957      1769.26     72.34336      1.627     3.29     4.928188     20.37914     160.2539        24     1.256     1.128  73.21   0
       230    363.3703    396.0140 300.1681645 +22.6129177     4787.658     72.25145      1.512     2.88     5.585425     20.37914      492.841        32     1.254     1.126  57.24   0
       231    607.5575    392.7934 300.2452589 +22.6851202     18639.67     72.25145      1.529     2.81     5.371879     20.37914     2140.325        67     1.395     1.297  55.11   0
       232    624.7784    393.0433 300.2505442 +22.6903479     916.4149     72.28823      2.018     6.44     5.384868     20.37914     52.12342        17     1.627     0.892 -43.34   0
       233    454.6674    394.4042 300.1971108 +22.6398006     444.8385     72.21465      1.964     3.50     5.824875     20.37914      35.4094         5     0.767     0.460 -16.21   0
       234    234.7615    391.1338 300.1297266 +22.5729866     293.7431     72.21465      1.434     4.55     5.281764     20.37914     36.67185         6     0.945     0.622 -32.78   0
       235    851.5338    389.0398 300.3225415 +22.7570692     275.7993     72.19624      1.430     3.46     5.404914     20.37914     38.56884         5     0.759     0.602  -5.74   0
       236    804.5609    383.6170 300.3096499 +22.7414527     382.0949     72.25145      1.406     3.74     5.412529     20.37914     36.96591         8     0.912     0.681  -3.03   0
       237    941.1695    375.5443 300.3548864 +22.7800083     660.1918     72.25145      1.430     3.35      5.34798     20.37914     71.95712        12     0.998     0.809  62.02   0
       238    478.7807    374.8538 300.2109630 +22.6414046     330.0544     72.21465      1.336     2.53     5.845914     20.37914     42.23578         6     0.716     0.569  41.98   0
       239    650.9462    374.3802 300.2647545 +22.6928174     198.5237     72.21465      1.224     3.93      5.38368     20.37914     38.64833         6     0.834     0.649 -36.61   0
       240    162.1811    372.6990 300.1131311 +22.5459449     2044.331     72.15942      1.665     3.44     5.367938     20.37914     213.5831        28     1.255     1.189  44.64   0
       241    548.2167    362.2520 300.2366791 +22.6585752     6808.813     72.23306      1.482     2.87     5.426491     20.37914     665.1658        39     1.269     1.150  79.52   0
       242    961.9418    362.7871 300.3655078 +22.7825533     1299.912     72.19624      1.628     3.40     5.246421     20.37914     118.7704        20     1.217     1.062   9.45   0
       243    262.9330    361.5814 300.1480786 +22.5729394     579.7733     72.21465      1.390     3.01     5.463737     20.37914     78.21899        12     1.030     0.732  55.24   0
       244    121.0090    354.7810 300.1061402 +22.5284623     571.8145     72.19624      1.594     3.06      5.50217     20.37914     69.41172         7     1.059     0.549 -25.19   0
       245    808.3934    354.5276 300.3202829 +22.7342347     401.6961     72.17783      1.622     3.72     5.330418     20.37914     42.41005         6     0.950     0.419  18.54   0
       246    661.7893    352.3419 300.2752836 +22.6897280     501.9609     72.19624      1.619     4.05     5.357338     20.37914     63.98624        11     1.101     0.867  87.48   0
       247    752.3812    351.2586 300.3038764 +22.7165319     1188.311     72.19624      1.582     3.14     5.329011     20.37914     124.7354        22     1.294     0.994 -89.94   0
       248    454.8991    348.4800 300.2120818 +22.6266744     6267.267     72.36172      1.472     2.76     5.875247     20.37914     718.1427        34     1.263     1.112  76.92   0
       249    846.9476    343.0494 300.3360318 +22.7424706     1515.698     72.26984      1.620     2.96     5.276539     20.37914     148.7565        26     1.351     1.085 -58.86   0
       250    944.3177    343.4939 300.3662669 +22.7717309     571.8538     72.39845      1.459     4.11     5.385806     20.37914     73.20375        10     1.013     0.828 -60.82   0
       251    439.3304    337.1771 300.2109002 +22.6187642     430.3716     72.25145      1.412     4.29      5.89159     20.37914     49.36955         9     0.989     0.859 -69.87   0
       252    522.0921    335.2167 300.2373111 +22.6429831     454.7487     72.15942      1.422     3.74      5.57368     20.37914     45.44176         8     0.816     0.698 -44.52   0
       253    502.5791    333.1661 300.2318984 +22.6365512     263.7114     72.25145      1.192     4.35     5.715989     20.37914     37.75745         7     0.922     0.585   3.99   0
       254    820.0440    330.7628 300.3316258 +22.7308868     678.1551     72.30661      1.576     4.09     5.285233     20.37914     60.69765        12     1.016     0.868 -77.59   0
       255    342.5296    327.6423 300.1838576 +22.5870336     2540.672     72.19624      1.555     2.81     5.777635     20.37914     287.4145        28     1.187     1.156  48.86   0
       256     60.7339    325.0624 300.0970398 +22.5018664     949.9414     72.26984      1.672     3.95     5.663253     20.37914     88.99076        19     1.250     1.064  -4.66   0
       257    311.7722    317.0208 300.1777301 +22.5747696     29795.24     72.21465      1.572     2.99     5.763134     20.37914     2940.199        79     1.490     1.319  58.43   0
       258    846.5482    314.8289 300.3450614 +22.7342346     1581.744     72.25145      1.604     2.89     5.254092     20.37914     163.4101        20     1.182     1.001 -69.71   0
       259      8.0525    304.7615 300.0872488 +22.4802497     4900.581     72.23306      1.826     3.53     5.990883     20.37914     500.7561        44     1.469     1.434  69.57  16
       260    761.6804    303.5547 300.3222500 +22.7055974     650.5142     72.21465      1.554     3.41     5.256417     20.37914     77.44785         8     1.042     0.536  49.52   0
       261    410.1533    302.6491 300.2130148 +22.6001051     425.2204     72.26984      1.458     3.25     5.949223     20.37914     62.01703         9     0.999     0.668  72.45   0
       262    186.1174    303.4184 300.1430476 +22.5332208      489.066     72.19624      1.550     3.91     5.554958     20.37914     54.76696         6     0.996     0.439  14.60   0
       263    722.2393    296.9381 300.3120986 +22.6918916     2000.558     72.23306      1.497     2.79     5.266761     20.37914     203.1588        24     1.283     0.979  65.25   0
       264    530.9649    291.8990 300.2541249 +22.6331893     810.2144     72.21465      0.474     2.82     5.538162     20.37914     515.9483         7     0.585     0.401 -41.60   0
       265    937.5117    290.0399 300.3814819 +22.7543175     592.7756     72.21465      1.639     3.47     5.297073     20.37914     64.78874        11     0.963     0.918 -83.09   0
       266    790.7111    284.1308 300.3376027 +22.7086984      208.473     72.39845      1.737     5.45     5.236979     20.37914     29.35985         6     1.351     0.621 -43.12   0
       267    384.0542    281.3839 300.2117860 +22.5861788     2162.974     72.21465      1.702     4.02     5.938727     20.37914      192.544        24     1.417     0.955  63.38   0
       268    596.4070    281.1796 300.2779899 +22.6496987     402.0672     72.19624      1.307     1.89     5.378569     20.37914     47.17462         5     0.665     0.462  69.42   0
       269    822.8950    274.5049 300.3507621 +22.7155594     544.9128     72.39845      1.394     4.16     5.240402     20.37914      73.5862        11     1.081     0.823  62.50   0
       270    815.7921    275.0286 300.3483769 +22.7135850     382.6329     72.23306      1.393     4.90     5.240402     20.37914     52.83894         7     1.003     0.678  77.57   0
       271    705.4593    272.3950 300.3148271 +22.6798124      387.344     72.19624      1.328     3.66     5.314135     20.37914     49.05233         6     0.872     0.489   0.65   0
       272    673.9777    271.6527 300.3052543 +22.6701773     274.0992     72.23306      1.309     3.97     5.359298     20.37914     38.64852         5     1.034     0.437 -63.85   0
       273    459.8823    260.8790 300.2420452 +22.6029917      1196.32     72.36172      1.429     2.87     5.958964     20.37914     138.1642        18     1.109     0.934  28.15   0
       274    843.4073    254.2173 300.3637394 +22.7158608     404.9806     72.17783      1.615     4.32     5.251132     20.37914     41.36037         7     0.971     0.548  37.71   0
       275    704.7534    252.8541 300.3209439 +22.6739819     2157.416     72.26984      1.509     2.87     5.349296     20.37914     226.1099        23     1.217     1.007 -85.77   0
       276    966.1224    247.2260 300.4042954 +22.7505571     3151.061     72.23306      1.620     3.15     5.491361     20.37914     342.7268        31     1.306     1.208  75.16   0
       277    413.1852    236.8790 300.2352868 +22.5821124     741.0424     72.25145      1.460     3.13     5.989882     20.37914     73.64326        11     0.943     0.767 -38.08   0
       278    118.8890    230.8071 300.1456852 +22.4922249     589.4979       72.141      1.562     2.49     5.943348     20.37914     83.98115        10     0.898     0.715  62.44   0
       279     88.1042    230.5545 300.1361952 +22.4829293     1305.572     72.25145      1.825     4.33     5.964057     20.37914     117.8299        22     1.475     1.127 -19.00   0
       280    981.6574    227.9380 300.4153984 +22.7496532     571.0249     72.28823      1.624     4.22     5.580297     20.37914     58.50029        12     1.281     0.684  39.22   0
       281    171.7145    222.1794 300.1649103 +22.5055717     554.1614     72.15942      1.602     5.12     6.034565     20.37914     62.71492        14     1.444     0.906  28.66   0
       282    967.0585    220.6374 300.4132091 +22.7431863     339.6912     72.23306      1.566     4.00     5.617845     20.37914     33.84904         6     1.061     0.430  12.76   0
       283     27.6350    219.7667 300.1208946 +22.4617134     361.4089     72.26984      1.382     2.68     6.332146     20.37914     39.08629         5     0.701     0.468  77.40   0
       284    848.2584    216.9226 300.3773456 +22.7065835     279.9844     72.26984      1.317     4.64     5.349087     20.37914     41.72453         7     0.866     0.705  27.92   0
       285    776.3326    214.3310 300.3557528 +22.6843204     548.2766     72.28823      1.432     2.81     5.405155     20.37914     72.53268        10     0.974     0.668  20.25   0
       286    366.7968    213.8468 300.2283126 +22.5616033     389.6577     72.21465      1.537     3.12     5.907341     20.37914     54.18051         5     1.071     0.310 -10.27   0
       287    874.4849    203.4232 300.3899039 +22.7105450      2080.27     72.17783      1.671     2.99     5.534111     20.37914     212.2178        26     1.259     1.119  55.55   0
       288    293.0969    200.3506 300.2097498 +22.5356556     2190.742     72.28822      1.687     3.33     5.885139     20.37914      203.139        27     1.391     1.100 -88.58   0
       289    371.0728    195.6592 300.2355400 +22.5576567     1141.022     72.26984      1.656     3.47     5.918153     20.37914     97.61333        17     1.149     0.939  -9.31   0
       290    772.9323    195.1611 300.3609075 +22.6777890     595.6542     72.19624      1.476     3.72     5.585151     20.37914      61.8641        12     1.093     0.847  23.62   0
       291    880.1640    192.3804 300.3952558 +22.7090665     460.3408     72.25145      1.504     3.91     5.660014     20.37914     52.11855         7     0.976     0.567 -23.47   0
       292    417.8273    192.3793 300.2511591 +22.5707125     334.7095     72.23306      1.762     4.59     5.999718     20.37914     29.18432         5     0.841     0.710  63.78   0
       293    187.7869    187.8466 300.1810394 +22.5005232      651.084     72.25145      1.602     4.12     6.158325     20.37914     87.39641        17     1.334     0.979   7.28   0
       294    725.5698    184.5428 300.3495819 +22.6605645     1700.121     72.25145      1.566     3.21     5.731858     20.37914     193.1653        24     1.349     1.043  62.99   0
       295    790.5487    184.4251 300.3698817 +22.6799709     461.5435     72.25145      1.321     4.79     5.659565     20.37914     77.61092        14     1.319     0.865 -66.65   0
       296    209.3500    181.5862 300.1897762 +22.5051831     491.2187     72.26984      1.362     3.15     6.009092     20.37914     67.42976         8     0.926     0.590  13.58   0
       297    997.1902    177.4987 300.4365999 +22.7397828     887.9194     72.12257      1.692     3.13     5.883814     20.37914     87.15881        16     1.065     0.963  -7.88   0
       298    729.6597    176.4177 300.3534910 +22.6594512     755.8043     72.17783      1.535     3.44     5.813107     20.37914     81.50793        16     1.065     0.989 -33.40   0
       299    499.2928    177.4310 300.2813744 +22.5908029     396.5748     72.15942      1.366     3.73     5.964323     20.37914     49.94607         6     0.699     0.676 -35.55   0
       300    650.1209    175.4539 300.3290090 +22.6353749     1305.127     72.26984      1.493     2.87      5.80484     20.37914     150.2156        18     1.113     0.965  64.68   0
       301    471.1858    172.0560 300.2743628 +22.5808443     452.2503     72.21465      1.643     4.01     5.990259     20.37914      52.5835         8     1.056     0.578   5.33   0
       302    539.5397    170.1402 300.2962745 +22.6007533      1190.53     72.28822      0.695     0.95     5.909618     20.37914     588.1221         5     0.502     0.392 -11.70   0
       303    845.7165    167.0278 300.3927283 +22.6914685     1523.124     72.23306      1.595     3.45     5.865826     20.37914     143.1386        21     1.194     1.004  74.59   0
       304    576.4589    167.1291 300.3087527 +22.6109371     871.3491     72.26984      1.368     2.88     5.884408     20.37914     104.7973        15     1.018     0.901 -67.18   0
       305    857.7191    166.1225 300.3967659 +22.6947981     850.2391     72.34336      1.544     3.25     5.893642     20.37914     90.51095        16     1.118     0.900  63.96   0
       306   1018.6775    157.0016 300.4499518 +22.7403084     1530.371       72.141      1.586     3.67     5.987556     20.37914     169.8194        23     1.364     1.016 -85.35  16
       307    974.5230    156.5033 300.4363308 +22.7269622     1092.547     72.36173      1.475     3.27     5.973054     20.37914     135.5376        16     1.150     0.897  62.88   0
       308    208.2355    149.1973 300.1999276 +22.4955436      831.089     72.21465      1.697     5.94     6.071155     20.37914     72.53377        14     1.402     0.839  -6.77   0
       309     70.2210    143.8925 300.1587268 +22.4526810     2116.714     72.15942      1.845     3.66     6.650634     20.37914     183.1931        32     1.442     1.337  48.16   0
       310    893.5007    141.4066 300.4159405 +22.6983882     852.1414     72.12257      1.731     3.40       5.9656     20.37914      70.8656        15     1.070     0.920  -7.65   0
       311     20.1159    141.1405 300.1440432 +22.4368803     387.7235     72.34336      1.235     3.65     6.649762     20.37914     48.62419         8     0.851     0.635 -41.32   0
       312    227.7803    137.1695 300.2099060 +22.4979408     5700.974     72.23306      1.674     3.33     5.884254     20.37914     595.7582        42     1.502     1.218  63.89   0
       313     12.0723    131.7186 300.1445966 +22.4317644     1351.462     72.36172      1.762     3.51     6.649419     20.37914      136.285        23     1.293     1.137 -10.60   0
       314    211.2976    128.5114 300.2075843 +22.4905169     610.5784      72.4168      1.582     3.54     6.034614     20.37914     56.54187        12     1.084     0.875 -18.00   0
       315   1023.8594    124.8428 300.4619931 +22.7326011      860.228     55.02216      1.602     4.86     5.989204     20.37914     116.6663        13     1.927     0.347 -89.43  24
       316    871.9592    119.0796 300.4164562 +22.6855210     3591.197     72.21465      1.591     3.05     5.984251     20.37914     386.7803        36     1.369     1.228  71.93   0
       317    975.6742    117.9423 300.4491887 +22.7162080     2918.256     72.28823      1.750     3.36     5.973383     20.37914     235.0202        35     1.408     1.266  54.58   0
       318    421.1598    114.1916 300.2775391 +22.5492348     607.8108     72.23306      1.563     3.93     5.997499     20.37914     61.73259        12     1.057     0.824  23.55   0
       319    173.9204    114.9405 300.2003558 +22.4754240     293.5225     72.26984      1.385     5.00     6.482559     20.37914     34.89722         6     0.969     0.731 -32.16   0
       320    535.7508    112.5472 300.3137608 +22.5830593     363.7156     72.26984      1.646     4.39     5.914316     20.37914     39.45787         5     1.297     0.423  32.66   0
       321    345.3924    105.8927 300.2566409 +22.5241677     738.1384       72.141      2.304     4.15     6.039917     20.37914     67.04426        12     1.180     0.847 -23.33   2
       322    472.7293    101.5063 300.2977088 +22.5610234     1840.892     72.36172      1.576     2.87     5.958708     20.37914     212.7273        22     1.204     1.030  75.96   0
       323    400.7101    102.1076 300.2750880 +22.5396395     493.7491     72.39845      1.322     3.92     5.994821     20.37914     63.05086        11     1.027     0.783  84.04   0
       324    111.4049    102.7430 300.1848667 +22.4531963       765.77     72.19624      1.772     4.27     6.652749     20.37914     76.63933        12     1.260     0.930  24.57   0
       325    534.4388    100.8348 300.3171476 +22.5792987     334.9472     72.28822      1.532     4.74     5.914776     20.37914     46.12232         7     1.126     0.592  35.68   0
       326    216.6852     97.2955 300.2193760 +22.4831604     490.4885     72.41681      1.874     3.69     5.956966     20.37914     41.63692         5     0.911     0.430 -44.67   0
       327    689.1121     95.1786 300.3671806 +22.6239521     344.3277     72.15942      1.316     3.71     5.928851     20.37914     41.83358         5     0.912     0.433  47.10   0
       328    761.2492     91.1376 300.3909809 +22.6443687     394.8147     72.28823      1.394     3.75     5.983459     20.37914     53.37556         5     0.805     0.502 -44.46   0
       329    906.9703     85.6124 300.4382256 +22.6863596     374.3459     72.23306      1.612     4.73     5.944643     20.37914     41.50253         5     0.900     0.704 -49.13   0
       330    657.9974     82.8559 300.3614750 +22.6110988     206.2662     72.19624      1.249     3.86     5.875284     20.37914     28.62459         5     0.831     0.513 -55.89   0
       331    246.7743     81.1311 300.2339748 +22.4875248     6116.355     72.23306      1.682     3.13     6.099637     20.37914     613.0243        43     1.475     1.253  61.87   0
       332    875.9429     79.0310 300.4306776 +22.6751874     194.1908     72.25145      0.977     1.93     5.942047     20.37914     58.05064         5     0.591     0.567   3.63   0
       333    722.4563     72.6298 300.3848825 +22.6274401     303.1855     72.25145      1.650     3.39     6.013721     20.37914       37.037         5     1.055     0.315  67.47   0
       334     98.1280     80.6410 300.1878999 +22.4428700     942.0029     72.21465      2.235     4.73     6.681247     20.37914     73.78522        16     1.423     0.903 -73.57   0
       335      8.7402     71.6182 300.1630353 +22.4135037     388.3051     72.19624      1.715     4.06     6.708212     20.37914     43.20096         7     1.075     0.739  30.70   0
       336    492.8810     66.5268 300.3153195 +22.5569965     6391.467     72.36172      1.567     3.22     5.885394     20.37914     705.8058        44     1.397     1.216  82.81   0
       337    378.3342     66.5810 300.2796334 +22.5227285     645.7847     72.19624      1.472     3.85     6.180924     20.37914     62.00913        13     1.160     0.784  50.63   0
       338    549.8695     61.7627 300.3346153 +22.5726800     220.2111     72.21465      1.356     3.10     5.827706     20.37914     45.07547         7     0.950     0.616 -89.15   0
       339    686.5809     58.1535 300.3783888 +22.6125438     401.6146     72.26984      1.616     3.54     5.880313     20.37914     55.90704         5     0.735     0.632  33.11   0
       340    745.4699     56.4152 300.3973117 +22.6296587     960.8802     72.25145      2.013     3.73     6.062888     20.37914     86.06377        15     1.158     0.881 -88.29   0
       341    837.9475     55.7157 300.4263794 +22.6571153     420.9923     72.26984      1.273     3.11     5.829306     20.37914     48.19678         7     0.846     0.576 -25.09   0
       342    185.6899     50.1387 300.2250132 +22.4603279     543.2472     72.32499      1.577     4.01     5.912239     20.37914     62.14931        10     1.136     0.703  62.44   0
       343    621.3027     46.7743 300.3617294 +22.5897419     6348.276     72.17783      1.540     2.92     5.793722     20.37914     652.9158        39     1.371     1.156  87.18   0
       344    544.1284     49.2184 300.3368910 +22.5673544     425.0958     72.25145      1.363     3.64     5.799277     20.37914     60.18678         9     0.912     0.800 -19.72   0
       345    396.1139     45.7120 300.2919299 +22.5220505     1461.251     72.38009      1.596     3.27     6.182906     20.37914     152.5975        24     1.289     1.100  73.57   0
       346    662.2399     44.4773 300.3752325 +22.6013280     859.4689     72.21465      1.448     3.18     5.786925     20.37914     92.14864        14     1.083     0.849  -1.55   0
       347    678.5328     40.5295 300.3815901 +22.6050661     560.9255     72.26984      1.546     3.19     5.814157     20.37914     63.80544         9     0.937     0.722 -12.34   0
       348    145.2058     38.0352 300.2163428 +22.4447271     687.9131     72.23306      1.659     3.92     6.062232     20.37914     73.87064        12     1.211     0.842  85.91   0
       349    987.9473     37.8060 300.4789871 +22.6968097     250.2568     72.19624      1.285     4.44     5.895022     20.37914      29.4035         6     0.824     0.679  -3.78   0
       350    948.4269     37.5820 300.4667250 +22.6849303     559.9376     72.23306      1.702     4.71     5.842783     20.37914     60.57247        14     1.270     1.048 -27.50   0
       351    717.0469     35.8975 300.3950973 +22.6152539     567.6306     72.26984      1.597     4.38     6.034729     20.37914      59.4647        12     1.168     0.767 -21.24   0
       352    665.4979     31.6010 300.3804196 +22.5985983     2900.575     72.12257      1.623     3.07     5.759738     20.37914     311.6323        32     1.295     1.204  79.87   0
       353    680.6385     30.7914 300.3854014 +22.6028944     842.1221     72.25145      1.823     4.48     5.808803     20.37914     75.63901        16     1.298     0.949  46.08   0
       354    751.9860     23.3063 300.4100702 +22.6220811     1440.047     72.15942      1.575     2.97      6.05301     20.37914     158.8122        24     1.268     1.088  47.47   0
       355    294.5497   1012.1384 299.9465896 +22.7691388     1383.169     72.28822      3.472     7.41      6.16294     20.37914     71.69789        32     1.884     1.291  49.12  16
       356    148.1050   1008.5228 299.9022157 +22.7241657      751.816     72.34336      2.187     7.94     90.09241     20.37914     38.78218        13     2.066     0.853  84.91   0
       357     68.8411     15.3477 300.1999468 +22.4153394     564.4241     72.23306      1.688     2.91      6.82362     20.37914     60.53707         7     0.853     0.569  54.09   0
       358    632.5565    986.7198 300.0601034 +22.8632027     8911.374     72.21465      2.130     4.91     4.833226     20.37914     463.2271        54     1.722     1.475  42.07   3
       359    781.8246     12.9137 300.4227418 +22.6280143     453.6887     72.17783      1.448     3.75       5.7577     20.37914     54.06488         9     1.060     0.667   9.63   0
       360    131.9186   1006.4552 299.8978554 +22.7187159     1663.116     72.26984      3.512    10.97     86.85095     20.37914     53.85036        42     2.313     1.784 -30.98   2
