#   1 NUMBER                 Running object number                                     
#   2 X_IMAGE                Object position along x                                    [pixel]
#   3 Y_IMAGE                Object position along y                                    [pixel]
#   4 ALPHA_J2000            Right ascension of barycenter (J2000)                      [deg]
#   5 DELTA_J2000            Declination of barycenter (J2000)                          [deg]
#   6 FLUX_APER              Flux vector within fixed circular aperture(s)              [count]
#   7 FLUXERR_APER           RMS error vector for aperture flux(es)                     [count]
#   8 FLUX_RADIUS            Fraction-of-light radii                                    [pixel]
#   9 FWHM_IMAGE             FWHM assuming a gaussian core                              [pixel]
#  10 BACKGROUND             Background at centroid position                            [count]
#  11 THRESHOLD              Detection threshold above background                       [count]
#  12 FLUX_MAX               Peak flux above background                                 [count]
#  13 ISOAREA_IMAGE          Isophotal area above Analysis threshold                    [pixel**2]
#  14 A_IMAGE                Profile RMS along major axis                               [pixel]
#  15 B_IMAGE                Profile RMS along minor axis                               [pixel]
#  16 THETA_IMAGE            Position angle (CCW/x)                                     [deg]
#  17 FLAGS                  Extraction flags                                          
         1    252.0105     12.2505 300.2966260 +22.4554671     368.6839     72.68562      1.228     3.26     4.998909     20.49638     48.02448        10     0.915     0.733  85.73   0
         2    680.6542     10.3482 300.4306505 +22.5833049     429.8972     72.68562      2.156     5.26     4.866788     20.49638     58.84101         8     1.727     0.452 -84.91  16
         3    118.0110      6.9505 300.2566900 +22.4137880      1108.89     72.66712      1.406     2.78     5.722398     20.49638      136.863        16     1.090     0.846  55.92  16
         4    359.3960      1.6487 300.3334613 +22.4845945     162.7832     58.29627      0.943     2.39     4.997353     20.49638     56.86337         5     0.671     0.482 -79.64  24
         5    895.4431   1002.5863 300.1752445 +22.9327144       2111.1     72.66712      1.545     3.18     3.167164     20.49638     186.4287        24     1.152     1.101  -8.26   0
         6    349.2480   1023.3019 299.9984227 +22.7747718     4048.516     58.64115      1.168     3.19     2.888968     20.49638     748.1412        21     1.164     0.774  11.59  24
         7    178.5141   1023.7137 299.9452085 +22.7236235     419.7082     56.39746      2.755     4.46       12.719     20.49638     30.27457         7     1.429     0.396  -9.15  24
         8     70.4956   1021.7095 299.9122993 +22.6906056     1901.588     66.58517     14.595    34.78     25.90793     20.49638     59.43089       200     8.499     3.952 -12.18  27
         9     25.8100   1017.4475 299.8998074 +22.6759614     2419.629     72.66712      5.291    18.05      25.1941     20.49638      66.0281        93     4.651     1.946 -80.89  27
        10     42.2604   1020.1192 299.9040469 +22.6816684     4056.544     71.75491     11.633    33.40     25.75934     20.49638     82.75995       312     9.942     3.114 -21.70  27
        11     41.8202    994.2841 299.9123193 +22.6741349     3281.622     72.59309      7.602    29.83     19.49456     20.49638     63.48122       270     8.920     2.769 -19.19  19
        12     83.3415   1001.7394 299.9227901 +22.6887427     945.6775      72.7226      6.625     8.46     21.27072     20.49638     40.39445        16     2.211     0.904 -23.21   0
        13    578.0554    997.0403 300.0781695 +22.8359163     304.0815     72.63011      1.212     3.85     3.247913     20.49638     55.11319         5     0.805     0.528  63.52   0
        14    545.6389    999.8404 300.0671666 +22.8269920     422.8396      72.7226      1.278     2.11     3.245778     20.49638      67.5954         6     0.758     0.480 -89.38   0
        15    684.3059    991.3469 300.1131093 +22.8661616     986.7752      72.7226      1.905     5.82     3.197057     20.49638     68.27504        19     1.757     0.802  58.93   0
        16   1011.4683    990.3315 300.2154154 +22.9639848     428.4387     72.70411      1.449     4.13      3.24869     20.49638     53.58866        10     0.986     0.897 -64.97   0
        17    719.1716    985.6661 300.1258190 +22.8749909     975.9517     72.63011      1.395     2.87     3.014312     20.49638     109.2184        15     1.008     0.905  37.12   0
        18    496.6376    986.4579 300.0562712 +22.8084488     378.7397     72.64862      1.350     3.27     3.252672     20.49638     50.12639         6     0.890     0.431 -18.78   0
        19     66.6627    986.3845 299.9226067 +22.6793336      839.675      72.6116      3.488     4.20     17.63877     20.49638     37.86871         5     1.027     0.489  46.04   1
        20    741.2968    979.3610 300.1347643 +22.8798185     11209.27     72.63011      1.420     2.66     2.998224     20.49638     1164.045        42     1.187     1.156 -82.88   0
        21    932.5797    979.1696 300.1944462 +22.9371285     491.2186     72.64862      1.639     5.21     3.339218     20.49638     44.42276        11     1.185     0.921  81.33   0
        22    786.9543    979.1465 300.1490602 +22.8934515      568.724     72.68562      1.357     3.35     3.585191     20.49638     71.94875        10     0.918     0.748 -28.58   0
        23     53.1570    971.4550 299.9232706 +22.6709995     425.5433     72.64862      1.381     2.92     14.05197     20.49638     61.08734         8     0.775     0.707 -63.82   0
        24    448.1767    967.9893 300.0472022 +22.7886086     1282.993     72.64862      1.052     4.91     3.151349     20.49638     690.4724        11     1.264     0.539   1.17   0
        25    793.1552    966.9730 300.1549550 +22.8918178     359.2513     72.66712      1.270     3.75      3.66915     20.49638      54.6635        10     0.934     0.742   4.33   0
        26     63.9671    966.8943 299.9281126 +22.6729397      1966.85      72.6116      0.473    -6.13     13.22362     20.49638      1393.82         8     0.427     0.383  41.21   0
        27    749.8657    961.4432 300.1432661 +22.8772472     1445.146     72.63011      1.392     2.82      3.18382     20.49638      160.958        16     0.965     0.934  50.11   0
        28    933.0611    960.2254 300.2007627 +22.9318346     413.6783     72.64862      1.481     3.79     3.459537     20.49638     50.66045         9     0.991     0.655  31.46   0
        29    602.1355    958.6669 300.0981571 +22.8321342     547.3472     72.70411      1.362     2.69     3.339564     20.49638     56.56592         9     0.859     0.672  70.25   0
        30    465.6799    959.1320 300.0555313 +22.7913216     249.5508     72.75956      1.258     4.40     3.234283     20.49638     41.00446         6     0.837     0.659 -65.21   0
        31    787.9997    954.9128 300.1572738 +22.8868105     805.9319     72.53751      1.441     3.01     3.621998     20.49638      88.2858        12     1.014     0.770 -44.33   0
        32    896.9112    951.9474 300.1921859 +22.9186193     260.8511     72.66712      1.219     2.86     3.530186     20.49638     49.90779         5     0.764     0.516 -56.38   0
        33    836.4355    946.1328 300.1752266 +22.8988162     457.3049     72.64862      1.240     2.81     3.663628     20.49638     66.35678         9     0.826     0.706 -33.07   0
        34    687.7006    945.3614 300.1291344 +22.8539861     661.8628     72.66712      1.356     2.41     3.317788     20.49638     107.3008        11     0.885     0.761  86.72   0
        35    291.0469    945.0596 300.0057904 +22.7348692     226.1508     72.70411      1.280     3.64     3.301066     20.49638     34.53791         5     0.655     0.581 -88.25   0
        36    699.0688    942.6665 300.1335526 +22.8566229     586.5612     72.70411      1.412     3.56     3.279313     20.49638     77.53983        12     1.039     0.793  64.87   0
        37    400.2638    941.7273 300.0408426 +22.7666976     4339.426     72.68562      1.358     2.55      3.03398     20.49638     529.7617        29     1.136     1.075  53.90   0
        38     42.8391    930.2596 299.9334716 +22.6560970     341.6248     72.64862      1.395     3.35     4.099426     20.49638     45.76436         5     0.945     0.364  86.84   0
        39    443.3812    929.4717 300.0582454 +22.7761235       388.68     72.66712      1.221     3.88     3.166856     20.49638     52.18351         6     0.903     0.477  82.99   0
        40    178.4131    930.2675 299.9755906 +22.6968125     292.7513     72.66712      1.058     2.13      5.04964     20.49638      52.2537         5     0.698     0.436  65.19   0
        41     62.5754    929.9813 299.9396924 +22.6619448     379.7342     72.66712      1.861     4.57     4.616629     20.49638     30.86431         7     1.263     0.470 -52.19   0
        42    125.6483    927.5612 299.9600746 +22.6801927     687.5665     72.68562      1.377     3.38     5.256852     20.49638     101.9174        11     0.987     0.896  35.56   0
        43     34.0599    925.7736 299.9322045 +22.6521748     496.0619     72.64862      1.991     4.57     3.621389     20.49638     41.85412         9     1.056     0.791  88.32   0
        44    102.7271    924.5942 299.9539185 +22.6724593     1735.955     72.59309      1.554     3.12     5.188737     20.49638     166.1923        18     1.117     0.943  18.06   0
        45    974.3712    913.2076 300.2289476 +22.9307204     2132.485     72.64862      1.473     2.96     3.499129     20.49638     208.1117        24     1.150     1.062 -27.57   0
        46    633.6642    912.4173 300.1230262 +22.8283242     492.9859     72.63011      1.839     6.22     3.425569     20.49638      44.9136        11     1.399     0.777 -66.50   0
        47    928.6982    911.7070 300.2151931 +22.9165975     2031.515     72.83343      1.450     2.69     3.725549     20.49638     222.5221        23     1.120     1.012  58.50   0
        48    134.6144    906.1334 299.9698327 +22.6767439     613.2524      72.6116      1.561     4.13     4.816555     20.49638      71.1553        10     1.086     0.878 -48.32   0
        49    712.1003    905.8307 300.1495994 +22.8499614     574.9188     72.63011      1.218     2.67     3.347615     20.49638      97.1199        11     0.977     0.683  47.62   0
        50    580.2740    899.7797 300.1105142 +22.8086819     4899.363     72.64862      1.263     2.29     3.403233     20.49638      637.484        29     1.050     1.020  19.33   0
        51     69.7455    900.5897 299.9514829 +22.6556756     402.7953     72.64862      1.515     3.46     4.202468     20.49638     53.54937         8     0.936     0.648   2.68   0
        52    382.4582    896.8662 300.0499016 +22.7484891     707.3511     72.68562      1.383     2.94     3.377836     20.49638     92.32359        10     0.917     0.730   0.90   0
        53    130.3933    893.8907 299.9725044 +22.6719675     1419.117     72.55604      1.495     2.92     4.564311     20.49638     174.3769        19     1.155     1.008 -17.17   0
        54    600.7540    892.0164 300.1194167 +22.8125985     870.0399     72.66712      1.416     2.65     3.417363     20.49638     116.3632        14     0.987     0.839 -70.52   0
        55    398.9100    891.6492 300.0567168 +22.7519304     373.6298     72.64862      1.487     4.41     3.430247     20.49638     35.40602         6     0.870     0.635  33.63   0
        56    149.8242    890.9996 299.9794828 +22.6769733     449.7299     72.57456      1.389     3.90     4.554219     20.49638     70.84321        10     1.036     0.818 -55.71   0
        57    517.6747    882.8559 300.0965339 +22.7850459     271.9936     72.68562      1.223     3.25     3.382559     20.49638     46.82887         8     0.893     0.642 -79.32   0
        58    788.2207    880.7849 300.1814659 +22.8656013     136.9669     72.63011      1.195     3.46     3.832068     20.49638     37.52055         5     1.000     0.345  48.79   0
        59    756.2750    879.4143 300.1719576 +22.8556282     4288.929     72.66712      1.282     2.36     3.566628     20.49638     513.1049        27     1.045     0.997  53.10   0
        60   1011.4216    879.6358 300.2514282 +22.9321859     457.8005     72.66712      1.739     4.61     3.530981     20.49638     46.51044         8     1.132     0.553  48.13   0
        61    973.2509    879.1998 300.2396646 +22.9206195      1211.27     72.59309      1.584     3.15     3.666818     20.49638     123.0112        22     1.276     1.037  39.19   0
        62    487.4853    876.7048 300.0891393 +22.7742235     335.6344     72.83343      1.408     3.35      3.36328     20.49638     47.20304         5     0.756     0.430 -65.77   0
        63    164.6649    873.7484 299.9897071 +22.6764842     505.0584     72.68562      1.555     2.78     4.260985     20.49638     72.00729         8     0.791     0.764  12.79   0
        64    473.4514    872.0653 300.0862814 +22.7686818     714.8239     72.68562      1.365     2.96     3.394681     20.49638     101.4773        12     0.997     0.789 -40.76   0
        65    119.6504    870.0798 299.9769128 +22.6619172     1004.079     72.64862      1.468     3.17     4.035647     20.49638     136.8524        17     1.098     1.006  21.92   0
        66    534.9407    865.3602 300.1076005 +22.7852070     577.8842     72.64862      1.347     2.99     3.411778     20.49638     61.56767         9     0.851     0.707  70.00   0
        67    269.3594    862.2475 300.0259920 +22.7046165     53655.09     72.70411      1.315     2.36     4.059725     20.49638      7110.47        88     1.252     1.232  69.72   0
        68    527.2070    861.2403 300.1065335 +22.7817048     1616.695     72.68562      1.221     2.23      3.44199     20.49638     266.2441        17     0.919     0.882  66.13   0
        69    940.0399    860.1910 300.2354925 +22.9052061     881.7078     72.64862      1.256     2.54     3.834617     20.49638     126.1869        12     0.881     0.817   4.11   0
        70    197.5391    860.3524 300.0042821 +22.6825136     409.7935     72.70411      1.299     2.99     4.107203     20.49638     68.20152        10     0.912     0.820  -0.62   0
        71    556.0960    857.0641 300.1168849 +22.7891734     819.8213     72.74108      1.185     2.12     3.481931     20.49638     156.0289        11     0.884     0.728 -41.50   0
        72    567.1436    855.5469 300.1208178 +22.7920523     665.7375     72.70411      1.263     2.49     3.475341     20.49638     87.89365         9     0.841     0.657  62.29   0
        73    887.4161    852.4621 300.2215993 +22.8872118     310.5585      72.6116      1.264     3.28     3.926551     20.49638     45.56564         7     0.824     0.669  68.38   0
        74    672.5295    851.7980 300.1548539 +22.8225871     423.2786     72.59309      1.237     3.33     3.463451     20.49638     56.56547         5     0.750     0.428  65.39   0
        75    319.0643    839.4705 300.0488571 +22.7130039     31408.91     72.68562      1.302     2.34     3.968899     20.49638      4119.99        63     1.184     1.146  52.87   0
        76    710.0879    842.1266 300.1696994 +22.8310753     747.7068      72.7965      1.160     2.22     3.545516     20.49638     135.9622         9     0.790     0.672  16.96   0
        77    333.4078    839.9621 300.0531579 +22.7174496     2070.293     72.66712      1.324     2.49     3.918839     20.49638     271.9357        18     0.985     0.939 -58.29   0
        78    208.8479    838.6149 300.0148682 +22.6796766     273.0082     72.68562      1.251     3.16     4.109788     20.49638      34.0197         5     0.740     0.444  19.61   0
        79    842.1086    835.0803 300.2131305 +22.8686384     2836.859     72.77804      1.318     2.41     4.106157     20.49638     368.9227        23     1.019     0.987  27.74   0
        80    330.1209    833.7402 300.0541595 +22.7146788     534.8544     72.68562      1.251     2.94     3.952906     20.49638     87.39724        11     0.919     0.799 -79.25   0
        81    600.0790    831.2101 300.1389891 +22.7949488     1013.107      72.6116      1.281     2.33     3.465025     20.49638     142.7052        12     0.846     0.819   6.21   0
        82    201.6832    831.2696 300.0150305 +22.6754199     687.3893     72.75956      1.197     2.73     4.110639     20.49638     107.2959        13     0.919     0.906  26.82   0
        83    436.3247    831.3948 300.0879595 +22.7458758     420.6714     72.55604      1.068     2.56     3.860745     20.49638     68.04142         6     0.784     0.494 -38.29   0
        84    494.4146    828.6667 300.1069235 +22.7625218     210.7237      72.6116      1.075     3.95     3.730301     20.49638     35.20338         5     1.029     0.433 -75.44   0
        85      6.6363    826.9612 299.9558328 +22.6156235     559.6432      72.7226      1.724     4.12     3.630736     20.49638     54.25091        11     1.039     0.981  47.61  16
        86    447.1509    826.1753 300.0930259 +22.7476269     862.8174     72.64862      1.217     2.31     3.862972     20.49638     139.0352        12     0.867     0.777 -54.09   0
        87    848.2197    822.8344 300.2190190 +22.8669546     621.5505     72.66712      1.226     2.34     4.179803     20.49638     85.84363         9     0.834     0.674 -10.37   0
        88    349.0564    822.6204 300.0636657 +22.7171724     422.9698     72.66712      1.294     3.65     3.955137     20.49638     58.88544         7     1.080     0.564 -44.61   0
        89    393.0391    821.1866 300.0778131 +22.7299595     373.6768     72.66712      1.265     2.09     3.977389     20.49638     79.26665         7     0.694     0.654  50.14   0
        90    305.5134    821.6300 300.0504461 +22.7038208      208.251     72.64862      1.103     2.92     4.052236     20.49638     62.16605         6     0.910     0.400 -19.30   0
        91     35.2246    820.2512 299.9668941 +22.6222852     579.7731     72.66712      1.853     4.12     3.769904     20.49638      63.2663         9     1.068     0.776  75.90   0
        92    601.2675    820.0139 300.1430012 +22.7920924     284.9326     72.64862      1.192     2.86     3.472762     20.49638     56.83918         8     0.827     0.727  69.25   0
        93    825.9711    817.5135 300.2138151 +22.8587570     354.1359     72.64862      1.197     3.20     4.226689     20.49638     54.93475         7     0.916     0.578 -62.77   0
        94    199.1053    815.3743 300.0193993 +22.6700888     500.4595     72.59309      1.517     3.12     4.112452     20.49638      64.6399         8     0.912     0.748  52.34   0
        95    522.5503    805.6883 300.1231548 +22.7643698     459.9424     72.64862      1.349     3.39     3.960569     20.49638     58.83839        13     1.043     0.846  42.33   0
        96    492.0886    803.8973 300.1142563 +22.7547178     599.5208     72.83343      1.164     2.52     3.978188     20.49638     123.4149         9     0.838     0.686  70.12   0
        97    401.2413    803.1691 300.0862251 +22.7272526      237.063     72.66712      1.239     1.98     4.091065     20.49638      53.6147         6     0.684     0.550  39.15   0
        98    908.4738    800.3541 300.2451157 +22.8785618     4602.088     72.64862      1.207     2.22     4.074471     20.49638     571.0714        27     1.012     0.993  23.43   0
        99    513.8011    801.5012 300.1217934 +22.7605439     1416.068     72.53751      1.220     2.28     3.998408     20.49638     223.1543        14     1.008     0.790  36.43   0
       100    433.3850    801.2623 300.0968458 +22.7363501     345.1529      72.6116      1.108     2.47      4.08816     20.49638     69.28806         6     0.731     0.531  43.38   0
       101    595.4843    796.3237 300.1489061 +22.7835596     419.3863     72.75956      1.362     3.03     3.573507     20.49638     54.42483         8     0.971     0.557 -20.40   0
       102    896.9415    791.8049 300.2443010 +22.8726501      1673.84      72.6116      1.238     2.12     4.123432     20.49638     275.2373        16     0.975     0.800   5.37   0
       103    260.1839    785.9408 300.0479591 +22.6799818     826.6123      72.6116      1.191     1.99     4.117127     20.49638     159.5004        10     0.824     0.668   4.76   0
       104    723.4579    783.1320 300.1930542 +22.8181509     2451.836     72.66712      1.251     2.42     3.791964     20.49638     396.9614        23     1.331     0.859  19.28   0
       105    928.0621    781.9167 300.2572205 +22.8791382     1584.831     72.74108      1.277     2.28     4.025774     20.49638     237.5817        17     0.945     0.902  44.78   0
       106    108.5760    770.0759 300.0059981 +22.6299258     737.7749     72.66712      1.477     2.60     4.136343     20.49638     97.29784        11     0.956     0.740  12.77   0
       107    805.4224    768.7597 300.2232684 +22.8385988     652.7469     72.68562      1.414     3.26     4.282609     20.49638     79.85277        11     1.099     0.726  46.40   0
       108    388.3670    769.3447 300.0932205 +22.7136871     275.7774     72.66712      1.507     5.29     4.131401     20.49638     24.30307         6     1.150     0.687  17.99   0
       109    841.7507    760.0402 300.2374269 +22.8469853     146832.3     72.66712      1.219     2.08     4.120208     20.49638     24446.96       142     1.251     1.204  72.12   0
       110    604.2188    763.9518 300.1621540 +22.7768889     366.1167     72.68562      1.246     2.58     3.666407     20.49638     72.03511         6     0.805     0.565   1.84   0
       111    988.7155    761.6905 300.2827142 +22.8915062     1372.399     72.81497      1.302     2.56     4.099813     20.49638     180.2885        16     0.972     0.874  19.43   0
       112    694.0316    760.5224 300.1912405 +22.8028373      726.411     72.63011      1.144     3.00     3.729061     20.49638     106.3826         9     0.909     0.714 -60.91   0
       113      5.2300    760.1876 299.9771111 +22.5960636     187.2054     72.40766      1.309     3.50     3.927773     20.49638     31.20137         5     1.021     0.346 -47.39  16
       114    874.5876    752.7591 300.2500308 +22.8547371     425.2741     72.64862      1.113     2.65     4.000596     20.49638      83.8803         8     0.870     0.602  78.86   0
       115    528.0168    749.0181 300.1432866 +22.7497486     1633.684     72.63011      1.175     1.99     4.116705     20.49638     310.0603        15     0.853     0.833 -49.20   0
       116    709.2180    746.2202 300.2006223 +22.8032851     9248.541     72.64862      1.166     1.91     3.807404     20.49638     1639.811        33     1.008     0.949  58.61   0
       117    191.1366    747.8945 300.0388671 +22.6483484     134.8414     72.74108      1.123     2.92     4.167429     20.49638     45.25911         6     0.898     0.439  54.86   0
       118    210.7541    741.5600 300.0470244 +22.6524198     4871.974      72.7226      1.256     2.31     4.150193     20.49638     700.2927        25     1.021     0.967  42.86   0
       119    292.8517    739.5051 300.0732165 +22.6764680     1297.184      72.7226      1.265     2.23     4.112037     20.49638     175.8557        14     0.911     0.833 -71.65   0
       120    168.3549    737.2046 300.0352623 +22.6384453     411.1398     72.64862      1.191     3.55     4.207694     20.49638     64.06778         6     0.760     0.546  55.81   0
       121    501.0497    734.9073 300.1394813 +22.7376108     800.4071     72.68562      1.162     2.15     4.212406     20.49638     131.4417        12     1.044     0.676  72.65   0
       122    492.7620    727.1457 300.1394256 +22.7328977     3189.463     72.64862      1.143     1.88     4.260475     20.49638     604.5026        21     0.945     0.853  38.21   0
       123     17.9020    724.4171 299.9926770 +22.5896150     192.3173     72.57456      1.178     4.28     4.170663     20.49638     34.11972         6     1.061     0.491 -58.19   0
       124    482.8420    720.7434 300.1384200 +22.7280851     1629.634      72.6116      1.233     2.17     4.307364     20.49638     284.7176        19     0.999     0.962 -89.88   0
       125    876.6666    718.2853 300.2618893 +22.8454598     533.5112     72.74108      1.078     2.04     3.902524     20.49638     82.18936         7     0.682     0.605 -75.09   0
       126    393.4454    717.8922 300.1115309 +22.7004501     269.5642     72.64862      1.209     2.43     4.218987     20.49638     52.71499         6     0.721     0.600  32.74   0
       127    146.3248    717.1124 300.0349485 +22.6260717     609.4366     72.77804      1.311     2.52     4.193674     20.49638     85.13083        10     0.835     0.732  16.95   0
       128    160.4932    715.6833 300.0398162 +22.6299145     664.4897     72.83343      1.172     2.38      4.19623     20.49638     90.93171        10     0.863     0.693  32.79   0
       129    216.7933    712.5220 300.0583428 +22.6459047      273.307     72.57456      1.316     4.95     4.127332     20.49638     39.85834         8     0.982     0.731  21.42   0
       130    186.1808    712.2331 300.0489214 +22.6366347     501.0784     72.64862      1.323     2.67     4.163128     20.49638       78.258         9     0.900     0.710  50.04   0
       131    929.5900    711.7532 300.2805142 +22.8594443     474.1914     72.66712      1.151     2.67     4.063981     20.49638     78.45451         9     0.870     0.692 -41.00   0
       132    506.8359    711.1369 300.1490110 +22.7325251     469.9406     72.64862      1.130     2.22     4.282231     20.49638     78.69092         8     0.749     0.657  56.80   0
       133    407.7040    710.6848 300.1183100 +22.7026598     1818.061     72.83343      1.131     1.97     4.305737     20.49638     312.1679        17     0.956     0.826 -16.93   0
       134    441.5202    709.8907 300.1290896 +22.7125761      284.608     72.75956      1.081     3.86     4.353663     20.49638     44.90542         6     0.852     0.750 -10.99   0
       135     61.7049    705.7972 300.0123359 +22.5974272     19675.26     72.55604      1.372     2.45     4.250024     20.49638     2794.986        57     1.238     1.173  35.47   0
       136    983.4415    707.8636 300.2985731 +22.8744637     762.8199     72.63011      1.193     2.54      4.07789     20.49638     115.7766        12     0.885     0.795   0.42   0
       137    492.4738    705.9173 300.1462380 +22.7267196     941.1102     72.75956      1.110     1.96     4.339511     20.49638     179.8342        12     0.851     0.729  53.19   0
       138    527.8623    704.8397 300.1576031 +22.7370242     425.0949     72.64862      1.302     2.34     4.247363     20.49638     67.24724         6     0.727     0.545  55.42   0
       139    409.9274    703.0004 300.1215001 +22.7011220     147.5257     72.51897      0.967     2.25     4.341197     20.49638     51.96104         5     0.594     0.593   0.79   0
       140    864.1351    701.4458 300.2634580 +22.8368676     356.8442     72.66712      1.350     2.37     3.862216     20.49638     52.23216         6     0.737     0.601 -60.38   0
       141    246.3826    697.9758 300.0722703 +22.6506123     319.8957     72.64862      1.425     5.43     4.084155     20.49638     52.36724         8     1.505     0.553  41.19   0
       142    910.6048    691.9047 300.2810479 +22.8480537      1151.36     72.55604      1.252     2.41     3.929517     20.49638     179.6424        15     0.936     0.820 -86.06   0
       143    576.0978    693.1373 300.1764240 +22.7481311     317.8998     72.74108      1.214     4.21     4.125329     20.49638     46.95405         7     1.031     0.517 -35.62   0
       144    331.8203    692.4589 300.1006308 +22.6746654     132.5876     72.59309      1.088     2.34      4.01649     20.49638     38.16637         5     0.703     0.454 -22.50   0
       145      7.6655    689.9597 300.0006995 +22.5766641     1428.884      72.6116      1.791     3.99     4.478389     20.49638     137.8727        24     1.389     1.086 -83.37  16
       146     73.9809    690.2747 300.0211955 +22.5966618     340.5375     72.64862      1.224     3.07       4.2845     20.49638     62.92752         8     0.880     0.663 -59.57   0
       147    777.6308    690.0628 300.2401974 +22.8076709     352.3928     72.66712      0.965     1.73      4.06057     20.49638     98.08234         7     0.654     0.606 -15.01   0
       148    456.2135    686.6455 300.1412190 +22.7103134     442.8159     72.66712      1.107     2.15     4.439988     20.49638     84.52613         8     0.848     0.563  16.42   0
       149    850.7164    684.5435 300.2647703 +22.8279916     970.0415     72.74108      1.746     2.11     3.908503     20.49638     142.2724        13     0.901     0.783  34.52   2
       150    595.1290    683.1682 300.1855905 +22.7509764     302.7368     72.64862      1.112     2.75     4.100447     20.49638     67.77761         6     0.890     0.634   0.44   0
       151    412.8181    678.9066 300.1302322 +22.6950760     693.5681     72.57456      1.090     1.93     4.440367     20.49638      139.943        10     0.826     0.649   5.46   0
       152    560.7001    677.4406 300.1767331 +22.7390082     607.0941     72.63011      1.103     2.20      4.23797     20.49638     92.81924         6     0.743     0.519  41.04   0
       153    608.0851    675.8694 300.1919975 +22.7527662     421.5615     72.75956      1.193     2.67     4.090278     20.49638     83.19769         9     0.907     0.617  20.02   0
       154    578.2900    675.3689 300.1828830 +22.7436883     593.8681     72.59309      1.021     1.83     4.190886     20.49638      105.921         7     0.666     0.573  22.08   0
       155    456.9092    674.7075 300.1453163 +22.7070963     946.2493     72.81497      1.216     2.14     4.485028     20.49638     159.8248        11     0.882     0.703  83.61   0
       156    422.5228    670.2387 300.1360693 +22.6954999     1849.155     72.63011      1.168     1.97     4.492534     20.49638     291.9545        16     0.886     0.862  49.03   0
       157    890.7035    670.0249 300.2819562 +22.8358051      3363.28     72.57456      1.185     1.95     3.856841     20.49638     571.8711        23     1.040     0.868  35.46   0
       158    988.7471    667.8622 300.3132333 +22.8645615     612.4632     72.70411      1.196     2.53        3.925     20.49638     110.9472        11     0.915     0.753  65.01   0
       159    397.8034    665.5009 300.1299187 +22.6867255      241.268     72.53751      0.957     1.69     4.345975     20.49638      66.7527         5     0.637     0.493  11.82   0
       160    451.8017    660.8154 300.1482428 +22.7015778      295.978     72.50043      0.993     2.21     4.492534     20.49638     49.68475         6     0.690     0.563  33.51   0
       161    930.1524    659.7460 300.2975980 +22.8446735     437.6141     72.68562      1.236     2.10     3.853951     20.49638     65.56116         6     0.659     0.575 -39.12   0
       162    285.9120    656.9834 300.0978861 +22.6507148     9105.333     72.57456      1.226     1.99     3.992008     20.49638     1655.532        34     1.022     0.986  68.45   0
       163    408.3273    653.9711 300.1369406 +22.6865739     8820.393     72.64862      1.140     1.88     4.425701     20.49638     1542.731        31     1.002     0.904  61.90   0
       164    813.0880    651.0429 300.2639324 +22.8070927     270.5177     72.64862      1.438     3.36     3.955277     20.49638      46.8723         6     0.900     0.465  55.10   0
       165    173.8204    651.3975 300.0648554 +22.6154784     186.9286     72.57456      1.058     2.25     4.099369     20.49638     39.50229         5     0.683     0.470 -16.06   0
       166   1012.6830    649.0805 300.3268052 +22.8663362     961.7121      72.7965      1.202     2.71     3.850896     20.49638     153.5776        14     0.988     0.856 -79.18   0
       167    654.4248    650.2080 300.2147704 +22.7592930     324.4791     72.64862      1.069     2.56     4.061503     20.49638     61.39748         5     0.719     0.441  66.80   0
       168     51.9256    649.8782 300.0274747 +22.5784590     319.0254     72.75956      1.283     4.11       4.4533     20.49638     45.47745         6     1.085     0.451  27.38   0
       169    820.0005    647.7324 300.2671630 +22.8082136     1923.566      72.6116      1.166     1.89     3.935041     20.49638     364.1036        17     0.921     0.856  15.44   0
       170    630.1361    649.3698 300.2074785 +22.7517704     2881.843     72.66712      0.827     1.95     4.100661     20.49638     953.2645         9     0.779     0.440 -47.23   3
       171    633.2640    647.8553 300.2089449 +22.7522733     1194.933     72.70411      0.598     0.89     4.096889     20.49638     650.0616         7     0.587     0.408 -33.09   3
       172    904.5829    645.0511 300.2944020 +22.8327904     12468.81     72.64862      1.157     2.00     3.851916     20.49638     1971.499        41     1.054     1.004 -87.89   0
       173    468.9221    643.5103 300.1591954 +22.7017462     11542.27     72.77804      1.093     1.81     4.492534     20.49638     2128.193        38     1.013     0.968  42.10   0
       174    638.4878    639.2847 300.2133575 +22.7513789     582.8151     72.77804      1.034     2.07     4.097475     20.49638     105.5142         9     0.780     0.683 -63.27   0
       175    196.3746    639.2574 300.0758112 +22.6187646     1329.427     72.64862      1.236     2.28      4.06553     20.49638     196.3223        15     0.912     0.882 -47.28   0
       176    443.1977    636.4658 300.1534800 +22.6920094     422.4036     72.64862      1.032     1.42     4.492534     20.49638     87.39119         5     0.610     0.447  32.25   0
       177    400.5670    631.8134 300.1417281 +22.6778880     4471.614     72.63011      1.116     1.87     4.382157     20.49638     791.9117        24     0.930     0.903 -32.87   0
       178    743.2563    631.5525 300.2485066 +22.7805652     797.8762     72.68562      1.041     2.25     4.028386     20.49638     130.1049        12     0.838     0.781   9.19   0
       179    378.7895    630.2409 300.1354644 +22.6709046     1221.414     72.64862      1.129     1.94      4.23221     20.49638     237.4426        13     0.895     0.752 -39.70   0
       180    132.8920    629.4985 300.0592534 +22.5969154     640.9614     72.83343      1.220     2.43     4.093803     20.49638     127.0012        11     0.872     0.779  43.70   0
       181    820.3976    627.0148 300.2740209 +22.8023821     1579.623     72.48189      1.238     2.36     3.885802     20.49638     250.6697        17     0.999     0.815 -53.42   0
       182     66.6719    627.5452 300.0393137 +22.5764813     205.0574     72.64862      1.140     3.26     4.356371     20.49638       50.308         5     0.922     0.467  12.61   0
       183    517.1937    619.2279 300.1821114 +22.7092529     201517.5     72.64862      1.152     1.86     4.393228     20.49638      37810.3       204     1.340     1.272 -84.17   0
       184    920.8755    625.6177 300.3057989 +22.8320895     209.0314     72.64862      1.011     1.89     3.844769     20.49638     52.02438         5     0.679     0.446  22.15   0
       185    340.7661    625.3002 300.1252428 +22.6580813     394.0208     72.63011      1.051     4.07     4.047956     20.49638     46.89516         6     0.741     0.638  83.78   0
       186    700.8333    624.0616 300.2377246 +22.7656979     733.9769     72.66712      1.069     1.86     4.044078     20.49638     162.6038        10     0.769     0.681  -5.67   0
       187    203.3493    619.3494 300.0844492 +22.6151471     3381.433     72.68562      1.183     2.14     4.033082     20.49638      451.867        23     0.982     0.955 -83.24   0
       188    905.4716    620.2801 300.3027308 +22.8259406      248.189     72.75956      1.104     3.36     3.847189     20.49638     56.43692         5     0.792     0.414 -65.59   0
       189    478.4037    619.7761 300.1698602 +22.6977780     243.6718      72.6116      1.100     2.80     4.492534     20.49638     37.63499         5     0.732     0.438 -67.88   0
       190    381.7162    617.0202 300.1406715 +22.6679888      238.747     72.59309      1.554     5.50     4.263669     20.49638     36.95056         6     1.411     0.604 -43.94   0
       191    769.1592    615.1501 300.2619089 +22.7836184      519.006     72.66712      1.068     1.93     3.953171     20.49638     104.1577         6     0.694     0.532  60.10   0
       192    788.0276    613.2322 300.2684122 +22.7887225     311.0373     72.64862      1.274     3.13     3.891462     20.49638     57.63697         6     0.908     0.422  38.84   0
       193    407.8096    599.5661 300.1544615 +22.6708062     2844.945     72.63011      1.163     1.97     4.418281     20.49638     446.3535        20     0.923     0.844  58.98   2
       194    252.0273    602.0791 300.1051944 +22.6247978     391.7981     72.66712      1.155     2.69     4.019366     20.49638     80.86255         9     0.856     0.731 -11.31   0
       195    857.4083    599.2189 300.2945915 +22.8054887     236.1183      72.6116      1.008     2.40     3.899907     20.49638     48.58702         5     0.680     0.481  77.88   0
       196    819.4939    595.6203 300.2839428 +22.7930937     414.6969     72.57456      1.052     3.26     3.921568     20.49638     53.64146         7     0.840     0.656  75.46   0
       197    638.6090    594.8433 300.2278391 +22.7386553     293.0873     72.66712      1.032     1.95     4.164735     20.49638     58.01236         5     0.690     0.439  66.48   0
       198    725.0568    588.0511 300.2569744 +22.7626175     486.3839     72.70411      1.123     1.74     4.143172     20.49638     105.2484         7     0.751     0.508 -51.64   0
       199    804.7382    585.6459 300.2825854 +22.7858068     1752.488     72.66712      1.124     1.80     3.990333     20.49638     329.5886        18     0.952     0.824  65.34   0
       200    675.9611    583.2788 300.2432309 +22.7465314     2560.557     72.63011      1.088     1.72      4.14125     20.49638      512.082        19     0.897     0.814 -77.02   0
       201     35.7662    583.5171 300.0440205 +22.5545802     318.1273      72.6116      1.265     4.28     4.627622     20.49638     39.10764         5     0.885     0.589  46.99   0
       202    920.1995    580.2163 300.3203438 +22.8188429      565.175     72.53751      1.248     2.70     3.846812     20.49638     68.65255         8     0.778     0.667 -55.36   3
       203    918.9418    576.0341 300.3213107 +22.8172645     777.4645     72.66712      1.162     1.85     3.850363     20.49638     145.1619        10     0.816     0.662  85.21   2
       204    580.8949    579.9929 300.2146930 +22.7170894     540.9036     72.53751      1.276     2.09     4.319418     20.49638     83.85786         9     0.775     0.680  10.36   0
       205    463.1629    579.3256 300.1782625 +22.6815973     730.8986     72.59309      1.154     2.43     4.468898     20.49638     101.7945        10     0.886     0.667  42.61   0
       206    885.0550    579.5463 300.3096036 +22.8081210     326.7337     72.68562      1.075     2.29     3.930826     20.49638     59.86449         5     0.682     0.580  78.69   0
       207    933.2161    577.1108 300.3254119 +22.8218503     1428.072     72.57456      1.192     1.99     3.815186     20.49638     246.3565        14     0.887     0.770  32.32   0
       208    805.0983    576.0754 300.2858077 +22.7831656     2145.276     72.77804      1.168     1.77     4.056104     20.49638     424.7019        18     0.908     0.818  68.57   2
       209    558.2449    574.0115 300.2095847 +22.7085815     625.8057     72.64862      1.343     2.37     4.384456     20.49638     95.76028        10     0.866     0.707  21.26   0
       210    344.3058    573.7792 300.1430863 +22.6443594     438.3562     72.57456      1.184     2.53     4.188034     20.49638     61.26215         5     0.753     0.480 -41.57   0
       211    396.5697    572.8279 300.1596533 +22.6597616     294.3302     72.64862      1.014     2.90     4.332993     20.49638     83.15556         6     0.874     0.542 -23.25   0
       212    843.1755    570.7084 300.2994200 +22.7930337      4135.65     72.59309      1.141     1.85      4.04313     20.49638     829.8256        27     0.967     0.902  84.49   0
       213    558.2950    569.6532 300.2110165 +22.7073453     303.1212      72.7226      1.128     2.08     4.395014     20.49638     58.56647         5     0.690     0.445 -79.32   0
       214    503.8782    566.7962 300.1950054 +22.6902095     265.9011     72.55604      0.948     2.03     4.469687     20.49638     68.14989         6     0.686     0.554  40.12   0
       215     75.3593    561.6785 300.0634154 +22.5601995     1018.208     72.63011      1.354     2.84     4.459897     20.49638     127.1717        17     1.038     0.934  76.41   0
       216    934.8952    561.0945 300.3311401 +22.8177513     827.7863     72.81497      1.198     1.88     3.804508     20.49638     160.4074         9     0.785     0.666  68.59   0
       217    874.4901    558.6396 300.3131036 +22.7989491     217.9702     72.64862      0.907     2.42     4.031631     20.49638       52.234         5     0.671     0.480 -72.55   0
       218     67.7049    551.4492 300.0643608 +22.5549688     354.1734     72.70411      1.009     2.80     4.526331     20.49638     65.05772         6     0.795     0.540  45.14   0
       219    931.2535    549.9812 300.3336157 +22.8134670     370.5628     72.63011      1.248     2.71     3.808143     20.49638     62.01447         7     0.845     0.572  62.08   0
       220    675.2661    545.1168 300.2554147 +22.7353638      491.981     72.75956      1.082     3.14     4.271342     20.49638     94.46242         7     0.913     0.521  35.39   0
       221    564.3341    543.0409 300.2215436 +22.7015151     301.1552      72.6116      1.171     2.65     4.454355     20.49638     63.20588         6     0.855     0.474  48.57   0
       222    284.3025    543.3440 300.1343142 +22.6176280     294.8512     72.74108      1.524     4.31     4.273083     20.49638      42.2134         7     0.874     0.670 -24.87   0
       223    616.5488    541.1870 300.2384042 +22.7166354     734.9114     72.68562      1.035     1.96     4.344165     20.49638     133.4218        10     0.898     0.632  40.25   0
       224   1023.6155    538.8364 300.3660445 +22.8379301     763.4011     56.80124      0.983     1.82     3.609343     20.49638     191.7329        10     0.957     0.547  83.51  24
       225    595.2495    539.5579 300.2323010 +22.7097828     279.0892     72.66712      1.333     3.51     4.390331     20.49638     35.37956         5     0.778     0.457 -18.03   0
       226    931.1877    533.6049 300.3389162 +22.8087416     632.4617     72.51897      1.232     2.17     3.858592     20.49638     90.89823         9     0.763     0.712 -80.65   0
       227    677.2546    533.3408 300.2598602 +22.7325778      895.535     72.70411      1.119     2.05     4.282977     20.49638     132.8364        10     0.769     0.656  78.03   0
       228    834.7252    529.6446 300.3101287 +22.7787047      1024.66     72.63011      1.120     2.06     4.262298     20.49638     177.9106        12     0.908     0.682  58.69   0
       229    818.9506    525.9380 300.3064161 +22.7729134      687.562     72.70411      1.069     1.88     4.305349     20.49638     143.8499         9     0.729     0.682 -42.27   0
       230    799.3368    526.1524 300.3002334 +22.7670981     254.7704     72.66712      0.956     1.75     4.333305     20.49638     73.94482         6     0.656     0.547  23.06   0
       231    563.1612    524.1223 300.2273249 +22.6957315     3285.516     72.63011      1.112     1.80     4.523248     20.49638     672.4459        22     0.956     0.821  53.54   0
       232    709.6070    523.8426 300.2730243 +22.7395460     226.0665     72.66712      1.371     3.45     4.320052     20.49638     34.31182         5     0.766     0.450  72.12   0
       233    923.7722    522.8997 300.3400819 +22.8034440     571.6061     72.59309      1.304     1.96     3.944529     20.49638     100.1253         8     0.743     0.643 -46.58   0
       234     39.2473    515.7655 300.0671128 +22.5361948     448.6675     72.68562      1.584     4.18     4.638664     20.49638     44.51168         6     0.769     0.649  11.56   0
       235    568.4536    511.8585 300.2329567 +22.6937966     342.9156     72.70411      1.260     1.64     4.549521     20.49638      58.8125         5     0.629     0.473 -68.00   0
       236    334.8685    511.7906 300.1602905 +22.6237395     331.4955     72.63011      1.041     2.25     4.439738     20.49638     53.85306         6     0.730     0.536  44.68   0
       237    402.7951    511.1894 300.1816159 +22.6439373     293.8159     72.50043      1.075     2.31      4.45704     20.49638     66.18173         7     0.821     0.555  60.05   0
       238    974.4771    502.9579 300.3623736 +22.8129010     1261.887      72.6116      1.080     1.88     3.783217     20.49638     240.8598        14     0.829     0.774  53.32   0
       239    846.5127    502.7539 300.3225393 +22.7745103     468.4453     72.63011      1.006     1.99     4.379257     20.49638     102.4586         9     0.747     0.692 -48.77   0
       240    932.8072    501.7036 300.3497855 +22.8000593     867.2254     72.53751      1.056     2.04     4.000944     20.49638     181.4832        11     0.834     0.701  41.45   0
       241    582.6625    499.7794 300.2413047 +22.6945874     247.5892      72.6116      0.900     1.52     4.537801     20.49638     81.20721         5     0.630     0.455  73.05   0
       242    673.7278    498.0991 300.2702107 +22.7213992     1024.753     72.81497      1.112     1.80     4.308248     20.49638     221.6547        10     0.833     0.615  57.75   0
       243    177.6736    496.4548 300.1163969 +22.5721884     655.7932     72.64862      1.129     2.18     4.434999     20.49638     93.37446        11     0.830     0.737  69.96   0
       244     17.8130    494.5081 300.0673599 +22.5236659     285.2749     72.59309      1.122     3.82     4.658487     20.49638     46.54328         6     1.309     0.320  42.37   0
       245    240.1500    492.1931 300.1372024 +22.5897067     3676.075     72.64862      1.218     2.03     4.484293     20.49638     621.9333        22     0.990     0.885  62.15   0
       246    973.1476    490.2698 300.3660808 +22.8088562     4348.187     72.63011      1.166     1.99     3.808452     20.49638     716.9434        25     1.014     0.886  84.23   0
       247    187.3318    486.9614 300.1224825 +22.5723619     7671.269      72.6116      1.203     2.05     4.511486     20.49638     1169.283        33     1.043     0.989  62.63   0
       248    328.0883    481.0949 300.1681524 +22.6128963     4768.428     72.83343      1.175     1.98     4.586264     20.49638     878.2937        24     0.971     0.884  85.95   0
       249    953.1817    481.3010 300.3627673 +22.8002985      1862.62     72.55604      1.144     1.97     3.960187     20.49638      313.476        15     0.879     0.817  69.41   0
       250    572.2983    477.7215 300.2452428 +22.6851465     18249.49     72.77804      1.080     1.77     4.651192     20.49638     3548.651        47     1.032     0.949  70.04   0
       251    589.7051    478.0210 300.2505653 +22.6904500     902.1683     72.55604      1.599     5.77     4.583044     20.49638     84.09477        13     1.341     0.723 -39.15   0
       252    419.4330    479.1790 300.1971903 +22.6397374     333.9671     72.64862      1.162     2.26     4.594956     20.49638     54.89412         5     0.686     0.472  72.53   0
       253    415.2462    477.4701 300.1964427 +22.6379915     235.3983     72.63011      1.103     2.61     4.600055     20.49638      44.4184         5     0.705     0.462  20.87   0
       254    199.3604    476.0852 300.1297539 +22.5728495     204.2803     72.63011      0.936     2.98     4.566892     20.49638     49.73016         5     0.740     0.438  70.83   0
       255    815.9293    473.7534 300.3224270 +22.7570152     294.8856     72.63011      1.201     2.20     4.486599     20.49638     58.55643         7     0.737     0.615  -3.09   0
       256    769.1904    467.7043 300.3098256 +22.7412740     351.0432     72.57456      0.965     2.13      4.42094     20.49638     87.06445         6     0.695     0.586  46.54   0
       257    192.3465    464.8632 300.1312185 +22.5675256     344.2621     72.70411      1.159     3.06     4.577838     20.49638     51.38675         7     0.740     0.643 -66.71   0
       258    906.0222    459.7502 300.3550614 +22.7799796     808.6803     72.64862      1.227     3.08     4.364093     20.49638     135.7881        10     1.127     0.553 -56.40   0
       259    615.6315    458.8030 300.2648807 +22.6927013     325.1201     72.63011      1.177     3.26     4.616081     20.49638     45.13292         5     0.769     0.414  67.54   0
       260    442.9025    459.6106 300.2108488 +22.6411563     358.5356     72.53751      0.983     1.82     4.677959     20.49638     79.47844         5     0.680     0.432  25.53   0
       261    126.9371    458.0870 300.1130905 +22.5459599       1993.9     72.75956      1.266     2.19     4.621372     20.49638      324.053        19     0.954     0.872  72.95   0
       262     50.4059    451.0376 300.0916019 +22.5209770     1878.375     72.68562      0.623     1.42     4.648084     20.49638     611.2623         5     0.534     0.299  -4.00   2
       263    512.9086    447.1715 300.2366764 +22.6585716     6565.257      72.6116      1.132     1.88     4.784968     20.49638     1278.357        27     1.006     0.857  74.56   0
       264    926.5985    447.1967 300.3655548 +22.7825348     1031.797     72.42622      1.045     2.12     4.397243     20.49638     183.9402        11     0.826     0.698  22.21   0
       265    227.9621    446.5603 300.1482340 +22.5729563     580.2446      72.7226      1.038     1.80     4.585042     20.49638     133.5617        10     0.855     0.603 -57.82   0
       266     85.6004    440.0498 300.1061039 +22.5283841      580.127     72.63011      1.234     2.73      4.64772     20.49638       72.283        10     0.907     0.693 -57.01   0
       267    772.5968    438.9811 300.3202161 +22.7340422     363.2779     72.57456      1.073     1.81     4.442587     20.49638     69.40257         6     0.716     0.491  89.86   0
       268    717.0961    436.1852 300.3038308 +22.7166102     1126.642     72.55604      1.203     1.74     4.424539     20.49638     228.5497        13     0.973     0.696  65.10   0
       269    626.5042    437.2206 300.2752761 +22.6897610     457.9101     72.55604      0.971     2.08     4.708453     20.49638     99.16243         7     0.729     0.574 -64.58   0
       270    419.5708    433.5107 300.2120652 +22.6266680     5997.702     72.63011      1.050     1.97     4.753129     20.49638     956.9575        24     0.975     0.834  74.46   0
       271   1004.0040    434.3627 300.3938649 +22.8020272     207.0143     72.68562      1.102     2.38     4.297852     20.49638     46.41876         5     0.747     0.533  89.46   0
       272    997.5688    431.6740 300.3927307 +22.7993272     199.1743     72.66712      1.053     3.45     4.342013     20.49638     35.01158         5     0.756     0.454  70.93   0
       273    811.4483    427.7133 300.3359837 +22.7424438     1247.116     72.64862      1.054     1.81      4.48589     20.49638     238.0876        13     0.876     0.746 -79.49   0
       274    908.7859    427.8837 300.3662729 +22.7716490      590.295      72.6116      1.024     1.88     4.528365     20.49638     138.6805         7     0.694     0.598  61.81   0
       275    404.5274    422.1348 300.2110788 +22.6188919     378.5084     72.68562      1.000     2.13     4.792194     20.49638     102.6601         7     0.679     0.649  87.50   0
       276     98.9343    421.1299 300.1163905 +22.5269562     4097.703     72.68562      0.491     2.17     4.648026     20.49638     2870.577         7     0.385     0.373 -76.72   0
       277    486.7947    419.9999 300.2373723 +22.6429414      419.059     72.46334      1.008     1.59     4.814104     20.49638     105.2019         7     0.641     0.619  68.85   0
       278    764.8197    418.4231 300.3244690 +22.7258055     262.1271     72.64862      1.139     3.35     4.443382     20.49638     64.93127         5     0.897     0.458 -49.66   0
       279     66.0176    415.3123 300.1080526 +22.5154122     248.5813     72.59309      1.299     4.32     4.647968     20.49638     36.50741         6     0.923     0.577 -89.39   0
       280    784.3720    415.1663 300.3316197 +22.7307272     446.1337     72.66712      1.074     2.34     4.462949     20.49638     91.15146         7     0.728     0.667 -12.16   0
       281    307.1645    412.7068 300.1838545 +22.5869925     2644.755      72.6116      1.207     1.97     4.714674     20.49638      454.027        20     1.017     0.898  66.59   0
       282     25.4138    410.3015 300.0970665 +22.5017930     952.5027     72.55604      1.280     2.77     4.646856     20.49638     133.3454        15     0.982     0.916  51.12   0
       283    654.5922    406.9722 300.2938470 +22.6894893     274.1877     72.64862      1.025     1.99     4.651562     20.49638     63.62733         6     0.729     0.484 -80.87   0
       284    276.4834    402.2343 300.1777139 +22.5747863     29444.19      72.6116      1.161     1.98     4.674087     20.49638     4322.288        55     1.125     0.995  68.78   0
       285    811.0668    399.4957 300.3450282 +22.7342209     1413.509     72.77804      1.089     1.82     4.475183     20.49638     263.4989        13     0.838     0.754  88.28   0
       286    766.7646    396.9621 300.3320441 +22.7202216     420.6509      72.7226      1.270     2.34      4.42062     20.49638     61.69658         8     0.789     0.640 -45.01   0
       287    850.0460    388.1925 300.3608485 +22.7426481     322.0147     72.66712      1.969     4.97     4.534075     20.49638     40.09751         7     1.454     0.482 -40.28   0
       288    726.3132    388.2577 300.3222661 +22.7056019     466.0327     72.74108      1.036     2.07     4.392396     20.49638     100.5414         8     0.695     0.656 -83.19   0
       289    374.9440    387.3800 300.2131602 +22.6000444     539.9994     72.63011      1.113     2.13     4.874435     20.49638     81.01162         8     0.749     0.640 -86.95   0
       290    150.6108    388.3929 300.1430781 +22.5330639     389.0117     72.51897      1.059     2.23     4.627931     20.49638     63.11047         5     0.668     0.473 -75.53   0
       291    686.8485    381.7092 300.3120975 +22.6918967     1945.752     72.66712      1.096     1.80     4.452843     20.49638     416.5579        15     0.867     0.774  86.43   0
       292    495.1741    376.3069 300.2541675 +22.6329058      237.476      72.6116      1.046     2.26     4.853771     20.49638     57.28874         6     0.732     0.520  55.82   0
       293    901.9741    374.5459 300.3814691 +22.7542782     591.5269     72.66712      1.098     2.28     4.616018     20.49638     108.1611        12     0.832     0.806  60.30   0
       294    756.0559    367.7601 300.3381888 +22.7086225     232.5236     72.63011      1.162     3.56     4.368624     20.49638     39.38456         5     0.814     0.481 -54.70   0
       295    348.6240    366.4662 300.2117628 +22.5861492     2072.699     72.63011      1.319     2.54     4.953077     20.49638     321.8735        19     1.208     0.797  66.80   0
       296    561.0470    365.3113 300.2782434 +22.6494901     280.9245     72.63011      1.093     2.10     4.911463     20.49638      62.2499         7     0.694     0.640  18.71   0
       297    787.8318    359.1489 300.3508869 +22.7156664     592.9421     72.68562      1.053     1.71     4.401164     20.49638     137.6799         8     0.714     0.611  52.90   0
       298    687.1807    356.6507 300.3203368 +22.6847967     171.5519     72.63011      1.102     3.35     4.393857     20.49638     42.62209         7     0.842     0.632 -71.47   0
       299    670.1074    356.8941 300.3149394 +22.6797514     385.7197     72.81497      1.118     2.16     4.435879     20.49638     81.13737         8     0.776     0.620  44.72   0
       300    638.5802    355.7723 300.3054838 +22.6699830     273.6202     72.64862      1.116     2.03     4.676332     20.49638      48.4807         5     0.657     0.480  75.37   0
       301    748.4415    350.1223 300.3415424 +22.7012731     311.7472     72.63011      1.124     3.66     4.340041     20.49638     41.41099         6     0.789     0.489 -82.19   0
       302    484.0097    348.9931 300.2595601 +22.6217153     1030.794     72.50043      0.440    -5.73     4.851024     20.49638     961.2584         5     0.386     0.371  89.66   0
       303    231.9684    346.7208 300.1818958 +22.5455033     209.7023     72.64862      1.077     2.89     4.613576     20.49638     50.44534         6     0.856     0.498  38.17   0
       304    424.4505    345.7277 300.2420854 +22.6029257     1113.737     72.64862      1.032     1.91      4.84781     20.49638     204.7374        12     0.792     0.725  68.15   0
       305    277.3232    344.2109 300.1968126 +22.5583825     247.2101     72.64862      0.965     2.87     4.694576     20.49638     38.52312         5     0.741     0.437  73.97   0
       306    935.5662    341.2963 300.4027392 +22.7547796      279.715     72.64862      0.944     2.39     4.549612     20.49638     67.77258         5     0.713     0.456  69.28   0
       307    807.6302    338.8282 300.3636545 +22.7157565     297.4744     72.64862      0.854     1.56     4.437044     20.49638     86.27013         5     0.654     0.436  64.80   0
       308    669.2608    337.6671 300.3209176 +22.6739736     2261.404     72.68562      1.081     1.82     4.424051     20.49638     404.8836        16     0.884     0.758  69.93   0
       309    930.5372    331.9688 300.4041989 +22.7505922     3178.822     72.66712      1.090     1.82     4.615012     20.49638     575.5175        20     0.936     0.869  88.98   0
       310    991.8101    326.4471 300.4251017 +22.7673506      521.231     72.66712      1.231     2.68     4.054619     20.49638     69.53771         7     0.799     0.581  27.17   0
       311    301.4928    323.7764 300.2109618 +22.5597627    -128.9694     72.57456      1.242     3.28     4.688977     20.49638     37.10505         5     0.740     0.443 -67.08   0
       312    377.7293    321.5352 300.2354023 +22.5819738     637.6635     72.68562      1.065     1.99     4.941038     20.49638     114.8003         9     0.842     0.646  43.60   0
       313    999.9568    319.7171 300.4298276 +22.7678545     1564.777      72.6116      1.116     1.79     4.073425     20.49638      338.805        13     0.887     0.726  47.61   0
       314     52.5463    315.9816 300.1361134 +22.4828714     1487.707     72.63011      1.524     3.67      4.44683     20.49638     154.4681        20     1.194     0.959 -31.38   0
       315     83.1968    315.9217 300.1456552 +22.4920476     611.8553     72.55604      1.280     2.74     4.554498     20.49638     78.83596        10     0.899     0.691  -8.49   0
       316    946.2674    312.1843 300.4155270 +22.7496141     519.9979     72.64862      1.203     1.87      4.52913     20.49638     95.61242         7     0.671     0.612 -82.81   0
       317    790.0077    308.8640 300.3678890 +22.7018664     290.6924     72.63011      1.206     3.71     4.405241     20.49638     53.64347         9     0.990     0.626  56.22   0
       318    136.4487    308.0082 300.1647707 +22.5057475     440.8969     72.64862      1.023     2.14     4.576725     20.49638     98.36692         8     0.764     0.658 -42.68   0
       319    931.4098    304.6898 300.4133263 +22.7430108     289.9743     72.59309      1.208     2.65     4.623684     20.49638     62.63075         9     0.873     0.732  78.11   0
       320    812.6600    301.0321 300.3774912 +22.7063996     342.7652     72.68562      1.112     2.19     4.453728     20.49638     67.83347         5     0.706     0.434 -69.98   0
       321    740.8502    298.9158 300.3557994 +22.6842837     638.7126     72.63011      1.112     1.80      4.38323     20.49638     151.1246        10     0.841     0.650  53.01   0
       322    331.2156    298.5838 300.2283829 +22.5614402     337.3607      72.6116      1.055     3.19     4.830507     20.49638     54.37675         9     0.964     0.658  68.45   0
       323    831.7272    292.1278 300.3863246 +22.7095503     390.5676     72.70411      1.065     3.44     4.518482     20.49638     59.98589         6     0.756     0.617  34.02   0
       324    839.0289    288.0460 300.3899255 +22.7105636     1917.995     72.68562      1.085     1.80     4.543355     20.49638     439.5549        15     0.888     0.718  63.62   0
       325    257.7285    285.6124 300.2097393 +22.5356850     2069.323     72.66712      1.140     2.17     4.499824     20.49638     335.0963        17     0.915     0.824  26.48   0
       326    144.9416    285.6867 300.1746544 +22.5018878     251.7867     72.74108      1.151     3.75     4.555978     20.49638     40.79944         6     0.829     0.652  25.83   0
       327    335.6906    280.5354 300.2356323 +22.5575992     996.3526     72.77804      1.271     2.47     4.799943     20.49638     146.5274        15     0.980     0.862 -28.04   0
       328     87.6675    280.8171 300.1584371 +22.4833142     356.4614     72.64862      1.208     2.81     4.527384     20.49638     66.08427         6     0.901     0.532 -21.11   0
       329    737.3719    279.6021 300.3609842 +22.6776913     486.8943     72.59309      1.057     2.14     4.392313     20.49638     106.2709         7     0.757     0.552  68.78   0
       330    844.5410    276.7282 300.3953171 +22.7089608      198.058     72.68562      0.896     1.94     4.572692     20.49638     57.80413         5     0.651     0.474  69.96   0
       331    270.0684    272.3623 300.2178763 +22.5355804     277.1894     72.63011      1.255     3.45     4.437178     20.49638     39.00763         6     0.879     0.543 -87.02   0
       332    152.3357    272.6101 300.1811960 +22.5003517     832.2317      72.6116      1.484     3.62        4.552     20.49638     81.49437        14     1.149     0.790  65.01   0
       333    690.0596    269.5497 300.3495063 +22.6606308     1730.078     72.70411      1.079     1.72     4.392313     20.49638     305.8223        16     0.906     0.770  70.64   0
       334    755.0300    268.9124 300.3699557 +22.6799077      438.553     72.63011      1.114     2.06     4.415884     20.49638     104.9246         8     0.790     0.606  49.86   0
       335    173.8736    266.2968 300.1899389 +22.5049978      637.361     72.77804      1.257     2.71      4.54168     20.49638     85.57894        10     0.937     0.650  68.22   0
       336    961.6652    261.7896 300.4366859 +22.7397341     780.0278      72.6116      1.050     2.11     4.713836     20.49638     153.6238        11     0.831     0.722 -74.89   0
       337    463.3755    261.6669 300.2814820 +22.5904497     168.8751     72.63011      1.066     2.42     4.837884     20.49638     52.59041         6     0.790     0.489  43.91   0
       338    694.0737    260.8778 300.3535711 +22.6593411     685.6792     72.75956      1.187     2.38     4.392313     20.49638      128.487        10     0.873     0.700  49.04   0
       339    615.2671    260.3656 300.3291910 +22.6355867     1573.571     72.64862      1.495     5.28     4.392313     20.49638      305.746        12     1.209     0.650  20.65   0
       340    312.7459    256.9880 300.2361374 +22.5439597     187.9559     72.64862      1.332     4.17     4.495122     20.49638     32.23283         5     0.844     0.589   1.40   0
       341    435.9995    256.4006 300.2746716 +22.5807330       390.14     72.42622      1.056     2.43     4.711537     20.49638     84.01912         7     0.792     0.663 -65.34   0
       342    810.1579    251.7320 300.3927117 +22.6914790     1358.771     72.63011      1.126     1.85     4.543155     20.49638     297.3358        14     0.920     0.725  82.84   0
       343    540.9747    251.9840 300.3087784 +22.6109205     955.4567     72.66712      1.174     1.87     4.438204     20.49638     201.9285        10     0.803     0.671  78.56   0
       344    868.5371    250.0954 300.4114411 +22.7084895     301.1726     72.74108      1.261     4.04     4.625801     20.49638     44.44312         9     0.921     0.731  67.68   0
       345    822.2255    250.8078 300.3967731 +22.6948270     778.7907     72.64862      1.143     1.75     4.562494     20.49638     167.1407        11     0.812     0.726 -40.35   0
       346    983.1205    241.6384 300.4499175 +22.7403620     1665.912      72.6116      1.136     1.93     4.870581     20.49638     306.2933        15     0.887     0.833 -85.09   0
       347    938.9562    241.0247 300.4363423 +22.7269647     1110.529     72.68562      1.203     2.06     4.730239     20.49638     197.2487        11     0.863     0.706  69.84   0
       348    172.9522    234.3375 300.2000227 +22.4955472     781.2752     72.68562      1.314     2.30     4.525907     20.49638     124.9268        12     0.907     0.752  48.05   0
       349     55.1990    233.3866 300.1637402 +22.4599645     334.6575     72.48189      1.355     3.41     4.322524     20.49638     33.13123         5     0.805     0.417  21.40   0
       350     34.9301    229.2872 300.1587737 +22.4527094     2216.336     72.77804      1.336     2.33     4.198366     20.49638     289.5545        22     1.066     0.957  60.11   0
       351    857.9497    225.7869 300.4160285 +22.6983307     733.6357     72.70411      1.133     1.97     4.615937     20.49638     172.0387        10     0.820     0.704  62.95   0
       352    192.2632    222.5255 300.2098577 +22.4979460     5487.434     72.68562      1.210     2.20     4.495169     20.49638     782.4755        28     1.093     0.925  60.21   0
       353    174.0810    223.1307 300.2040096 +22.4926684      466.165     72.75956      1.521     2.85     4.532261     20.49638     58.61443         6     0.888     0.442 -41.12   0
       354    175.6083    213.4227 300.2076340 +22.4903393     608.5902     72.64862      1.143     2.30     4.593956     20.49638      102.728        10     0.821     0.758  -8.11   0
       355    991.0842    209.6352 300.4627863 +22.7335420     18224.49      72.6116      1.191     1.94     5.024067     20.49638     3513.138        46     1.103     0.979  84.65   0
       356    836.3013    203.8114 300.4164103 +22.6855307     3353.325     72.55604      1.115     1.85     4.620955     20.49638     656.3264        19     0.955     0.809  85.38   0
       357    939.9507    202.3982 300.4491860 +22.7161548     2718.034     72.63011      1.167     1.96     4.855039     20.49638     523.9105        21     1.034     0.838  77.92   0
       358    138.6819    200.2674 300.2004250 +22.4754914     356.8154     72.75956      1.298     5.10     4.706578     20.49638     56.21932         9     1.316     0.856 -74.96   0
       359    385.7952    199.0968 300.2776438 +22.5492284     629.3868     72.55604      1.222     2.54     4.608557     20.49638      97.0104        11     0.865     0.766  84.04   0
       360    309.8652    190.9000 300.2566840 +22.5241179     556.1299     72.74108      1.134     2.76     4.469808     20.49638     106.1737        10     0.931     0.675  47.49   0
       361     76.1136    188.2032 300.1848964 +22.4532677     659.0111     72.57456      1.217     2.07     4.713165     20.49638     107.7133        10     0.795     0.715 -87.66   0
       362    437.1407    186.4646 300.2977180 +22.5609860     1596.979     72.68562      1.113     2.02     4.772428     20.49638     273.9101        14     0.993     0.718  57.38   0
       363    365.1594    186.7925 300.2752157 +22.5395100     435.5952     72.68562      1.142     2.82     4.707073     20.49638     78.97783         8     0.965     0.539  65.55   0
       364    498.9884    185.4894 300.3172830 +22.5792368     347.3312     72.59309      1.147     2.45     4.908669     20.49638     60.74221         6     0.750     0.492   9.24   0
       365    180.5882    181.8385 300.2194282 +22.4827644      405.149     72.64862      1.144     4.43     4.794493     20.49638     69.42973         7     1.110     0.584  48.69   0
       366    653.6932    179.9966 300.3672358 +22.6240011     230.2247     72.55604      1.188     3.39     4.571219     20.49638     38.52522         5     1.006     0.510 -51.45   0
       367     82.3557    172.2049 300.1920254 +22.4505471     218.4185     72.64862      1.029     3.59      4.83995     20.49638     33.68195         5     0.942     0.394  -5.75   0
       368    211.2165    166.4000 300.2339572 +22.4875133     5810.781     72.51897      1.226     2.21     4.897471     20.49638     806.4902        29     1.091     0.959  71.14   0
       369   1001.5520    166.8983 300.4799171 +22.7243830     3520.674     72.68562      1.176     2.12     5.055673     20.49638     541.0845        22     1.037     0.860  85.64   0
       370    717.7311    166.4520 300.3915789 +22.6392862     258.6913     72.63011      1.193     2.66     4.585215     20.49638     54.12529         6     0.854     0.443 -88.20   0
       371    850.5306    166.2837 300.4330211 +22.6790006     94.78115     72.75956      0.979     4.91      4.62978     20.49638     32.69584         5     1.038     0.658 -20.96   0
       372     62.3388    165.6968 300.1879173 +22.4426770     702.5616     72.74108      1.356     4.02     4.840791     20.49638     82.43057        13     1.196     0.781  48.01   0
       373    840.3934    163.2890 300.4308324 +22.6751046     359.8157     72.55604      0.945     2.15     4.630476     20.49638     55.14788         5     0.658     0.480  78.46   0
       374    182.9974    160.2174 300.2271904 +22.4772788     282.5559     72.55604      1.258     2.12     4.936391     20.49638     57.24587         5     0.751     0.462 -56.27   0
       375    226.6907    157.5722 300.2416314 +22.4896168     289.3983     72.63011      1.117     3.45     4.921882     20.49638      48.5508         6     0.830     0.535 -43.33   0
       376    686.7422    157.0264 300.3849821 +22.6272966     305.5086     72.64862      1.222     3.18     4.618139     20.49638     58.34493         5     0.793     0.381  72.00   0
       377    853.6055    155.1733 300.4375838 +22.6767264      253.381     72.63011      1.705     3.41     4.655087     20.49638     26.16223         5     0.766     0.440 -70.23   0
       378    457.2378    151.5930 300.3152841 +22.5569894     6158.113     72.66712      1.156     2.05     4.935923     20.49638     1043.034        27     1.038     0.881  73.61   0
       379    342.6465    151.3454 300.2797109 +22.5225819     652.2936     72.68562      1.143     3.03     4.855495     20.49638     100.2499        11     1.023     0.662  65.97   0
       380    514.1995    146.0985 300.3347957 +22.5724757     251.6104     72.51897      1.194     2.40     4.933395     20.49638     52.70226         6     0.722     0.547  56.50   0
       381    477.8997    145.3921 300.3237259 +22.5613980     208.5999     72.55604      1.208     4.35     4.997108     20.49638     40.48584         6     0.966     0.556 -63.53   0
       382    709.5930    141.6912 300.3970753 +22.6297314     917.5806     72.55604      1.513     4.73     4.680301     20.49638      133.818        14     1.492     0.786 -79.79   0
       383    651.2095    142.6839 300.3785659 +22.6125327     329.8315     72.59309      1.108     3.79     4.728168     20.49638      64.1672         7     0.927     0.529 -66.92   0
       384    802.4221    139.7131 300.4266441 +22.6569576     516.7501     72.57456      1.378     3.03     4.710186     20.49638     66.37508         8     0.999     0.490  85.72   0
       385    150.0856    135.6113 300.2249416 +22.4603476     549.2032     72.59309      1.354     3.46     4.953386     20.49638       64.455        11     1.078     0.664  73.50   0
       386    109.7680    136.8006 300.2120263 +22.4486022     255.1501      72.6116      1.504     3.84     4.998451     20.49638     29.06764         5     1.333     0.318  60.18   0
       387    508.7562    133.9811 300.3370316 +22.5673632     553.5324     72.66712      1.215     2.39     4.971713     20.49638     97.60518         9     0.911     0.580  58.39   0
       388    585.6461    131.6308 300.3617325 +22.5897195     6184.179     72.70411      1.118     2.11     4.889492     20.49638      991.605        30     1.043     0.908  62.94   0
       389    360.4339    130.6681 300.2919506 +22.5219726     1582.033     72.64862      1.185     2.21     4.939367     20.49638     227.4379        15     0.908     0.806  64.15   0
       390    626.8073    128.8563 300.3754506 +22.6012501     728.6215     72.63011      1.097     1.95     4.842405     20.49638     160.7017        12     0.828     0.803  -6.64   0
       391    696.5660    126.1393 300.3980610 +22.6213597     296.0865     72.66712      1.147     3.71     4.746607     20.49638       56.932         6     0.805     0.492  84.85   0
       392    642.6743    124.9405 300.3816625 +22.6048765     582.8019     72.68562      1.079     2.11     4.821239     20.49638     106.2583         7     0.717     0.606  78.72   0
       393    109.4740    123.4685 300.2162588 +22.4446864     761.5683      72.7226      1.284     2.29     5.036578     20.49638     114.3205        12     0.982     0.757  70.74   0
       394    912.4783    122.5015 300.4665374 +22.6849536     646.0685     72.77804      1.089     2.27     4.953318     20.49638     93.71061         9     0.872     0.595  47.43   0
       395    681.1787    120.2894 300.3951648 +22.6150703     595.7077     72.57456      1.142     2.02     4.771472     20.49638     103.1438         9     0.830     0.603 -74.55   0
       396    644.9706    115.3374 300.3854923 +22.6028038     904.3494     72.66712      1.570     4.68     4.857756     20.49638     101.6802        12     1.397     0.598  61.15   0
       397    629.7973    116.4426 300.3804080 +22.5985775     2787.808     72.66712      1.142     1.93     4.888769     20.49638     498.6563        18     0.965     0.800  67.20   0
       398    270.6915    117.0446 300.2684570 +22.4911660     367.4993     72.63011      1.114     2.57     4.768267     20.49638     57.09348         7     0.777     0.663 -33.44   0
       399    716.2253    108.0061 300.4100670 +22.6220334     1525.495     72.63011      1.198     2.06     4.821202     20.49638     259.6529        17     0.966     0.828  64.87   0
       400    876.6061    106.0981 300.4606723 +22.6694987     243.3655     72.53751      1.054     3.36     4.886588     20.49638     53.66055         5     0.731     0.463 -74.01   0
       401    794.3970    102.6286 300.4361708 +22.6438917     117.4329      72.6116      0.936     3.39     4.848696     20.49638     38.40252         5     1.007     0.331  67.72   0
       402    654.2369    101.2008 300.3929632 +22.6015151     786.2521     72.64862      1.179     2.25     4.894485     20.49638     129.7752        12     0.948     0.758 -18.09   0
       403    459.8358    100.6333 300.3326203 +22.5431258     978.6533     72.68562      1.173     2.30      5.03094     20.49638     168.2937        12     0.912     0.707  54.83   0
       404     32.7174    100.6373 300.1998150 +22.4151195      629.298      72.6116      1.436     3.35     5.771666     20.49638     83.35769        10     1.005     0.730  53.79   0
       405    363.5769     98.7579 300.3032771 +22.5137476     692.8032     72.70411      1.078     2.28     4.981247     20.49638     130.3999        10     0.809     0.719  74.55   0
       406    746.1584     97.1509 300.4229142 +22.6278747     350.2859     72.66712      1.035     2.57      4.86754     20.49638     86.43742         9     0.975     0.564 -87.06   0
       407   1006.6187     95.2857 300.5047260 +22.7052989     2278.598     72.59309      1.158     2.18     5.078001     20.49638     329.0168        20     1.024     0.851  81.95   0
       408    135.1998     88.9003 300.2354633 +22.4424731     3889.052     72.48189      1.323     2.20     5.059589     20.49638     580.4404        32     1.224     1.088  46.57   0
       409    703.1686     89.2613 300.4120781 +22.6127348     602.9359     72.68562      1.188     2.04     4.866788     20.49638     127.5151        12     0.868     0.757  79.27   0
       410    557.4611     85.8997 300.3677876 +22.5681344     348.4301     72.74108      1.246     2.91     5.050097     20.49638     45.21452         6     0.770     0.498 -88.53   0
       411    460.8908     85.7538 300.3377738 +22.5391663     299.7233     72.63011      1.286     2.80     5.042111     20.49638     50.45033         6     0.815     0.578 -85.32   0
       412    696.3674     81.0184 300.4126323 +22.6083285      1067.24     72.63011      1.243     2.05     4.866788     20.49638     175.3779        13     0.875     0.788 -70.78   0
       413    250.9843     80.9816 300.2740237 +22.4749021     1142.403     72.63011      1.256     2.40     4.917593     20.49638     183.5924        13     0.984     0.719  65.62   0
       414    875.3514     81.0318 300.4684102 +22.6619139      1673.86     72.68562      0.734     1.66     4.920209     20.49638     609.7189         9     0.694     0.415   9.14   0
       415    661.9562     80.0839 300.4022157 +22.5977561     224.5315      72.6116      0.946     2.29     4.895585     20.49638     64.57264         5     0.736     0.499  34.30   0
       416    477.8411     78.3928 300.3454363 +22.5421286     151.0573     72.68562      1.019     3.76     5.066587     20.49638     50.37701         6     0.936     0.566  69.45   0
       417    789.5743     78.1961 300.4425910 +22.6354222     258.4599      72.6116      1.030     3.39     4.869904     20.49638        36.49         5     0.748     0.445 -68.99   0
       418    734.1519     76.2099 300.4259639 +22.6182589     792.6735     72.66712      1.345     3.40     4.866788     20.49638     101.9426        16     1.273     0.779  82.27   0
       419    657.6261     75.7951 300.4022576 +22.5952266     436.0024      72.6116      1.205     2.41     4.907084     20.49638     71.77277         8     0.833     0.609 -81.62   0
       420    754.2019     72.3387 300.4334669 +22.6231485     2155.686      72.6116      1.107     1.98     4.867654     20.49638     364.6619        18     0.888     0.859  86.44   0
       421    459.6342     70.7526 300.3422471 +22.5344792     480.2639     72.68562      1.106     2.17     5.044941     20.49638     86.11494         8     0.831     0.571  72.98   0
       422    137.5503     67.8680 300.2430134 +22.4371382     938.7641     72.64862      1.312     2.52     5.123589     20.49638     130.8399        14     0.913     0.872  61.69   0
       423    929.1516     65.6732 300.4901665 +22.6735980     832.8217     72.64862      1.168     2.22     5.051143     20.49638     149.0234        12     0.971     0.719  50.26   0
       424    702.6103     64.7710 300.4198458 +22.6055264     880.5833     72.64862      1.091     2.15     4.866788     20.49638     145.0899        10     0.847     0.635 -81.81   0
       425    409.6475     63.3306 300.3290984 +22.5173721     375.3658     72.63011      1.210     2.28     4.988822     20.49638     59.67868         5     0.671     0.475 -84.15   0
       426    125.1845     63.1295 300.2407068 +22.4320709     282.9297     72.66712      1.276     4.39     5.258558     20.49638     32.11897         6     0.924     0.593 -70.41   0
       427    322.4165     59.2540 300.3032831 +22.4900660     178.5069     72.63011      1.056     3.44     4.905931     20.49638     30.57233         5     0.736     0.465  73.33   0
       428    315.8978     57.8026 300.3017262 +22.4876959     218.3273     72.55604      0.968     2.55     4.889839     20.49638     43.60949         5     0.752     0.493 -52.34   0
       429    153.2847     58.2753 300.2510138 +22.4390997     276.9055     72.75956      1.474     4.21     5.012869     20.49638     29.01106         7     1.102     0.458  29.58   0
       430    460.3722     57.2935 300.3468408 +22.5308326     333.2688     72.55604      1.086     3.48     5.048782     20.49638     53.36333         5     0.760     0.461  75.99   0
       431    287.4720     54.4219 300.2939817 +22.4782072     454.7086     72.66712      1.148     2.38     4.824162     20.49638      82.9802         6     0.738     0.555  50.70   0
       432    555.2410     49.9313 300.3787593 +22.5571314     893.0491     72.63011      1.212     1.87     5.074633     20.49638     177.1004        11     0.957     0.620  58.51   0
       433    289.5737     47.8976 300.2967506 +22.4769627     332.0331     72.59309      1.375     4.55     4.819813     20.49638     53.16705         7     1.153     0.779 -68.29   0
       434    690.5267     47.3261 300.4217376 +22.5968929     283.9865     72.70411      0.998     2.58     4.866788     20.49638     45.90503         5     0.684     0.479 -73.23   0
       435    164.5197     47.1423 300.2581153 +22.4392699     539.0118     72.68562      1.111     1.96     4.938617     20.49638      86.7327         8     0.695     0.665 -10.09   0
       436    718.2875     44.4631 300.4313148 +22.6043810     700.9566     72.75956      1.179     2.69     4.866788     20.49638      110.361        11     0.965     0.663  87.50   0
       437    526.8436     42.8774 300.3722053 +22.5465991       1924.6     72.63011      1.190     2.04     5.080713     20.49638     346.1044        17     0.985     0.791  52.37   0
       438    249.5053     40.4144 300.2867168 +22.4628066     601.3193     72.57456      1.151     2.55     4.972824     20.49638     87.86715        13     0.915     0.852  60.18   0
       439    484.1867     36.6693 300.3609396 +22.5320388     1473.849     72.66712      1.228     2.12     5.084409     20.49638     268.5673        18     1.044     0.836  76.05   0
       440    589.5310     33.4376 300.3947838 +22.5626591     1301.959      72.6116      1.147     2.28     5.085814     20.49638     187.5895        15     0.980     0.769  63.63   0
       441    184.7956     32.7560 300.2690818 +22.4412149     521.7212     72.66712      1.239     2.69     4.986635     20.49638     69.06828         8     0.751     0.698 -53.11   0
       442    233.7831     30.2570 300.2851213 +22.4551776     477.6535      72.6116      1.288     2.54       5.0548     20.49638     69.35481         9     0.834     0.697  13.55   0
       443    409.9220     27.3072 300.3408632 +22.5071032     2051.178      72.7965      1.215     2.26     4.993857     20.49638     327.6815        18     0.961     0.866  73.29   0
       444     57.1411     25.2541 300.2318432 +22.4007989     1385.531     72.70411      1.337     2.50     5.866538     20.49638     179.1537        20     1.063     0.958  84.21   0
       445    900.5122     23.9595 300.4947609 +22.6530278      260.264     72.63011      1.419     4.00     5.012069     20.49638     45.73263         5     0.921     0.497 -86.01   0
       446    540.6917     21.9476 300.3833020 +22.5447306     471.4781     72.70411      1.107     2.20     5.091994     20.49638     83.79777         9     0.813     0.657  31.69   0
       447     44.9477     19.9830 300.2297638 +22.3956302     230.1024     72.63011      1.290     3.79     5.860454     20.49638     31.68286         5     1.042     0.396  32.05   0
       448    884.4920     15.7364 300.4924317 +22.6458681     386.8674     72.75956      1.065     2.58     4.972716     20.49638     61.92964         7     0.879     0.489  81.73   0
       449     42.6217   1006.5499 299.9085759 +22.6778896     3582.802     72.64862     10.039    33.35      22.6212     20.49638     76.68263       342     8.396     3.677 -19.55  19
       450    382.0399   1010.7988 300.0126923 +22.7810318     614.2579     72.66712      1.510     2.61      2.95937     20.49638     77.57954        10     0.843     0.824  76.62   0
       451    822.8112   1007.3878 300.1510412 +22.9123103     156.2356     72.53751      1.306     3.40     3.543397     20.49638     31.03889         5     0.747     0.448 -18.79   0
