#   1 NUMBER                 Running object number                                     
#   2 X_IMAGE                Object position along x                                    [pixel]
#   3 Y_IMAGE                Object position along y                                    [pixel]
#   4 ALPHA_J2000            Right ascension of barycenter (J2000)                      [deg]
#   5 DELTA_J2000            Declination of barycenter (J2000)                          [deg]
#   6 FLUX_APER              Flux vector within fixed circular aperture(s)              [count]
#   7 FLUXERR_APER           RMS error vector for aperture flux(es)                     [count]
#   8 FLUX_RADIUS            Fraction-of-light radii                                    [pixel]
#   9 FWHM_IMAGE             FWHM assuming a gaussian core                              [pixel]
#  10 BACKGROUND             Background at centroid position                            [count]
#  11 THRESHOLD              Detection threshold above background                       [count]
#  12 FLUX_MAX               Peak flux above background                                 [count]
#  13 ISOAREA_IMAGE          Isophotal area above Analysis threshold                    [pixel**2]
#  14 A_IMAGE                Profile RMS along major axis                               [pixel]
#  15 B_IMAGE                Profile RMS along minor axis                               [pixel]
#  16 THETA_IMAGE            Position angle (CCW/x)                                     [deg]
#  17 FLAGS                  Extraction flags                                          
         1    861.7919     19.6179 300.4334179 +22.6232205     2201.625     72.47465      1.426     2.44     4.835932     20.46294     316.6645        22     1.099     1.036  50.20   0
         2    244.9191     14.9096 300.2429491 +22.4371349     925.6866     72.64085      1.491     3.37     5.100536     20.46294     108.3821        17     1.116     0.959  20.35   0
         3    810.0547     12.0881 300.4197355 +22.6055702     966.3209     72.56703      1.383     3.12     5.165688     20.46294     119.9172        17     1.142     0.866 -62.32   0
         4    517.5148     10.3523 300.3292047 +22.5174859     368.5726     72.51162      1.668     3.14     4.430402     20.46294      41.5292         5     0.765     0.699  45.92   0
         5    394.8559      1.7040 300.2938465 +22.4782622     311.7985      58.6141      1.155     3.88     4.520367     20.46294     45.82531         7     0.872     0.577 -31.96  24
         6    174.8680   1012.3281 299.8973449 +22.7022671     630.7529     72.56703      4.715     3.64     59.37902     20.46294     37.16552         5     0.961     0.673  84.71   1
         7    618.4608   1023.0137 300.0318104 +22.8384913     1740.093     60.01471      1.609     4.21     2.085676     20.46294     158.9148        21     1.349     0.906   0.73  24
         8    242.7369   1014.4125 299.9177543 +22.7232452     2405.441     72.51162      8.591    36.56     50.91606     20.46294     79.57552       317     8.239     4.502  52.95  27
         9    286.3254   1017.9517 299.9301494 +22.7373476       6061.5     72.53009     14.113    52.63     33.74398     20.46294     128.4461      1003    13.316     6.283   6.32  27
        10    309.9940   1007.0090 299.9410666 +22.7413176     9347.441     72.38215     10.664    32.31     21.12429     20.46294     196.3831       844    11.874     5.005  55.40  19
        11    146.3250    984.2223 299.8976218 +22.6856419     4065.981     72.53009     26.058    86.01     32.49749     20.46294     96.30618      3002    18.860    14.154 -45.59  27
        12    148.4699    948.6933 299.9098450 +22.6761052     3729.577      72.6593     21.947    50.86     15.25822     20.46294     92.43154       828    10.977     6.539 -40.58   3
        13    603.4836    980.1796 300.0410852 +22.8217119     535.9883     72.47465      1.946     4.61     2.449909     20.46294     51.09283        10     1.170     0.820  70.55   0
        14    146.2781   1019.3736 299.8861715 +22.6956995     3863.237     72.53009     11.086    33.27     50.18703     20.46294     81.68892       330     8.088     3.799   8.59  27
        15     54.0771   1004.8859 299.8622510 +22.6638555     824.5055     72.65929      4.041     6.81       3.5554     20.46294     43.77768        11     1.416     0.922  47.79   2
        16    314.9521    979.5319 299.9515469 +22.7349303     565.8095     72.53009      1.528     5.59     14.08292     20.46294     81.35036        11     1.164     0.757  65.49   0
        17    631.7062    976.6890 300.0510057 +22.8291783     1415.568     72.69617      1.763     4.28     2.528032     20.46294     97.35623        24     1.290     1.185  29.24   0
        18    185.8752   1003.9193 299.9035003 +22.7031632     954.5046     72.64085      6.135     7.77     54.06628     20.46294      38.2934        15     1.412     1.196 -54.74   1
        19    525.3882    973.1323 300.0190747 +22.7962573      1046.54     72.53009      1.777     4.82     2.522259     20.46294     67.33566        20     1.268     1.078  24.61   0
        20    809.0875    972.8470 300.1074943 +22.8812842     357.3616     72.51162      1.693     5.08     3.079792     20.46294     26.95285         6     1.064     0.686  -9.32   0
        21    456.2147    971.1373 299.9982039 +22.7749261     6570.174     72.49313      1.816     3.73     2.898936     20.46294     516.7175        44     1.452     1.373 -13.23   0
        22    997.6740   1002.7290 300.1565470 +22.9464101     885.0416     72.60395      1.988     7.58     3.359163     20.46294     49.30259        18     1.415     1.136 -45.51   0
        23    488.7991    958.0546 300.0125959 +22.7809535     637.3751     72.45616      2.012     4.21     2.743278     20.46294     51.27541        12     1.161     0.870 -57.02   0
        24    216.3125    987.8673 299.9181792 +22.7077033     1381.703     72.64085      6.129    11.71     44.52644     20.46294     54.94623        33     2.581     1.479  13.72   2
        25      2.7533    954.7675 299.8626198 +22.6340815     1326.225     63.90731      1.679     3.70     2.978329     20.46294     146.3384        23     1.391     1.040  80.26  24
        26    185.4538    952.0192 299.9202524 +22.6881639     997.5956     72.51162      9.470     9.92     22.05164     20.46294     45.09858        15     2.007     1.368 -75.43   1
        27   1002.4439    949.9879 300.1751937 +22.9326994     2093.539     72.53009      1.954     4.75     3.345449     20.46294      111.221        31     1.465     1.297 -30.98   0
        28    652.8773    947.5034 300.0670908 +22.8271575     530.3199     72.65929      1.916     5.67     2.734708     20.46294     40.61163        11     1.208     0.831 -25.61   0
        29    500.6053    945.6025 300.0203194 +22.7809254     437.2391     72.34512      1.753     5.84     2.842965     20.46294      33.4658         8     1.372     0.701  34.73   0
        30    791.7250    939.0176 300.1130906 +22.8663693     803.6494     72.53009      1.986     7.09     3.090007     20.46294     53.66675        18     1.643     0.857  57.55   0
        31    826.3295    933.1541 300.1257785 +22.8750639     922.7001     72.51162      1.827     4.58     3.086979     20.46294     64.53261        19     1.215     1.095 -60.67   0
        32    603.3686    933.7491 300.0561533 +22.8083592     362.0162     72.56703      1.648     4.32     2.897164     20.46294     32.47344         5     0.821     0.691  32.31   0
        33     36.2817    929.8735 299.8811254 +22.6370204     656.7384     72.64085      2.029     5.26     3.068156     20.46294     51.67194        10     1.219     0.682  80.59   0
        34    848.3561    926.7131 300.1347365 +22.8798204      11536.9     72.51162      1.810     3.87     3.112537     20.46294     692.0193        57     1.477     1.422 -16.72   0
        35    568.8129   1008.6025 300.0210473 +22.8194605     368.3791     72.36363      1.977     6.45     2.180094     20.46294     37.57512         8     1.209     0.966   0.16   0
        36    894.2689    926.7567 300.1490298 +22.8935995     293.8918     72.49313      1.648     5.68     3.113053     20.46294     35.84739        10     1.057     0.859  21.88   0
        37     26.6121    991.8296 299.8579711 +22.6518652     362.0264     72.53009      1.394     3.45     3.507129     20.46294      29.0409         5     0.781     0.441  71.29   0
        38    605.0646   1006.8473 300.0329009 +22.8298351     223.1505     72.56703      1.478     4.89     2.186765     20.46294     33.21001         5     0.870     0.780  -1.96   0
        39    190.7593    922.8919 299.9313743 +22.6814092     668.5108     72.53009      4.012     3.79     8.176065     20.46294     30.82901         5     1.175     0.351 -77.43   0
        40    159.6695    918.4816 299.9231500 +22.6708102     1325.193     72.64085      6.007     6.07     4.755321     20.46294     71.48892        23     1.477     1.336 -79.92   0
        41    858.9285    918.7848 300.1406097 +22.8807149      436.459     72.53009      2.408     4.04      3.17561     20.46294     32.77751         5     1.029     0.503 -35.08   0
        42    553.8005    915.1260 300.0467839 +22.7881458     523.9865     72.40066      1.780     4.28     2.925582     20.46294     47.05584         9     1.059     0.666  43.92   0
        43    723.2170    985.9929 300.0764710 +22.8593001     6759.521     72.47465      1.872     4.01     3.008171     20.46294     413.6916        44     1.456     1.403 -15.42   0
        44    856.8792    908.8788 300.1431931 +22.8772571     1418.049     72.65929      1.838     4.24     3.248338     20.46294     112.7627        19     1.167     1.099   3.18   0
        45    150.1934    909.5749 299.9231028 +22.6654123     862.8076     72.53009      3.592     6.50     4.489102     20.46294     51.01723        13     1.448     0.819 -20.97   0
        46    709.9944    906.0291 300.0983650 +22.8323909     435.2944     72.53009      1.706     4.84     2.983863     20.46294     41.62934         7     1.103     0.650 -55.60   0
        47    894.8739    902.3412 300.1571597 +22.8867724     777.9715     72.56703      1.806     5.30     3.284285     20.46294     61.96254        16     1.206     1.065  27.86   0
        48   1002.7002    898.8623 300.1919038 +22.9180975     371.8984     72.60395      1.727     5.01     3.328372     20.46294     28.11888         6     1.110     0.640 -16.94   0
        49    200.8612    897.2357 299.9428566 +22.6770886     623.5213     72.54856      6.284     6.20     6.881494     20.46294     30.04704         5     1.442     0.749  -3.17   0
        50    197.3520    984.0923 299.9135161 +22.7009280     1262.546     72.54856      7.734    10.14     41.97232     20.46294     38.91546        21     1.937     1.480   7.00   2
        51    943.3669    893.4513 300.1751658 +22.8987582     517.4897     72.54857      1.739     5.55     3.299032     20.46294     43.84974        10     1.116     0.780 -40.75   0
        52    794.9838    892.3942 300.1292704 +22.8539662     611.0501     72.45616      1.589     3.86     3.181662     20.46294     55.15897        14     1.001     0.988 -53.03   0
        53    507.3380    888.9016 300.0408555 +22.7666834     4039.838     72.62241      1.640     3.58     3.084597     20.46294     355.7027        35     1.311     1.276 -65.40   0
        54    806.1760    889.7233 300.1336257 +22.8565558     456.4691     72.54856      1.445     5.94     3.209819     20.46294     45.23402        12     1.216     0.816  62.65   0
        55     54.7267    891.3359 299.8993847 +22.6315181     220.0945     72.56703      1.345     3.97     3.221768     20.46294     43.39493         5     0.877     0.554  55.45   0
        56    551.4966    877.7048 300.0582369 +22.7767203      302.281      72.7146      1.337     3.37     3.054009     20.46294     43.36052         5     0.761     0.431 -66.19   0
        57    285.7735    877.4130 299.9756903 +22.6968967     422.8153     72.53009      1.696     6.59     4.152567     20.46294      37.6311        10     1.264     0.963  -8.16   0
        58    169.5792    877.8071 299.9394554 +22.6621280     383.2925     72.51162      1.620     3.69     4.354528     20.46294     27.76594         5     1.017     0.385  -5.28   0
        59    232.5750    874.6258 299.9600632 +22.6801284     746.4601     72.49313      1.796     4.34     5.150777     20.46294     57.50473        16     1.167     0.982  81.63   0
        60    209.9137    871.4324 299.9540598 +22.6724101     1688.142     72.51162      1.783     3.89     4.581706     20.46294     125.7364        26     1.323     1.187 -26.98   0
        61    141.2588    872.7383 299.9323060 +22.6521723     513.4341     72.58549      2.244     5.03     3.869525     20.46294     44.54251         8     1.187     0.602   8.20   0
        62     85.1867    861.1084 299.9186720 +22.6320029     419.6526     72.47465      1.405     5.01     3.341641     20.46294      41.4828         9     1.016     0.716  68.21   0
        63    740.9587    859.3027 300.1232038 +22.8282683     439.6501     72.51162      1.603     5.12     3.251708     20.46294      33.8412         9     1.130     0.655 -41.41   0
        64    819.2443    853.1250 300.1495987 +22.8499695     618.8093     72.51162      1.614     4.82     3.356045     20.46294     52.78255        13     1.077     0.933 -34.00   0
        65    242.3837    852.6208 299.9702662 +22.6767646     494.1798     72.51162      1.785     4.70     3.849153     20.46294     59.49342         6     1.172     0.536  59.28   0
        66    566.3374    851.0309 300.0715289 +22.7735204     327.0977     72.54856      1.560     4.19     3.111127     20.46294      37.2892         7     0.856     0.764 -15.34   0
        67    687.3786    846.9720 300.1105279 +22.8086613     4877.235     72.53009      1.582     3.06     3.128635     20.46294     478.2665        35     1.284     1.207 -56.48   0
        68    177.4084    848.1744 299.9515226 +22.6559847     446.3242     72.53009      1.653     4.70     3.835747     20.46294     45.53585         8     0.978     0.642  82.50   0
        69    489.2946    844.1088 300.0498072 +22.7484216     704.3968     72.69617      1.655     4.29     3.182572     20.46294     66.30277        16     1.212     0.966   4.14   0
        70    237.3840    840.8483 299.9725400 +22.6718888      1404.47     72.56703      1.822     3.91     3.774054     20.46294     122.3426        22     1.388     1.049 -17.13   0
        71    707.9709    839.3476 300.1194193 +22.8126489     721.3433     72.54856      1.641     3.91      3.19274     20.46294       63.029        14     1.102     0.909  84.29   0
        72    256.9366    837.6795 299.9796467 +22.6768493     459.0324     72.62241      1.610     4.15      3.75528     20.46294     39.74019         9     0.919     0.694 -66.39   0
        73    863.4547    826.7673 300.1719444 +22.8556576     4250.864     72.54857      1.661     3.31     3.611092     20.46294      352.661        35     1.336     1.231 -35.03   0
        74    271.9485    820.7917 299.9898027 +22.6765131     512.3218     72.53009      1.591     4.36      3.64889     20.46294     47.65428        12     1.194     0.812  66.97   0
        75    580.2764    819.3038 300.0861826 +22.7685990     675.4265     72.67773      1.554     3.53     3.104453     20.46294     71.38997        12     1.028     0.824 -13.82   0
        76    226.6860    817.1451 299.9769216 +22.6618820     1169.662     72.58549      1.715     3.87     3.623857     20.46294     96.65256        19     1.195     1.080  37.81   0
        77    376.4373    809.2637 300.0260339 +22.7045648     53264.02     72.53009      1.603     2.99     3.495791     20.46294     5254.365       101     1.444     1.412  -7.20   0
        78    642.1169    812.5187 300.1076378 +22.7852001     348.3844     72.65929      1.346     4.26     3.160253     20.46294     47.87663         8     0.966     0.648  39.46   0
        79    634.2614    808.2998 300.1065638 +22.7816334     1617.202     72.62241      1.446     2.94     3.150847     20.46294     155.6738        22     1.111     1.060 -56.82   0
        80    305.3156    807.7319 300.0044198 +22.6827826     446.2311     72.64085      1.383     2.97     3.560701     20.46294     56.91076         6     0.763     0.592 -42.78   0
        81    663.2219    804.5604 300.1167957 +22.7892457     871.7219     72.56703      1.517     3.12     3.216212     20.46294     90.56239        15     1.053     0.876 -29.51   0
        82     29.6511    803.8168 299.9200525 +22.5989083     801.6816     72.53009      2.260     6.09     3.391077     20.46294     69.21205        17     1.533     1.308   8.80   0
        83     62.7424    803.7688 299.9303431 +22.6088306     768.0241     72.54857      1.635     3.86     3.400507     20.46294     79.50542        13     1.041     0.906 -40.13   0
        84    674.2305    802.7308 300.1208180 +22.7920220     609.7339     72.51162      1.611     3.93     3.244965     20.46294     65.48295        12     1.004     0.880  85.25   0
        85    779.5248    799.0423 300.1548091 +22.8225361     501.5874     72.51162      1.547     5.60     3.257654     20.46294     42.41013        11     0.961     0.919   1.35   0
        86    817.2699    789.3928 300.1697048 +22.8310822     821.1735     72.49313      1.722     3.62     3.364843     20.46294     63.77639        15     1.076     0.935  -7.62   0
        87    440.3264    787.0499 300.0531244 +22.7173629     1951.555     72.53009      1.521     2.91      3.37382     20.46294     205.4377        22     1.094     1.047  57.56   0
        88    426.1920    786.4901 300.0489101 +22.7129617     31072.48     72.43766      1.532     2.87     3.401723     20.46294     3232.052        70     1.329     1.324 -19.32   0
        89    129.3182    784.9839 299.9571255 +22.6234340     1939.333     72.51162      0.555     0.94     3.490292     20.46294     1161.025         7     0.499     0.336  -1.67   0
        90    949.4351    782.4290 300.2131575 +22.8686988     2888.311     72.54857      1.689     3.68     3.628522     20.46294     222.0272        32     1.388     1.211 -17.50   0
        91    977.8920    780.8668 300.2225369 +22.8767785     400.7196     72.67773      1.777     6.32     3.707279     20.46294      36.1941         7     1.241     0.907  21.92   0
        92    437.3471    781.0794 300.0541384 +22.7147564     748.5646     72.54856      1.976     3.19     3.385875     20.46294     68.41946         9     0.955     0.633 -34.29   0
        93    707.0525    778.4920 300.1389178 +22.7949076       904.35     72.58549      1.570     3.86     3.320331     20.46294     88.40193        16     1.139     0.952  12.01   0
        94    543.7469    778.3721 300.0881206 +22.7458978     537.1465     72.54857      1.697     3.44     3.210044     20.46294     45.10606         9     0.895     0.720 -76.20   0
        95    308.8868    778.4634 300.0150440 +22.6754612     759.7162     72.64085      1.472     3.06     3.519817     20.46294     89.25759        13     1.060     0.802  34.75   0
        96    554.2508    773.1442 300.0930886 +22.7475483     773.4381     72.56703      1.461     3.55     3.223886     20.46294     72.93497        15     1.131     0.865  58.71   0
        97    114.0409    773.6605 299.9560607 +22.6156018     514.5489     72.53009      1.629     3.48     3.444194     20.46294     52.29624         8     1.051     0.620 -89.29   0
        98    955.7675    770.0790 300.2191462 +22.8670499     591.3907     72.51162      1.608     5.95     3.583712     20.46294     57.51601        13     1.118     0.892   9.36   0
        99    456.4634    769.7464 300.0637683 +22.7172403     405.2405     72.56703      1.557     4.97     3.370122     20.46294     45.57882        10     1.078     0.842   2.56   0
       100    499.9455    768.2433 300.0777839 +22.7298530     364.1336     72.54856      1.472     3.64        3.315     20.46294     55.82099         9     1.150     0.825 -71.52   0
       101    412.2432    768.9617 300.0502693 +22.7037487     348.9052     72.62241      1.444     3.05     3.432571     20.46294     55.42994         5     0.791     0.488  23.05   0
       102    141.7443    767.3480 299.9667174 +22.6221085     565.7475     72.56703      1.565     3.96     3.485719     20.46294     64.97383        11     1.323     0.696 -58.78   0
       103    933.1913    765.2228 300.2136871 +22.8588893     323.1726     72.53009      1.499     4.42     3.526125     20.46294      35.7341         5     1.238     0.449 -27.68   0
       104    306.3786    762.4097 300.0194821 +22.6701046     518.9118     72.51162      1.422     2.75     3.518092     20.46294     62.78279         9     0.906     0.694  39.02   0
       105    629.1867    752.9186 300.1229865 +22.7642184     445.4984     72.51162      1.381     2.87     3.274255     20.46294     71.83759         9     0.887     0.802 -82.71   0
       106    599.1865    751.5439 300.1140948 +22.7548271     586.1237     72.51162      1.386     3.68     3.240002     20.46294      66.7179        10     1.101     0.733 -60.76   0
       107    508.5005    749.9891 300.0863787 +22.7271819     340.7474     72.43766      1.441     6.17     3.366535     20.46294     50.53467        10     1.241     0.903  37.51   0
       108   1015.7444    747.7604 300.2451010 +22.8786128     4385.936     72.53009      1.718     3.58     3.442319     20.46294     343.8716        38     1.429     1.266 -35.11  16
       109    621.2198    748.6992 300.1218778 +22.7606184     1342.905     72.45616      1.419     2.90     3.263014     20.46294     157.3521        18     1.041     0.952  88.69   0
       110    540.9701    748.2239 300.0970556 +22.7364144     367.2965     72.53009      1.423     4.63     3.358816     20.46294     35.21436         7     0.859     0.709 -52.72   0
       111    703.0582    743.8428 300.1489364 +22.7837644      116.979     72.51162      1.333     4.36     3.421775     20.46294     34.56593         6     1.133     0.477 -27.55   0
       112   1004.1750    739.2001 300.2442758 +22.8726873     1744.222     72.47465      1.706     3.84     3.354979     20.46294      127.673        28     1.322     1.263 -49.08   0
       113    366.8980    732.9477 300.0478729 +22.6798136     835.1356     72.62241      1.467     3.42     3.480012     20.46294      88.1833        15     1.118     0.914 -67.41   0
       114    830.6064    730.4093 300.1930324 +22.8181452     2556.142     72.38215      1.640     3.31     3.483589     20.46294     214.0698        31     1.376     1.156  -4.81   0
       115     52.8441    720.6070 299.9542970 +22.5820222     789.4329     72.54856      1.787     4.31     3.563077     20.46294     70.18593        13     1.154     0.992  17.44   0
       116    913.1403    716.4698 300.2232831 +22.8388790     638.6294     72.56703      1.622     4.86     3.593428     20.46294     66.49262        13     1.254     0.890  37.46   0
       117    215.8993    716.6878 300.0062201 +22.6298405      582.775     72.69617      1.508     5.00     3.595852     20.46294      69.3976        13     1.212     0.885  43.11   0
       118    948.9601    707.3569 300.2374103 +22.8469958     147374.8     72.62241      1.582     3.05     3.697822     20.46294     13291.03       162     1.513     1.485 -61.11   0
       119    711.7336    711.1659 300.1622578 +22.7769852     476.1278     72.53009      1.455     4.00     3.476674     20.46294     44.97878         9     0.969     0.773 -47.72   0
       120    801.3741    707.8510 300.1912561 +22.8029057     888.5743     72.54856      1.777     4.16     3.462566     20.46294     82.03806        16     1.234     0.991  32.31   0
       121    981.8253    700.0588 300.2500281 +22.8547474     388.7622     72.53009      1.378     5.57     3.862253     20.46294     49.93237         9     1.214     0.720  35.33   0
       122    635.1534    696.2072 300.1432744 +22.7497306     1656.445     72.54856      1.421     2.73     3.429512     20.46294     168.9898        20     1.076     0.979   9.58   0
       123    816.4079    693.4288 300.2006266 +22.8032707     9372.117     72.53009      1.479     2.74     3.532137     20.46294     993.3978        40     1.243     1.159 -74.63   0
       124    317.9429    688.5626 300.0470751 +22.6523942     4795.073     72.53009      1.473     2.69     3.635537     20.46294     535.5421        32     1.201     1.129  45.88   0
       125    400.0371    686.7704 300.0731836 +22.6765086     1215.423     72.54856      1.383     2.98     3.462124     20.46294     152.1011        16     1.004     0.926  33.83   0
       126     31.5216    686.8658 299.9586394 +22.5659490     1588.734     72.64085      1.728     3.71     3.659022     20.46294     159.6715        25     1.244     1.218 -22.80   0
       127    275.6616    684.6114 300.0352157 +22.6385748     533.8821     72.47465      1.674     3.98     3.753029     20.46294     55.21548         9     1.048     0.836 -20.16   0
       128    608.2720    682.1351 300.1394790 +22.7376312     880.2436     72.56703      1.536     2.93     3.391072     20.46294     97.50898        13     0.968     0.849 -74.98   0
       129    599.9475    674.3715 300.1394103 +22.7329067     3200.885     72.54856      1.377     2.54     3.413847     20.46294      379.335        25     1.059     1.048  40.93   0
       130    590.1232    668.0735 300.1383987 +22.7281532     1620.394     72.62241      1.429     2.65     3.497566     20.46294     178.8889        23     1.322     0.951  -8.96   0
       131      7.1736    668.6172 299.9570087 +22.5534086     295.8681     72.54856      1.295     3.50     3.707979     20.46294     35.83562         5     0.839     0.422 -19.39   0
       132    518.7523    667.4339 300.1163956 +22.7065674     299.2741     72.56703      1.097     3.14     3.513391     20.46294     56.67856         7     0.790     0.653  15.55   0
       133    983.7343    665.7488 300.2617723 +22.8454635     463.4923     72.56703      1.593     4.84     4.188555     20.46294     57.15611        11     1.226     0.713 -66.48   0
       134    501.5742    665.4260 300.1117031 +22.7008394     277.8735     72.49313      1.396     3.41     3.514249     20.46294      41.3267         6     1.032     0.477  -8.21   0
       135    253.3696    664.1169 300.0349457 +22.6260078     572.2118     72.54856      1.323     2.68     3.827795     20.46294     94.18259        12     0.993     0.759  60.43   0
       136    267.8278    662.6232 300.0399246 +22.6299175     541.8831     72.53009      1.354     4.39     3.830223     20.46294     76.00385        11     1.180     0.723  56.35   0
       137    153.3402    661.7880 300.0046205 +22.5953231     441.9824     72.51162      2.308     4.45     3.687755     20.46294     32.87658         6     0.999     0.564 -25.42   0
       138    293.4483    659.5003 300.0489029 +22.6367088     519.3145     72.56703      1.372     2.86     3.821478     20.46294     61.37109        10     0.951     0.694  15.10   0
       139    514.9135    657.7469 300.1183483 +22.7026361      1729.72     72.56703      1.373     2.45     3.608649     20.46294     250.9064        20     1.057     0.940 -71.88   0
       140    324.0994    659.2638 300.0585082 +22.6458368     263.1218     72.62241      1.504     3.42     3.700769     20.46294     36.57162         5     1.010     0.335 -41.42   0
       141    614.0757    658.2428 300.1490485 +22.7325134     483.8093     72.51162      1.273     3.61      3.64774     20.46294     71.33487         8     0.982     0.656  18.91   0
       142    548.7456    657.4287 300.1289794 +22.7126904     288.1537     72.53009      1.336     4.89     3.696221     20.46294     33.10436         6     0.957     0.706  15.78   0
       143    168.8645    652.6936 300.0123979 +22.5973740     19624.22     72.64085      1.574     3.00     3.735478     20.46294     2003.154        71     1.412     1.383  25.93   0
       144     89.7842    654.0425 299.9873953 +22.5740274     628.0116     72.54856      1.545     3.29     3.735534     20.46294     82.86182        13     1.150     0.912  54.64   0
       145    599.8749    653.1566 300.1462805 +22.7267956     1003.866     72.51162      1.402     2.99     3.719644     20.46294     111.6241        15     1.038     0.903  58.40   0
       146    635.6266    652.2882 300.1576919 +22.7372656     217.8708     72.49313      1.107     3.64      3.77723     20.46294     41.77155         5     0.922     0.433   9.48   0
       147    970.7808    648.9888 300.2631793 +22.8367678     330.7419     72.49313      1.353     3.89     4.030304     20.46294     31.67538         5     0.844     0.513  37.23   0
       148    353.0445    645.0298 300.0721318 +22.6504367     316.7267     72.56703      1.441     3.02     3.647196     20.46294     37.92611         5     0.626     0.596  -2.08   0
       149   1017.9753    639.4775 300.2809849 +22.8481742     998.4685     72.54856      1.507     3.01      4.06826     20.46294     103.0249        18     1.071     0.984  30.51  16
       150    115.1148    636.7848 300.0008688 +22.5766815     1562.792     72.49313      1.891     3.92     3.800111     20.46294     119.1506        26     1.480     1.063 -80.14   0
       151    884.6305    637.5193 300.2400514 +22.8076599     393.2986     72.53009      1.547     4.88     3.914225     20.46294     41.82281         7     0.899     0.793  64.73   0
       152    563.1652    633.8327 300.1411327 +22.7102418     543.0305     72.56703      1.461     3.39     4.047735     20.46294      63.9464        12     1.073     0.829 -65.11   0
       153    957.2818    631.9578 300.2645040 +22.8278308     1037.817     72.49313      2.212     7.77     3.926293     20.46294     71.34801        21     1.979     0.917   0.10   0
       154    702.4741    630.3802 300.1856231 +22.7510160     313.8062     72.53009      1.439     3.91     4.075564     20.46294     29.95594         6     0.902     0.485   0.65   0
       155    519.9382    626.1309 300.1301829 +22.6950692     769.2365     72.56703      1.368     2.98     4.000384     20.46294     104.5496        11     0.979     0.768  -6.41   0
       156    668.0652    624.6216 300.1767794 +22.7390479     395.9906     72.49313      1.320     3.42     4.174388     20.46294     55.66767         7     0.823     0.638 -73.87   0
       157    715.2519    623.2518 300.1919180 +22.7527995     442.8358     72.56703      1.337     2.71     4.144523     20.46294     54.09312         8     0.848     0.633 -10.49   0
       158    685.5088    622.7988 300.1828030 +22.7437537     611.4511     72.43766      1.298     2.65     4.184515     20.46294     78.74239         9     0.857     0.690  67.18   0
       159    564.2788    621.9380 300.1453433 +22.7071615     922.8019     72.60395      1.376     2.94     4.235233     20.46294     112.7134        15     1.046     0.936  36.70   0
       160    997.8688    617.3784 300.2818948 +22.8358015     3234.609     72.53009      1.515     3.07     3.839866     20.46294     312.4771        26     1.174     1.092 -49.63   0
       161    529.6774    617.2776 300.1360893 +22.6954486     1806.178     72.62241      1.290     2.46     4.199786     20.46294     230.9998        20     1.006     0.987 -73.75   0
       162    894.8396    614.2346 300.2507977 +22.8040306     421.5335     72.56703      1.763     3.67     3.943279     20.46294     41.99306         7     0.796     0.779  49.59   0
       163    505.1516    612.7411 300.1299315 +22.6867922     407.2974     72.58549      1.404     2.80      4.00547     20.46294     45.77247         6     0.742     0.548 -39.66   0
       164     91.5724    610.8503 300.0019807 +22.5621793     4917.624     72.54856      1.657     3.11     3.927198     20.46294     540.5219        38     1.350     1.278  23.29   0
       165    558.8770    608.1409 300.1481439 +22.7015815     320.3073     72.58549      1.315     3.80     4.446696     20.46294     46.26656         6     0.946     0.437  36.52   0
       166    393.1501    604.0358 300.0979194 +22.6507047     8893.101     72.54856      1.372     2.51      3.79598     20.46294     1052.901        41     1.178     1.137 -15.08   0
       167    515.5590    601.0716 300.1369602 +22.6865636     8966.973     72.51162      1.359     2.40     4.159928     20.46294     1157.329        42     1.192     1.114  57.71   0
       168    927.1979    595.0990 300.2670995 +22.8082287     1812.404     72.41916      1.457     2.78     3.893059     20.46294     202.1697        23     1.222     0.969  59.66   0
       169    159.1501    596.9838 300.0274757 +22.5784821     253.9674     72.54856      1.313     3.97     3.917645     20.46294     41.86392         7     0.901     0.544 -43.48   0
       170   1011.8912    592.4524 300.2943643 +22.8328402     12210.93     72.58549      1.551     2.91     3.763264     20.46294     1213.529        49     1.326     1.269 -75.46   0
       171    576.1463    590.7134 300.1591793 +22.7017565     11650.89     72.56703      1.322     2.32     4.422276     20.46294      1599.39        43     1.163     1.103  59.27   0
       172    303.4592    586.2420 300.0758112 +22.6186963     1369.407     72.51162      1.357     2.44     3.932773     20.46294      197.805        16     1.000     0.974  43.48   0
       173    745.2728    586.4024 300.2132378 +22.7512161     478.7019     72.43766      1.443     3.71     4.288456     20.46294     56.71795        11     1.101     0.740  -0.66   0
       174    461.2441    585.2366 300.1252050 +22.6657316     356.9351     72.58549      1.283     2.66     3.792579     20.46294     63.84899         6     0.834     0.615   4.94   0
       175      4.6432    583.1716 299.9839769 +22.5281529     2402.888     71.01791      1.674     3.29     3.913681     20.46294     225.2027        28     1.272     1.212  -7.32  16
       176    507.7716    578.8385 300.1417584 +22.6778470     4464.762     72.56703      1.354     2.44     4.076733     20.46294     631.1827        28     1.085     1.025  87.21   0
       177    850.6633    578.9951 300.2484772 +22.7806713     732.4025     72.49313      1.294     2.72     4.016796     20.46294     95.42711        12     0.919     0.817   7.34   0
       178    486.2064    577.2823 300.1355542 +22.6709340     1213.887     72.45616      1.348     2.65     3.845009     20.46294     141.3056        15     0.994     0.835   5.09   0
       179    240.3727    576.6532 300.0593165 +22.5970201     732.4988     72.54857      1.454     2.85     3.983573     20.46294     89.23232        13     0.952     0.883   9.26   0
       180    927.5219    574.3925 300.2739262 +22.8023770     1701.579     72.45616      1.606     3.24     3.880752     20.46294     157.9751        22     1.186     1.064   2.52   0
       181    174.3089    574.3459 300.0395373 +22.5765376     326.5366     72.58549      1.506     3.95     3.994172     20.46294     38.50801         6     0.709     0.684 -66.75   0
       182    624.4272    566.3846 300.1821095 +22.7092461       198110     72.54857      1.322     2.29     4.397163     20.46294      24476.1       195     1.438     1.400 -38.79   0
       183    808.1873    571.4166 300.2377038 +22.7657666     769.5443     72.47465      1.261     2.85     4.098509     20.46294     109.1504        16     1.014     0.893 -59.36   0
       184    310.4691    566.3596 300.0844475 +22.6150945      3416.03     72.51162      1.443     2.64     3.919084     20.46294      385.175        27     1.110     1.074  77.78   0
       185    392.8735    566.2473 300.1101065 +22.6397780     244.4024     72.53009      1.572     4.39     3.802461     20.46294     29.56485         5     0.801     0.685  36.43   0
       186    489.5486    563.4460 300.1410876 +22.6679648     377.2206     72.56703      1.852     5.16     3.888547     20.46294     38.52334         6     1.113     0.676 -45.29   0
       187    876.2079    562.5306 300.2617852 +22.7835956     548.7429     72.51162      1.409     2.03     3.975847     20.46294     78.73565         8     0.725     0.636  73.65   0
       188    895.0885    561.1376 300.2681220 +22.7888521     258.2816     72.60395      1.388     3.00     3.938584     20.46294     33.18058         6     0.792     0.638  -1.10   0
       189    514.9511    547.0428 300.1543183 +22.6708729     2728.198     72.56703      1.419     2.37     4.152255     20.46294     391.8807        30     1.537     0.938 -86.67   0
       190    359.9007    549.0699 300.1054312 +22.6249598      448.279     72.64085      1.731     4.44     3.805843     20.46294     58.62899         7     1.021     0.548 -31.90   0
       191    671.2789    544.1732 300.2039096 +22.7169121     463.0475     72.53009      1.914     3.78     4.508768     20.46294     40.28936         5     0.871     0.472  41.90   0
       192    925.9885    543.3021 300.2835458 +22.7929850     369.2859     72.41916      1.427     3.13     3.868871     20.46294     46.69394         5     0.775     0.401 -19.72   0
       193    745.6162    542.8384 300.2274933 +22.7388078     238.6257     72.54856      1.274     2.36      4.34522     20.46294     36.34628         5     0.714     0.443  69.08   0
       194    832.3247    535.2521 300.2569693 +22.7626111     429.7804     72.54857      1.258     3.87     4.063917     20.46294     47.00851         9     1.021     0.702 -10.80   0
       195    912.1471    532.8531 300.2826246 +22.7858364     1720.906     72.56703      1.426     2.80     3.887327     20.46294     194.7393        23     1.102     1.039  49.28   0
       196    783.2331    530.5561 300.2431994 +22.7465526     2766.449     72.56703      1.292     2.23     4.192998     20.46294     370.0215        24     1.074     0.972  -2.67   0
       197     42.2132    531.4017 300.0124527 +22.5245837     886.4999     72.36363      1.858     3.96     3.954379     20.46294     80.54613        15     1.214     0.876 -43.81   0
       198    688.0859    527.6197 300.2145185 +22.7171957     489.9283     72.45616      1.156     2.56     4.431808     20.46294     65.35269         7     0.715     0.651 -26.60   0
       199    992.7126    527.4641 300.3094912 +22.8084209     195.0112     72.62241      1.437     3.44      3.82476     20.46294     35.41315         5     0.785     0.436 -21.80   0
       200    570.4971    526.4263 300.1782988 +22.6816069     760.7951     72.45616      1.332     2.45     4.476906     20.46294      91.0732        12     0.897     0.788 -74.21   0
       201    912.3825    522.9641 300.2859093 +22.7830656     2323.755     72.53009      1.644     3.45     3.877299     20.46294     233.7518        30     1.479     1.085  75.66   0
       202    665.5388    521.0829 300.2096204 +22.7085609      754.954     72.62241      2.163     3.49     4.441457     20.46294     73.05754         8     0.965     0.614  88.63   2
       203    451.0384    520.6248 300.1430125 +22.6441265     294.9977     72.54856      1.382     3.92     3.904116     20.46294     45.41129         7     0.930     0.746 -46.66   0
       204    950.4711    518.0698 300.2993717 +22.7930688     4303.421     72.60395      1.424     2.61         3.84     20.46294     472.8955        32     1.163     1.114  85.61   0
       205    504.3590    519.6489 300.1599180 +22.6598334      403.276     72.54857      1.232     2.72     4.128381     20.46294       68.798         8     0.791     0.774 -89.95   0
       206    591.3790    517.8281 300.1875902 +22.6853979     256.4351     72.51162      1.311     2.87     4.521037     20.46294     39.84212         5     0.733     0.444 -70.45   0
       207    611.0613    514.0212 300.1949530 +22.6902047     422.1927     72.49313      1.398     2.58     4.562038     20.46294     60.13003         9     0.809     0.713  22.46   0
       208    182.3885    508.4455 300.0634462 +22.5600581     1016.835     72.53009      1.526     2.91     4.090795     20.46294     111.0514        15     0.993     0.935  69.15   0
       209    175.0355    498.3539 300.0644379 +22.5549572     455.9415     72.56703      1.509     4.51     4.104624     20.46294     48.56766         9     1.200     0.604   6.17   0
       210    782.6208    492.5339 300.2553547 +22.7354472     274.2155     72.51162      1.158     3.11     4.062286     20.46294     51.35514         9     0.980     0.608  83.60   0
       211    671.0577    490.2343 300.2213551 +22.7013559     313.4277     72.54856      1.359     3.58     4.333804     20.46294     42.49541         8     0.842     0.720  22.39   0
       212    724.0115    488.7197 300.2383371 +22.7167898     767.8663     72.51162      1.266     2.36     4.303835     20.46294     114.1616        13     0.971     0.743   6.47   0
       213    511.6297    487.0914 300.1727510 +22.6526664     253.1121     72.49313      1.353     3.52     4.291432     20.46294     36.39017         5     0.826     0.432 -72.09   0
       214    784.6945    480.8088 300.2598075 +22.7327003       861.16     72.43766      1.321     2.65     4.009331     20.46294     119.3994        14     0.986     0.822 -48.99   0
       215    110.1257    479.6027 300.0503607 +22.5301048     5345.734     72.43766      0.824     1.83     4.088643     20.46294     1827.298        15     0.932     0.414  83.99   3
       216    109.3598    474.4124 300.0518076 +22.5283862     1698.656     72.53009      0.797     0.92     4.092003     20.46294      664.696         7     0.667     0.474  62.80   2
       217    942.1874    476.9904 300.3101276 +22.7787831     1026.059     72.41916      1.483     3.33     3.827973     20.46294     115.7252        18     1.145     1.018 -51.31   0
       218    926.2402    473.2302 300.3063772 +22.7729259     477.0139     72.53009      1.245     3.57     3.831274     20.46294     64.68776        11     0.988     0.805 -67.05   0
       219    906.8407    473.5713 300.3002194 +22.7672132     366.7149     72.54856      1.399     2.24     3.841063     20.46294     58.20788         6     0.769     0.495   1.62   0
       220    670.4489    471.3350 300.2273013 +22.6957455     3189.072     72.54857      1.262     2.26     4.300791     20.46294     375.6844        25     1.070     0.993  46.09   0
       221    510.2714    458.1856 300.1817123 +22.6439603     342.6514     72.53009      1.412     4.83     4.373945     20.46294     51.44241         8     0.979     0.675 -32.13   0
       222    953.8110    450.3442 300.3224019 +22.7746067     618.2053     72.51162      1.394     2.52     3.855098     20.46294     78.32207         9     0.856     0.658  71.12   0
       223    689.9751    447.2295 300.2412069 +22.6946733      229.552     72.53009      1.015     2.54     4.245521     20.46294     46.25594         6     0.842     0.468  39.56   0
       224    576.8931    446.0371 300.2063887 +22.6604416     306.2178     72.51162      1.100     2.64     4.430734     20.46294     80.32879         8     0.960     0.515 -52.12   0
       225    781.0665    445.3818 300.2701783 +22.7214359     1110.872     72.51162      1.357     2.61     3.982994     20.46294     141.1215        15     0.944     0.886 -12.51   0
       226    285.1516    443.4521 300.1164815 +22.5722329     653.4271     72.56703      1.328     2.70     4.090833     20.46294     92.88344         9     0.827     0.808  70.11   0
       227    347.4847    439.1342 300.1372620 +22.5896858       3723.1     72.64085      1.341     2.39     4.083304     20.46294     450.4686        28     1.116     1.041  72.40   0
       228    294.6504    433.9747 300.1225104 +22.5723616     7569.004     72.54856      1.398     2.39     4.106317     20.46294     1062.074        41     1.212     1.135  50.96   0
       229    435.4175    428.1678 300.1681683 +22.6129023     4790.484     72.51162      1.292     2.31     4.263946     20.46294      613.958        29     1.104     0.999  68.96   0
       230    679.6538    424.8783 300.2452480 +22.6851605     18271.78     72.56703      1.302     2.24     4.232935     20.46294     2697.518        58     1.215     1.132 -80.33   0
       231    697.3845    424.9204 300.2507557 +22.6904854     737.2586     72.54856      1.742     5.80     4.205867     20.46294     73.66189        17     1.570     0.725 -44.67   0
       232    672.9982    433.5369 300.2403651 +22.6856532     332.8777     72.51162      1.369     4.59     4.251394     20.46294     35.07892         8     0.822     0.730 -86.08   0
       233    876.7039    415.4486 300.3096943 +22.7414842     417.1086     72.56703      1.451     2.21     3.882158     20.46294     53.75094         5     0.660     0.487 -13.23   0
       234    299.1019    412.3882 300.1309003 +22.5675011     293.6353     72.41916      1.507     4.90     4.167449     20.46294     37.36103         6     1.030     0.660 -54.62   0
       235   1013.3348    407.6490 300.3548205 +22.7801600     1005.335     72.54857      1.806     3.62      3.99289     20.46294     93.65108        17     1.179     1.011 -13.77   0
       236    549.5538    406.7630 300.2106273 +22.6409692     336.2717     72.56703      1.617     2.43     4.303203     20.46294     50.09966         5     0.753     0.663  32.51   0
       237    723.0507    406.3873 300.2647643 +22.6928516     233.5715     72.56703      1.261     2.76     4.154659     20.46294     35.46814         5     0.850     0.487   1.88   0
       238    234.2495    404.9746 300.1131482 +22.5459253     2100.572     72.54856      1.463     2.70     4.210969     20.46294     225.7172        21     1.139     0.954  54.67   0
       239    620.2758    394.3267 300.2366765 +22.6585921     6659.703     72.60395      1.273     2.21     4.319748     20.46294     891.1326        36     1.146     1.058  70.99   0
       240    136.3906    396.9596 300.0853427 +22.5142750     2769.407     72.53009      0.662     0.72     4.261279     20.46294     1394.247        10     0.657     0.387  15.62   0
       241    335.0635    393.8363 300.1481014 +22.5729593     751.3669     72.53009      1.477     2.60     4.227108     20.46294     87.74004        10     0.876     0.717  53.50   0
       242    192.7402    386.8217 300.1061398 +22.5282671     497.8918     72.51162      1.457     2.73     4.334092     20.46294     82.22111        13     0.944     0.901 -63.65   0
       243    880.2472    386.0406 300.3203433 +22.7340941     439.2162     72.58549      1.789     4.53     4.145535     20.46294     36.88129         7     0.992     0.733  18.89   0
       244    824.4033    383.4405 300.3037847 +22.7166208     846.8815     72.54857      1.024     2.51     4.087109     20.46294     145.3932        20     1.201     1.006 -70.14   0
       245     40.0673    384.8046 300.0593702 +22.4818931     1365.685     72.51162      1.555     3.03     4.131382     20.46294     149.2413        21     1.195     1.042 -34.38   0
       246    733.9850    384.6149 300.2752360 +22.6898725     418.1846     72.49313      1.162     2.17     4.160044     20.46294     86.05907         8     0.747     0.681 -87.09   0
       247      8.7258    382.6277 300.0503449 +22.4718659     1461.924     72.54857      2.098     5.59     4.045978     20.46294     104.6811        26     1.622     1.145 -54.13  16
       248    526.8848    380.6075 300.2120611 +22.6266639     6189.795     72.45616      1.291     2.12     4.472648     20.46294      984.698        33     1.121     1.051  77.61   0
       249    918.7963    375.0294 300.3359321 +22.7424742     1413.396     72.49313      1.364     2.27     4.245436     20.46294      210.373        18     0.995     0.925 -10.10   0
       250   1016.4131    375.0650 300.3663556 +22.7717147     536.7374     72.47465      1.333     4.09     4.174809     20.46294     69.58271        11     1.080     0.922  39.69   0
       251    511.3647    369.1136 300.2109614 +22.6187116     417.4226     72.51162      1.248     2.10     4.576033     20.46294      71.0386         7     0.677     0.641  64.36   0
       252     17.9920    369.5690 300.0574592 +22.4709000     335.7907     72.53009      1.366     3.73     4.074062     20.46294     37.04403         6     0.811     0.493   3.71   0
       253    594.0642    367.5967 300.2371914 +22.6430600     442.3601     72.53009      1.069     1.87     4.414358     20.46294     71.52831         7     0.669     0.617  15.12   0
       254     38.3605    366.0187 300.0649358 +22.4759920     1036.804     72.54856      1.518     2.75     4.152293     20.46294     153.8085        19     1.112     1.027 -27.60   0
       255    891.8201    362.8364 300.3314805 +22.7308911     515.2207     72.54856      1.209     2.49     4.354419     20.46294      80.7232         9     0.880     0.652  78.09   0
       256    137.7760    363.3992 300.0966631 +22.5050611      299.545     72.47465      1.593     3.48     4.476914     20.46294     23.88525         5     0.766     0.456 -16.94   0
       257    414.5530    359.8089 300.1838627 +22.5870216     2595.765     72.54856      1.315     2.18     4.655013     20.46294     373.4167        23     1.099     0.956 -30.41   0
       258    133.0517    357.0362 300.0972600 +22.5018183     956.9237     72.54856      1.414     3.21     4.503767     20.46294     122.3524        13     1.121     0.735 -24.47   0
       259    361.6366    353.4103 300.1694820 +22.5693213     269.7126     72.53009      1.386     3.55     4.394578     20.46294     40.10606         5     1.051     0.345  70.29   0
       260    383.8031    349.1969 300.1777424 +22.5747568     29249.62     72.30806      1.338     2.37      4.51617     20.46294     3718.304        68     1.274     1.173  75.58   0
       261    918.5901    346.6281 300.3450842 +22.7342490     1352.151     72.53009      1.348     2.53     4.453855     20.46294     198.2392        19     1.189     0.938 -54.76   0
       262    873.8046    344.6494 300.3317672 +22.7202686     280.3987     72.51162      1.326     3.04     4.458839     20.46294     36.99551         5     0.727     0.455  14.80   0
       263     80.1045    337.0081 300.0873118 +22.4801907     4830.713     72.41916      1.508     2.94     4.407585     20.46294      500.769        33     1.281     1.172  40.19   0
       264    833.7136    335.6418 300.3221965 +22.7056730     503.2072     72.51162      1.442     2.83     4.381711     20.46294     63.40208         9     0.876     0.652 -68.77   0
       265    257.8967    335.5569 300.1430228 +22.5330933     420.7094     72.54856      1.338     3.06     4.496655     20.46294     73.32922        10     1.065     0.751 -13.41   0
       266    482.3577    334.4635 300.2131791 +22.6000673     518.1308     72.53009      1.312     3.13     4.634877     20.46294     68.90131         9     0.930     0.722  42.89   0
       267    794.2465    329.0305 300.3120446 +22.6919524     1913.295     72.54856      1.294     2.29     4.316033     20.46294     280.7602        20     1.026     0.922 -83.74   0
       268    602.0722    323.9741 300.2538384 +22.6329293       258.67     72.54856      1.103     4.00     4.415361     20.46294     47.26705         8     0.962     0.646  -3.19   0
       269      2.6845    322.5076 300.0679749 +22.4528072     493.3127     63.80239      1.571     2.74     4.439629     20.46294     59.65651         9     0.915     0.671 -35.13  24
       270   1009.3675    321.9110 300.3814066 +22.7543235     595.1027     72.49313      1.516     2.93     4.296382     20.46294      82.9074        11     0.991     0.777 -83.67   0
       271    455.9659    313.6234 300.2117296 +22.5861727     2234.618     72.54856      1.506     2.81      4.52327     20.46294     276.0273        24     1.337     0.890  60.02   0
       272    668.3925    312.5979 300.2781770 +22.6495312     356.7577     72.34512      1.215     4.73      4.30846     20.46294     48.01679         7     0.967     0.687  51.72   0
       273    195.4535    312.3448 300.1311471 +22.5077071     249.6003     72.56703      1.162     3.53     4.530384     20.46294     32.80603         5     1.070     0.337 -19.30   0
       274    895.0485    306.5048 300.3507646 +22.7156663     573.1699     72.56703      1.377     3.67     4.517773     20.46294     85.24059        11     1.233     0.612  -5.39   0
       275     28.9342    304.2727 300.0820405 +22.4554498      860.334     72.56703      2.460     3.91     4.639165     20.46294     62.73001        11     1.091     0.884  30.85   2
       276    794.5938    304.2613 300.3201889 +22.6849382     304.2115     72.49313      1.137     2.70     4.444512     20.46294     41.45331         5     0.705     0.463 -72.09   0
       277    777.2227    304.3092 300.3147616 +22.6797492      431.702     72.45616      1.274     3.23     4.429199     20.46294     56.89305         9     0.973     0.625  29.09   0
       278    531.7267    292.7118 300.2420859 +22.6028709      1431.62     72.67773      1.202     5.03     4.385812     20.46294     381.4995        14     0.947     0.756  62.23   0
       279    338.8963    292.8936 300.1820442 +22.5451299     233.3291      72.7146      1.241     3.23     4.355429     20.46294     42.11332         6     0.916     0.439 -36.68   0
       280    271.6162    288.1688 300.1626602 +22.5236038     216.1881     72.51162      1.138     4.23     4.434075     20.46294     46.72011         7     0.774     0.661 -68.57   0
       281    776.7168    284.8644 300.3209121 +22.6740095     2227.177     72.64085      1.296     2.32     4.497586     20.46294     320.5823        20     1.002     0.943  58.48   0
       282    915.3850    286.4196 300.3636195 +22.7159818     245.3055     72.51162      1.110     3.85     4.537644     20.46294     34.82775         5     0.971     0.437  15.29   0
       283      9.8740    270.2119 300.0871702 +22.4399601      72593.3     72.54856      1.628     3.04     5.061021     20.46294     6774.447       126     1.611     1.457  58.30  16
       284    485.1279    268.6290 300.2353979 +22.5819900     581.1302     72.53009      1.241     2.56     4.421682     20.46294     115.7188         9     0.917     0.660  30.65   0
       285    111.0645    267.8463 300.1193629 +22.4696300      1027.81     72.56703      0.488     2.08     4.556942     20.46294     770.7219         5     0.385     0.347 -35.85   0
       286    159.9636    262.8606 300.1361709 +22.4828624     1410.247     72.54856      1.623     3.53     4.579833     20.46294     136.7407        19     1.241     0.944 -28.21   0
       287    190.4431    262.9341 300.1456175 +22.4920226     560.5471     72.51162      1.396     3.37     4.563856     20.46294     75.51302        11     1.082     0.690  14.88   0
       288    907.4041    259.7158 300.3697941 +22.7059152     168.4139     72.45616      0.942     3.50     4.526454     20.46294      43.4609         5     1.005     0.351  68.66   0
       289    897.4830    257.0273 300.3675738 +22.7021719      383.264     72.53009      1.384     2.88     4.521016     20.46294     56.23505         5     0.907     0.492  10.54   0
       290    244.0471    254.8669 300.1648925 +22.5057783     547.4302     72.51162      1.431     2.29     4.529644     20.46294     66.68314         8     0.784     0.629  44.10   0
       291     99.7005    252.1327 300.1209294 +22.4617125     297.2063     72.62241      1.357     4.66     4.634132     20.46294     40.84618         8     0.952     0.647  78.53   0
       292    920.1071    248.2072 300.3774868 +22.7064098     317.4042     72.43766      1.351     3.55     4.527978     20.46294     47.34108         7     0.914     0.602 -17.29   0
       293    848.1924    246.4027 300.3556581 +22.6843590     750.6127     72.34512      1.400     2.56     4.489315     20.46294     82.67519        11     0.931     0.702  72.46   0
       294    438.6245    245.6209 300.2283931 +22.5614459     368.0354     72.51162      1.183     2.93     4.407061     20.46294     63.28706         7     0.877     0.545  62.46   0
       295    939.1843    239.7343 300.3861820 +22.7096850       219.73     72.51162      1.205     2.78     4.531587     20.46294     42.87156         6     0.742     0.553 -50.81   0
       296    946.5384    235.4302 300.3898706 +22.7106490     2115.928     72.54857      1.382     2.40     4.535518     20.46294     248.2213        24     1.179     1.050  74.12   0
       297    502.0751    236.8306 300.2509844 +22.5779345     3845.919     72.53009      0.494     2.14     4.405645     20.46294     2436.313         7     0.409     0.343 -75.92   2
       298    122.6356    238.8189 300.1323714 +22.4647690     186.4999     72.53009      1.235     3.80     4.671949     20.46294     34.38344         5     1.093     0.380  -3.61   0
       299    365.0233    232.7486 300.2096761 +22.5356911     2196.641     72.54856      1.330     2.03     4.475885     20.46294     347.7286        22     1.069     0.948  28.81   0
       300    844.9462    227.3218 300.3608351 +22.6779019      589.191     72.56703      1.343     2.60     4.462629     20.46294     98.40398        11     0.942     0.790  50.07   0
       301    443.0861    227.6974 300.2355938 +22.5576351     1032.635     72.69617      1.358     2.49     4.423078     20.46294     131.5162        16     0.989     0.901 -21.25   0
       302    194.9862    227.9338 300.1583802 +22.4833379      308.207     72.49313      1.326     2.19     4.617002     20.46294     57.02039         5     0.618     0.562 -89.20   0
       303    951.2399    224.5676 300.3948594 +22.7089331     277.0172     72.56703      1.169     5.20     4.549122     20.46294      39.8631         9     1.167     0.654 -26.44   0
       304    259.6752    219.8581 300.1811035 +22.5004126     760.7355     72.58549      1.491     3.05     4.572752     20.46294     102.1071        12     1.043     0.779  20.07   0
       305    797.5150    216.7785 300.3494753 +22.6606686     1522.059     72.47465      1.220     2.18     4.475271     20.46294     232.9027        18     1.022     0.868  77.12   0
       306    112.2362    217.6812 300.1359955 +22.4555839     213.1207     72.47465      1.199     4.11     4.762511     20.46294     28.96578         6     0.725     0.664  63.63   0
       307    862.1060    216.3356 300.3697456 +22.6798814     546.0904     72.64085      1.277     4.00     4.460788     20.46294     82.58514        11     1.026     0.777  81.07   0
       308    281.1301    213.2556 300.1899137 +22.5049482     433.9548     72.54856      1.240     2.66     4.588624     20.46294     60.19878         8     0.870     0.618  64.71   0
       309    722.0914    207.5399 300.3289762 +22.6354265     1220.197     72.60395      1.360     2.30     4.448102     20.46294     183.2476        18     1.065     0.890 -74.70   0
       310    571.0250    208.8282 300.2815231 +22.5905478     314.6296     72.51162      1.475     3.87      4.37012     20.46294     47.92057         5     1.003     0.528  78.10   0
       311    801.7144    207.9842 300.3536356 +22.6593981     764.0883     72.49313      1.379     2.93     4.496374     20.46294     90.89861        12     0.976     0.804 -81.12   0
       312    543.4775    203.7281 300.2746033 +22.5808297      322.349     72.64085      1.312     3.41     4.379305     20.46294      58.1259         7     1.104     0.541 -38.95   0
       313    917.6428    198.7723 300.3927512 +22.6914584     1338.591     72.54857      1.402     2.61       4.4948     20.46294     181.6922        21     1.187     0.998 -76.21   0
       314    648.4348    199.3101 300.3087078 +22.6110009     919.2241     72.49313      1.208     2.15     4.405406     20.46294     135.5016        12     0.852     0.720  43.60   0
       315    929.9295    198.0109 300.3968283 +22.6949176     812.1526     72.54856      1.429     3.50     4.500635     20.46294     98.07458        15     1.139     0.919 -58.30   0
       316    975.8199    196.9081 300.4114931 +22.7083371     473.8663     72.45616      1.544     5.05     4.488189     20.46294     37.96261         8     1.105     0.653  66.08   0
       317    488.7585    195.4055 300.2602746 +22.5620447     221.9732     72.54857      1.014     3.39     4.480495     20.46294     29.91952         5     0.771     0.431 -21.55   0
       318     19.7507    187.3387 300.1171108 +22.4191419     274.5824     72.58549      1.215     4.05     5.371193     20.46294     42.33744         7     0.866     0.652  65.34   0
       319     70.3596    185.0888 300.1335565 +22.4336724     418.0964     72.53009      1.469     3.84     5.062507     20.46294     47.65198         6     0.962     0.442  77.39   0
       320    280.2900    181.4762 300.1999570 +22.4955713     815.7406     72.67773      1.371     3.02     4.724885     20.46294     93.74263        13     1.047     0.813  23.10   0
       321    142.2791    176.1370 300.1587988 +22.4526668     2042.379     72.62241      1.438     2.88     4.726241     20.46294     229.3232        22     1.101     1.058 -37.85   0
       322    965.4020    173.6319 300.4157926 +22.6985251     691.1181     72.49313      1.263     2.83     4.434793     20.46294     85.31463        11     0.976     0.749  84.24   0
       323     91.8915    173.5654 300.1439801 +22.4368212     366.9183     72.51162      1.278     3.98     4.957875     20.46294     54.49551         7     0.978     0.545 -24.74   0
       324    299.6821    169.4126 300.2098968 +22.4979194     5602.369     72.51162      1.424     2.44     4.798785     20.46294     760.2785        34     1.218     1.091  64.25   0
       325    281.0954    170.3910 300.2038015 +22.4926296      351.493     72.43766      1.390     4.41     4.774166     20.46294      42.5888         6     0.890     0.620  36.64   0
       326     83.9044    163.9404 300.1446197 +22.4316637     1289.371     72.60395      1.476     2.87     5.028296     20.46294     147.1402        20     1.135     1.018  86.61   0
       327    282.9321    160.2103 300.2076731 +22.4902566     666.3974     72.53009      1.387     3.50     4.823931     20.46294     68.18155        10     1.006     0.689  65.05   0
       328    115.8072    158.7970 300.1561968 +22.4397525      240.715     72.34512      1.364     4.40     4.879365     20.46294     25.76464         5     0.785     0.701 -38.08   0
       329    943.7858    151.0301 300.4163815 +22.6855552     3451.765     72.53009      1.433     2.62     4.442065     20.46294     393.5389        31     1.220     1.115 -43.79   0
       330    246.2742    147.2806 300.2004700 +22.4755566     318.7092     72.64085      1.279     3.09     4.774538     20.46294     53.74688         8     0.918     0.737  74.13   0
       331    493.2744    146.1455 300.2776511 +22.5492460     652.1301     72.54856      1.300     2.11     4.543977     20.46294     95.27088         7     0.697     0.621  72.93   0
       332    607.6297    144.1753 300.3138804 +22.5829348     331.3798     72.53009      1.036     2.33     4.359245     20.46294     52.28254         5     0.707     0.451 -71.46   0
       333    417.2730    138.3056 300.2565486 +22.5242234     541.5278      72.6593      1.276     2.83     4.604517     20.46294     77.85778         8     0.877     0.611 -59.12   0
       334    421.3745    136.7897 300.2583159 +22.5250168     414.3412     72.53009      1.439     3.68     4.603727     20.46294     57.78464         7     0.962     0.552 -24.53   1
       335    952.6877    136.5895 300.4238386 +22.6840666     154.1762     72.47465      1.263     3.40     4.451388     20.46294     35.19908         5     0.750     0.446  20.13   0
       336    183.8417    135.1629 300.1849958 +22.4533634     690.1538     72.62241      1.456     2.80     4.773284     20.46294     86.81389        12     0.943     0.847 -77.51   0
       337    544.5766    133.4261 300.2977391 +22.5609597     1541.709     72.49313      1.268     2.37     4.421393     20.46294     222.6647        19     1.073     0.902  83.70   0
       338    472.5057    134.1681 300.2750720 +22.5395828     436.4321     72.45616      1.246     2.71     4.579958     20.46294     79.20167         7     0.832     0.622  15.07   0
       339     22.8740    133.0911 300.1356669 +22.4045096     321.5882     72.69617      1.516     3.52     5.333618     20.46294      42.4443         5     0.993     0.360 -34.39   0
       340    606.7532    132.5038 300.3173913 +22.5793182     356.2805     72.54857      1.225     3.54     4.356175     20.46294     52.08445         8     1.021     0.571 -22.10   0
       341    288.2332    129.2005 300.2193738 +22.4829402     335.3893     72.49313      1.164     2.49     4.985112     20.46294     64.25234         6     0.705     0.633 -20.27   0
       342    760.8375    127.5650 300.3669757 +22.6240404     289.9021     72.60395      1.455     3.48     4.681244     20.46294     38.32999         5     0.772     0.452  18.91   0
       343    832.9739    123.2632 300.3908451 +22.6444003     324.3203     72.53009      1.317     2.52     4.575676     20.46294     58.47184         5     0.766     0.476  52.37   0
       344    978.7604    117.4908 300.4381594 +22.6863767     396.7838     72.51162      1.183     2.41     4.499198     20.46294     50.95485         5     0.700     0.461 -21.65   0
       345    318.7555    113.3670 300.2339954 +22.4875398     5915.914     72.58549      1.377     2.29     5.046144     20.46294     816.4992        36     1.222     1.090  70.32   0
       346    729.5441    114.7124 300.3613944 +22.6109758     219.7551     72.58549      1.286     4.47     4.693027     20.46294     38.06404         6     0.929     0.696 -68.06   0
       347    824.9221    113.4541 300.3915160 +22.6391695     203.2318     72.56703      1.038     4.03     4.620438     20.46294     41.28637         9     0.943     0.664  72.20   0
       348    169.5688    112.8839 300.1877824 +22.4426882      706.505     72.54856      1.388     3.12     4.886444     20.46294     95.86343        12     1.049     0.783  44.05   0
       349    948.4184    110.8002 300.4308681 +22.6753717     254.8378     72.45616      1.122     3.74     4.478621     20.46294     48.85348         6     0.924     0.565  25.81   0
       350     13.6665    109.6819 300.1403956 +22.3950298     597.5514     72.64085      1.524     3.53     5.339439     20.46294     86.62104        15     1.194     0.989 -38.45   0
       351    290.2824    107.1129 300.2271704 +22.4772109     382.6928     72.64085      1.433     4.11     5.090616     20.46294     46.40296         7     0.837     0.711 -20.24   0
       352    333.7855    104.8683 300.2414234 +22.4896026     331.6223     72.54856      1.171     3.67     5.070988     20.46294     53.53399         6     1.081     0.508 -20.47   0
       353    794.4636    104.6723 300.3848724 +22.6275262     90.61976     72.56703      0.932     3.42     4.738228     20.46294     37.21325         5     1.038     0.326  20.05   0
       354     80.4408    103.4813 300.1631420 +22.4132703     462.9746     72.49313      1.443     3.67     5.216827     20.46294     44.21632         6     0.917     0.422 -19.12   0
       355    564.7328     98.6853 300.3152738 +22.5570138     6225.366     72.62241      1.382     2.43     4.414767     20.46294     901.4748        38     1.270     1.061  87.66   0
       356    450.0741     98.7985 300.2795584 +22.5227009     706.9688     72.41916      1.333     2.57     4.612079     20.46294     103.6721        11     0.934     0.735  32.71   0
       357    621.5092     93.5032 300.3346273 +22.5725286     307.2611      72.7146      1.530     3.76     4.377752     20.46294       35.749         6     0.934     0.436 -17.27   0
       358    817.1740     88.7518 300.3971089 +22.6297472     844.3392     72.54856      1.525     4.42      4.72437     20.46294      100.377        12     1.290     0.658 -67.77   0
       359    909.8382     87.4290 300.4264167 +22.6571033      467.023     72.56703      1.636     5.26     4.547968     20.46294     56.43521         9     1.089     0.969  10.42   0
       360    977.4014     85.1691 300.4482128 +22.6766731     298.8485     72.49313      1.775     3.45     4.693642     20.46294     29.00661         5     0.791     0.436  70.12   0
       361    257.6385     82.4509 300.2250161 +22.4603453     383.1711     72.53009      1.239     3.11     5.032414     20.46294     60.86323        11     0.985     0.795  -6.92   0
       362    693.1149     78.8245 300.3616812 +22.5897514     6126.392     72.49313      1.343     2.38     4.598649     20.46294     894.8615        34     1.174     1.035  71.87   0
       363    616.1329     81.1013 300.3369732 +22.5673540     448.1495     72.62241      1.328     4.60     4.360288     20.46294     49.89796         8     0.956     0.732 -80.97   0
       364    467.9920     77.8377 300.2919265 +22.5220461     1445.072     72.54856      1.308     2.40     4.559567     20.46294     211.0634        17     0.958     0.909 -77.76   0
       365    734.1060     76.2083 300.3752959 +22.6012723     844.3613     72.43766      1.183     2.43     4.747181     20.46294     137.5142        11     0.918     0.679 -75.98   0
       366    750.0767     72.2366 300.3815578 +22.6049118     646.8095     72.49313      1.311     2.40     4.785419     20.46294     75.62926         9     0.759     0.725   9.95   0
       367   1020.1301     70.0136 300.4664494 +22.6850992     506.7831      71.5817      1.461     2.45     4.983063     20.46294     60.84364         9     0.761     0.745 -45.51  16
       368    216.9349     70.2050 300.2163337 +22.4446299     626.0525     72.51162      1.382     3.17     5.100272     20.46294     75.68812        11     0.989     0.842 -11.35   0
       369    788.7239     67.5407 300.3951194 +22.6151314     476.4044     72.58549      1.203     3.02     4.885048     20.46294     73.54582         9     0.929     0.709 -58.37   0
       370    737.2269     63.7631 300.3803015 +22.5986286     2719.919     72.54856      1.379     2.32     4.758049     20.46294     386.5894        24     1.110     0.981  63.76   0
       371    377.8723     64.5943 300.2681859 +22.4912432      419.208     72.47465      1.326     3.07     4.772389     20.46294     61.48636         8     0.843     0.691 -56.45   0
       372    752.4951     62.8439 300.3853553 +22.6029353     806.8945     72.54856      1.917     3.56        4.801     20.46294      105.382        16     1.444     0.900  47.43   0
       373     31.0558     57.9831 300.1625499 +22.3854035     815.7716     72.51162      1.732     3.40     5.244252     20.46294     79.16987        13     1.075     0.841 -12.08   0
       374    823.6420     55.2474 300.4099833 +22.6220489     1586.216     72.54857      1.300     2.39     4.865788     20.46294     219.6835        18     1.070     0.849  68.14   0
       375    567.4561     47.9652 300.3325596 +22.5432527     1060.458     72.54856      1.371     2.23     4.412174     20.46294     147.3266        15     1.035     0.905  80.27   0
       376    761.6532     48.2587 300.3929350 +22.6014833     744.7612     72.58549      1.326     3.13     4.861215     20.46294     108.8386        14     1.052     0.850 -73.70   0
       377    139.9676     47.5663 300.1997539 +22.4150607     545.8096     72.60395      1.622     4.36     5.225987     20.46294     73.22478        12     1.268     1.016  33.56   0
       378    471.1359     45.8269 300.3032786 +22.5137897     856.7473     72.51162      1.351     3.18     4.496241     20.46294     110.9149        12     1.139     0.647  71.09   0
       379    593.4330     44.2164 300.3418604 +22.5499544     84.78255     72.51162      0.677     3.44     4.367442     20.46294     29.64007         5     0.740     0.463  72.14   0
       380    242.6061     35.8926 300.2354313 +22.4424686      3727.12     72.43766      1.487     2.57     5.098901     20.46294     471.0944        31     1.283     1.074  52.67   0
       381    810.4678     36.6173 300.4119157 +22.6127480     534.8755     72.53009      1.288     2.91     5.033312     20.46294     83.18589        10     1.038     0.627  52.64   0
       382     35.4504     35.8467 300.1710875 +22.3803661     295.7982     72.56703      1.249     3.22     5.215999     20.46294     45.97956         5     0.838     0.553 -43.48   0
       383    665.2228     33.1946 300.3677830 +22.5682825     372.2669     72.51162      1.421     3.88     4.502909     20.46294     42.13101         6     0.921     0.553  22.49   0
       384    803.8699     28.3422 300.4125415 +22.6083934     789.8192     72.54856      1.318     2.53     5.113622     20.46294     136.0868        12     1.010     0.692 -77.41   0
       385    358.5407     28.0687 300.2740102 +22.4749582     1259.819     72.54856      1.400     2.61      4.61224     20.46294     156.1881        17     1.086     0.909  68.69   0
       386    841.7346     23.0375 300.4260592 +22.6182011     581.8984     72.51162      1.490     4.79     4.931595     20.46294     63.33959        14     1.262     0.784 -85.39   0
       387    765.2863     23.5727 300.4020663 +22.5954725     530.3051     72.53009      1.436     2.15     4.930188     20.46294     57.44241         5     0.678     0.457 -22.11   0
       388    704.9633   1018.7761 300.0601200 +22.8632291     8454.443     72.54856      1.968     4.48     2.841954     20.46294     503.6391        47     1.513     1.446  -5.09  19
       389    567.1825     18.0721 300.3421611 +22.5345788     502.1303     72.53009      1.371     3.29     4.412174     20.46294      64.1496         9     0.917     0.801  83.86   0
       390    710.5185   1016.5595 300.0625711 +22.8642598      9192.17     72.49313      1.889     4.18     2.914046     20.46294     546.0016        52     1.517     1.432  68.08  19
       391    805.0021   1019.6808 300.0909834 +22.8934974     691.2786     72.27099      1.864     6.89     3.115261     20.46294     41.17539        14     1.251     1.063  19.45  16
       392    180.9151   1018.2610 299.8972933 +22.7057832     480.1605     72.64085      2.057     3.79     62.90343     20.46294     34.00925         5     1.091     0.377  48.47  18
