#   1 NUMBER                 Running object number                                     
#   2 X_IMAGE                Object position along x                                    [pixel]
#   3 Y_IMAGE                Object position along y                                    [pixel]
#   4 ALPHA_J2000            Right ascension of barycenter (J2000)                      [deg]
#   5 DELTA_J2000            Declination of barycenter (J2000)                          [deg]
#   6 FLUX_APER              Flux vector within fixed circular aperture(s)              [count]
#   7 FLUXERR_APER           RMS error vector for aperture flux(es)                     [count]
#   8 FLUX_RADIUS            Fraction-of-light radii                                    [pixel]
#   9 FWHM_IMAGE             FWHM assuming a gaussian core                              [pixel]
#  10 BACKGROUND             Background at centroid position                            [count]
#  11 THRESHOLD              Detection threshold above background                       [count]
#  12 FLUX_MAX               Peak flux above background                                 [count]
#  13 ISOAREA_IMAGE          Isophotal area above Analysis threshold                    [pixel**2]
#  14 A_IMAGE                Profile RMS along major axis                               [pixel]
#  15 B_IMAGE                Profile RMS along minor axis                               [pixel]
#  16 THETA_IMAGE            Position angle (CCW/x)                                     [deg]
#  17 FLAGS                  Extraction flags                                          
         1    513.8845     13.8916 300.3721866 +22.5466233     1961.448     72.64049      1.305     2.08     4.784629     20.44727     296.2836        21     1.085     0.887  75.99   0
         2    236.8643     11.2349 300.2868552 +22.4628940      900.743     72.47453      1.578     3.62     4.094655     20.44727     94.79313        13     1.137     0.833  -3.37   0
         3    471.2558      7.7730 300.3608996 +22.5321010     1323.193     72.47453      1.362     2.41     4.437878     20.44727     173.7436        17     1.024     0.878  50.71   0
         4    576.6080      4.3056 300.3948242 +22.5626472     1393.808     69.88062      1.312     2.35       5.0839     20.44727     181.6333        17     1.050     0.862  72.62  24
         5    672.0243      4.2078 300.4245760 +22.5911810     212.8531     69.74647      0.988     3.25     4.985312     20.44727     42.72589         5     0.801     0.485 -48.02  16
         6    171.8465      3.6909 300.2690856 +22.4412486     513.8314     67.82085      1.284     2.57     4.846756     20.44727     69.30319         8     0.851     0.596  -7.13  16
         7    220.9084      1.5606 300.2850295 +22.4553355     432.1028     57.69464      1.116     3.11     4.115374     20.44727     59.20697         7     0.748     0.638 -11.91  24
         8    118.0910   1010.5559 299.9253508 +22.7139173     734.4185     72.47453      4.200     4.31     32.80294     20.44727     37.19095         5     0.969     0.546  44.95   9
         9    184.7090   1019.6037 299.9431089 +22.7365120     5965.586      72.3452      9.924    30.06       14.583     20.44727     137.6872       451     7.832     6.031  24.87  26
        10    175.3258   1013.2493 299.9422608 +22.7318742     2309.008     72.47453      9.177    13.07     15.89442     20.44727     62.01183        49     2.613     2.118 -53.32  19
        11    140.5325   1022.4747 299.9284449 +22.7240703     987.5474     62.86596      7.484    10.70     27.69277     20.44727     45.30013        14     2.204     1.448 -72.59  27
        12    158.2145   1022.6267 299.9338905 +22.7294231     1064.084     61.98727      8.906    11.35     21.50991     20.44727     45.31868        23     2.617     1.371 -65.40  27
        13    152.0056   1022.8007 299.9319042 +22.7276087     952.6937     61.00829      6.042     6.95     23.77443     20.44727     36.84003        14     2.306     0.587   7.60  27
        14    153.3836   1020.5005 299.9330812 +22.7273635     1542.696     70.47163      8.049     8.67     23.01781     20.44727     47.04364        15     2.095     1.002   1.72  19
        15    116.0246   1022.1127 299.9209471 +22.7166075     1466.887     64.48383      8.230     9.97     37.03728     20.44727     57.08263        32     2.052     1.580 -15.99  26
        16     35.1060    986.9337 299.9072578 +22.6822308     1053.176     72.60364     11.272    17.78     52.61712     20.44727     53.33187        42     5.576     1.576 -65.94  19
        17     33.2562   1011.1447 299.8988037 +22.6886100     2570.325     72.52989      6.209    24.68     72.66427     20.44727     59.77348       132     4.550     3.717 -74.29  19
        18     29.6719   1001.5519 299.9008125 +22.6847860     1645.765     72.45607      7.810    12.60     66.78186     20.44727     72.17157        41     3.408     1.296  84.66  19
        19    164.5370   1007.0122 299.9409377 +22.7268480     1012.096     72.45607      9.307     9.67     17.04156     20.44727     41.55579        15     2.233     1.168  79.97  17
        20    117.7998   1003.6230 299.9275168 +22.7118437     905.1583     72.40066      5.617     7.54     30.58409     20.44727     37.63066         9     2.300     0.692  12.80   2
        21    194.6911   1004.1562 299.9512395 +22.7350830      591.171     72.47453      1.703     4.77     11.02821     20.44727     52.08887        12     1.203     0.895 -52.92   0
        22    482.4111   1003.9656 300.0407912 +22.8213847     286.0583     72.45607      1.488     5.34     3.145004     20.44727     29.02267         8     1.034     0.778 -30.77   0
        23    754.5858   1002.9340 300.1258863 +22.9027334      463.596     72.45607      1.752     5.29     3.081203     20.44727     41.08918         8     0.921     0.858 -45.91   0
        24    511.7353   1000.7049 300.0509797 +22.8292484      1578.61     72.58521      1.619     3.68      3.15215     20.44727     136.9187        24     1.328     1.147  15.62   0
        25    689.0303    997.3547 300.1072781 +22.8814725      305.057     72.51144      1.340     4.99      3.02505     20.44727     34.78914         8     1.038     0.798  16.72   0
        26    405.6222    996.9453 300.0191814 +22.7963297     992.7567       72.493      1.559     3.81     3.062382     20.44727     93.58681        17     1.194     0.947 -75.35   0
        27    336.0623    995.1387 299.9981310 +22.7749358     6469.631     72.51144      1.664     3.24     3.255559     20.44727     579.4833        42     1.356     1.315   0.32   0
        28     61.6370    993.7893 299.9132681 +22.6921619      1163.95     72.45607      5.442     9.63     47.25982     20.44727     38.46014        21     1.793     1.518 -57.94   2
        29     25.2579    992.1894 299.9024885 +22.6807787     1205.908     72.43761      4.256    13.72     60.48985     20.44727     44.29525        24     2.309     2.266  72.29   3
        30     42.5723   1018.6373 299.8992588 +22.6935540     1777.123       72.493      6.653    17.93     73.45923     20.44727      41.5989        70     3.580     2.495 -29.24  27
        31     24.5990    970.5934 299.9093118 +22.6743950     1646.155      72.2897      4.656    12.65     42.49506     20.44727     44.42945        28     2.896     1.538 -37.20   3
        32     32.3802    964.4346 299.9137328 +22.6749675     2147.512       72.493      6.700    19.59     35.02143     20.44727     56.66972        95     4.307     2.475 -12.21   2
        33     25.8065    977.7305 299.9073643 +22.6768020     1662.042     72.43761      9.005    13.56     48.19244     20.44727     58.62141        41     2.805     1.824 -51.58   3
        34    369.1512    981.7032 300.0127961 +22.7810154     503.4972     72.52989      1.858     4.21     3.158858     20.44727     46.90691         9     1.049     0.777  49.52   0
        35    882.3494    973.6628 300.1752365 +22.9326432     2081.423     72.52989      1.674     3.73     3.307997     20.44727      150.947        27     1.262     1.162  85.87   0
        36    532.4106    971.4572 300.0669349 +22.8270648     336.4993     72.43761      1.321     3.17     3.188951     20.44727     56.32864         6     0.858     0.488 -85.05   0
        37    380.6206    969.4686 300.0203458 +22.7809502     261.0856     72.47453      1.637     4.81      3.22799     20.44727     40.17917         7     1.292     0.506  54.98   0
        38    671.4910    962.6160 300.1131212 +22.8662474     838.7371     72.40066      2.028     5.35     3.000727     20.44727     73.96161        18     1.618     1.057  29.62   0
        39    998.2258    961.4131 300.2153604 +22.9638614      401.895     72.47453      1.616     4.40     2.989558     20.44727     50.33569         9     0.967     0.891  12.65   0
        40     31.4131    977.0762 299.9093186 +22.6782982     1851.722       72.493      9.191    12.37     45.86972     20.44727     49.47529        35     2.518     1.692 -62.74   3
        41    706.0551    956.8177 300.1257754 +22.8749499     1020.342     72.45607      1.551     3.18     3.080961     20.44727     99.05846        16     1.060     0.975  11.62   0
        42    484.1019    957.7733 300.0563513 +22.8086476      336.171     72.41914      1.225     2.86     3.219826     20.44727     46.61597         7     0.813     0.648 -53.86   0
        43    793.1626    957.7719 300.1526073 +22.9013439     205.3801     72.47453      1.034     3.46     3.242747     20.44727     29.38658         5     1.010     0.343  42.85   0
        44    728.2877    950.5169 300.1347526 +22.8798094     11327.79     72.58521      1.568     2.99     3.141968     20.44727     964.8377        53     1.355     1.284  50.09   0
        45     91.9406    951.3936 299.9364790 +22.6891161     443.0749     72.43761      4.210     5.42     16.84274     20.44727     37.82109         5     1.355     0.612  37.78   0
        46    919.0135    949.9996 300.1943701 +22.9368429     468.9973      72.3082      1.471     4.68     3.447163     20.44727     42.49832        11     1.094     0.859  -2.48   0
        47    773.8160    950.2932 300.1490120 +22.8933972     429.1876     72.40066      1.274     2.92     3.237866     20.44727     67.09967         8     0.992     0.537 -24.14   0
        48     39.9349    942.1656 299.9233256 +22.6708569     427.3839     72.47453      1.430     5.52     16.60795     20.44727     48.54465        11     1.117     0.779  35.88   0
        49    433.2695    938.4696 300.0468141 +22.7878613     580.1163     72.52989      1.913     6.36     3.244856     20.44727     39.42983        12     1.204     0.973  79.74   0
        50    780.1561    937.9073 300.1550186 +22.8917443     409.5954     72.47453      1.345     4.84     3.290061     20.44727     47.09845         7     0.861     0.771  46.66   0
        51    736.8571    932.5209 300.1432789 +22.8772159      1490.06     72.51144      1.573     3.02     3.191321     20.44727     160.8561        20     1.106     1.042 -35.95   0
        52    920.0896    931.4263 300.2007501 +22.9318344     357.0711     72.43761      1.529     5.75     3.596761     20.44727     36.37388         9     1.181     0.790  17.96   0
        53    453.1084    930.8446 300.0554687 +22.7916273     237.6908     72.45607      1.395     2.54     3.264188     20.44727     44.98711         5     0.712     0.662  17.01   0
        54    589.0920    930.0564 300.0980550 +22.8321943     494.0576     72.52989      1.523     3.90     3.072258     20.44727     53.08912         5     0.805     0.541 -58.94   0
        55    774.7998    925.8571 300.1572707 +22.8866806     806.1959     72.38217      1.605     3.20     3.321159     20.44727      81.4406        13     1.004     0.892 -31.42   0
        56    883.6321    922.8369 300.1921775 +22.9184410      285.154       72.493      1.447     3.55     3.636395     20.44727     36.57594         6     0.737     0.631 -40.61   0
        57    823.1464    917.4540 300.1750731 +22.8987640     585.7322     72.51144      1.522     3.38     3.523706     20.44727     67.33569        10     1.011     0.697  15.15   0
        58    674.4982    916.1616 300.1291750 +22.8538229     721.4139     72.47453      1.403     3.28      3.09695     20.44727     72.45093        13     0.973     0.884  61.13   0
        59    387.2873    912.7573 300.0408738 +22.7666923      4020.28     72.47453      1.510     2.87     3.451421     20.44727     418.4678        34     1.213     1.199 -79.36   0
        60    685.9534    913.2003 300.1337070 +22.8564085     522.6768     72.47453      1.432     3.96     3.142183     20.44727     57.73646        10     0.938     0.774 -65.28   0
        61    165.3993    901.2989 299.9756052 +22.6968156     419.5143     72.32671      1.872     6.90     4.566744     20.44727     37.12513         9     1.372     0.974 -73.22   0
        62     49.0523    901.2608 299.9394662 +22.6618758     658.2551     72.52989      3.034     6.45     5.735841     20.44727     38.97934        12     1.135     1.029 -63.83   0
        63     28.7939    900.6855 299.9333605 +22.6556283     667.1931     72.40066      4.811     7.33     5.572258     20.44727     39.27888        10     1.363     1.105 -55.78   0
        64    431.2189    900.8579 300.0584139 +22.7764616     280.6367     72.43761      1.259     4.08     3.305275     20.44727     35.13925         6     1.143     0.416  28.77   0
        65    112.4085    898.6707 299.9599925 +22.6801549     963.2737     72.45607      2.280     5.12     5.680408     20.44727      79.8873        16     1.398     1.140 -14.63   0
        66     21.1455    897.0473 299.9321685 +22.6522895     791.5411     72.51144      3.359     6.06     5.372467     20.44727     41.82734        12     1.158     0.943  89.12   0
        67     89.6590    895.6187 299.9539169 +22.6724507     1711.131     72.43761      1.821     3.93     5.824855     20.44727     142.5349        27     1.317     1.256 -10.53   0
        68    961.3334    884.4404 300.2289013 +22.9307081     2110.078     72.43761      1.669     3.33     3.277632     20.44727     165.8513        27     1.215     1.193 -75.25   0
        69    915.5712    882.9164 300.2151257 +22.9165557     1995.262     72.47453      1.538     3.12     3.615255     20.44727     199.2345        23     1.160     1.094   8.28   0
        70    620.7152    883.3269 300.1231069 +22.8282744     415.4278     72.58521      1.817     5.04     3.306308     20.44727     38.03205         8     1.119     0.643 -36.21   0
        71   1012.2659    878.3741 300.2467622 +22.9442293     345.3693     72.45607      1.863     3.53     2.741654     20.44727     34.12949         5     0.784     0.457  14.34   0
        72    699.0891    876.7377 300.1496625 +22.8498858     595.0217     72.56678      1.395     3.70     3.364485     20.44727     75.96522        12     1.076     0.826   4.96   0
        73    567.3000    870.8696 300.1105267 +22.8086813     4692.294     72.56678      1.436     2.63     3.392264     20.44727     497.9023        33     1.163     1.151  85.97   0
        74     56.8095    871.3613 299.9516023 +22.6556381     463.2289     72.47453      1.843     6.17     4.548216     20.44727     45.92868        10     1.301     0.857  -5.77   0
        75    369.5700    868.0660 300.0499016 +22.7485626     478.0075     72.47453      1.312     2.58     3.557951     20.44727     84.76366        11     0.953     0.708 -17.81   0
        76    117.3895    864.7252 299.9725828 +22.6719228     1300.456     72.47453      1.667     3.79      4.11323     20.44727      124.088        20     1.213     1.072  21.84   0
        77    587.8412    863.4218 300.1193455 +22.8127054     742.4858     72.51144      1.489     4.10     3.418611     20.44727     76.04085        15     1.160     1.041 -39.80   0
        78    136.4835    862.1885 299.9793415 +22.6769274     491.5183     72.43761      1.578     4.75     3.920644     20.44727     63.28676        13     1.157     0.828 -11.18   0
        79    743.3276    850.4822 300.1719871 +22.8556154     4072.855     72.60364      1.437     2.63     3.451569     20.44727     417.8054        28     1.118     1.067  20.84   0
        80    998.0242    850.7078 300.2513204 +22.9320181     518.3848     72.40066      1.938     5.10     2.982727     20.44727     46.59448         8     1.062     0.692  -1.54   0
        81    960.1488    850.5123 300.2395700 +22.9206124     1075.328     72.51144      1.576     3.23      3.30871     20.44727      100.936        18     1.136     0.960  67.08   0
        82    151.9820    844.8871 299.9897856 +22.6766210     463.5224     72.41914      1.568     4.39     3.702332     20.44727     50.56209         8     0.947     0.678  -2.80   0
        83    460.6328    843.3846 300.0862639 +22.7688038     709.6163     72.45607      1.588     3.71     3.413265     20.44727     61.03095        12     1.071     0.769  13.48   0
        84    106.7639    841.2656 299.9769117 +22.6620103     1013.082     72.47453      1.596     3.67     4.005142     20.44727     104.1649        19     1.172     1.061 -22.89   0
        85    256.3237    833.2762 300.0259975 +22.7046075      52792.9     72.56678      1.547     2.76     3.579506     20.44727     5507.173       102     1.428     1.400 -26.52   0
        86    521.8944    836.3019 300.1076356 +22.7851475     516.0737     72.65891      1.405     2.79     3.430667     20.44727     63.17073         9     0.836     0.739  85.20   0
        87    514.0596    832.1602 300.1065438 +22.7816096     1716.211     72.47453      1.413     2.55      3.42953     20.44727      206.222        19     1.089     0.998 -12.18   0
        88    184.7215    831.7656 300.0042290 +22.6826865     442.5729     72.41914      1.514     5.24     3.617783     20.44727     62.70483        10     1.277     0.671 -49.22   0
        89    927.2162    831.2910 300.2355520 +22.9052250      981.559     72.40066      1.531     3.65     3.529679     20.44727      91.6067        16     1.142     0.975 -10.12   0
        90    229.9370    831.1554 300.0184833 +22.6960812     325.1234       72.493      1.503     4.83     3.647369     20.44727     40.92516         6     1.033     0.690 -26.11   0
        91    543.0427    828.2123 300.1168505 +22.7891697     886.3124     72.45607      1.427     2.74     3.443222     20.44727     114.4389        13     1.019     0.812 -25.31   0
        92    994.7618    826.6033 300.2581439 +22.9241192     130.0034     72.51144      0.877     4.43     3.196329     20.44727     32.97253         5     1.087     0.513  57.74   0
        93    554.3163    826.4225 300.1209424 +22.7920372     649.1116     72.43761      1.337     3.30     3.445517     20.44727     85.26723         9     0.986     0.789 -86.17   0
        94    874.6361    823.6841 300.2216312 +22.8872836     529.4173     72.45607      1.884     3.01      3.53109     20.44727     47.97083         6     0.882     0.665  70.76   0
        95    659.6169    822.8381 300.1549000 +22.8225850      411.776     72.47453      1.480     3.28     3.557014     20.44727     59.76202         6     0.965     0.430 -74.74   0
        96    454.3211    820.2900 300.0918115 +22.7602868       293.11     72.60364      1.379     2.92     3.442987     20.44727     49.11807         5     1.004     0.648 -58.13   0
        97    306.0478    810.5168 300.0488620 +22.7130026     31264.36     72.47453      1.470     2.65     3.542937     20.44727     3144.245        75     1.333     1.310  35.90   0
        98    696.9752    813.2438 300.1696581 +22.8310325     812.1164     72.51144      1.439     4.04     3.572459     20.44727     92.84919        13     1.114     0.817 -25.40   0
        99    320.2230    810.9746 300.0531218 +22.7173869     1990.878     72.43761      1.471     2.72     3.561413     20.44727     219.3072        22     1.092     1.045  -6.48   0
       100    829.1495    806.2047 300.2131363 +22.8686330     2809.441     72.45607      1.335     2.54      3.65798     20.44727     329.7557        23     1.087     0.984  21.13   0
       101    317.4658    804.9938 300.0542093 +22.7148447     615.7526     72.47453      1.589     5.23     3.562079     20.44727     56.69876        11     1.074     0.902  72.94   1
       102    858.5486    804.6788 300.2227974 +22.8770062     251.6244     72.47453      1.160     3.36     3.510632     20.44727       34.092         5     0.781     0.692 -40.23   0
       103    188.6690    802.5555 300.0149558 +22.6754982     680.6959     72.43761      1.403     3.33     3.485058     20.44727     84.30113        16     1.136     0.897  70.48   0
       104    586.7831    802.2234 300.1389219 +22.7948310     890.7804     72.47453      1.339     2.96      3.46297     20.44727     108.1529        13     0.918     0.868  14.58   0
       105    423.2434    802.1135 300.0880522 +22.7457516     411.7123     72.45607      1.259     4.47     3.524902     20.44727     51.42797         7     1.120     0.621 -82.78   0
       106    434.1465    797.0735 300.0930840 +22.7475765     986.7816       72.493      1.484     2.87      3.50682     20.44727     121.6173        12     1.031     0.736  84.70   0
       107    835.4526    793.6887 300.2191718 +22.8669293     559.3292       72.493      1.584     4.68     3.616724     20.44727     61.12686        10     1.157     0.681 -61.18   0
       108    336.1826    793.3514 300.0638170 +22.7171217     298.3461     72.51144      1.169     2.48     3.584711     20.44727     44.24523         6     0.709     0.602 -68.04   0
       109    292.5133    792.5548 300.0504943 +22.7037915     284.5624     72.45607      1.218     4.57     3.549893     20.44727     46.05239         7     1.260     0.471 -81.82   0
       110    380.0194    791.6969 300.0779914 +22.7297981     487.1612     72.38217      1.617     5.04     3.573491     20.44727     51.56031        11     1.123     0.824  56.33   0
       111     21.7954    792.0858 299.9665085 +22.6224105     488.7954     72.40066      1.591     5.46     3.677382     20.44727     44.83098         9     1.261     0.690 -17.36   0
       112    588.6475    791.1342 300.1431089 +22.7922084     375.3189       72.493      1.483     3.88     3.496115     20.44727     49.91681         8     0.979     0.654  26.31   0
       113    813.2166    789.0189 300.2137594 +22.8589243     267.3743     72.45607      1.207     3.13     3.713172     20.44727      45.3359         7     0.721     0.679  46.22   0
       114    186.1704    786.7648 300.0193141 +22.6702217     479.2307       72.493      1.328     2.78     3.498037     20.44727     58.44995         9     0.835     0.710  68.49   0
       115    509.5497    776.9512 300.1230954 +22.7644198     397.1443     72.51144      1.318     2.84       3.4735     20.44727     59.86756         7     0.865     0.609  40.95   0
       116    610.4877    775.1397 300.1551114 +22.7941678     121.5969     72.54834      1.032     4.37      3.55043     20.44727     32.98849         5     0.945     0.576 -46.14   0
       117    479.0088    775.0923 300.1141937 +22.7547272     721.4402     72.40066      1.374     3.23     3.420972     20.44727     84.51734        11     0.982     0.797  33.12   0
       118    388.4658    774.4045 300.0862425 +22.7273725      306.846     72.47453      1.344     3.76     3.566087     20.44727     47.82203         6     0.942     0.430 -72.46   0
       119    895.4745    771.4818 300.2451067 +22.8785413      1823.92     72.58521      0.792     2.61     3.483758     20.44727     457.0659        31     1.168     1.094 -69.24   0
       120    501.0386    772.5960 300.1218623 +22.7606180     1338.903       72.493      1.293     2.45     3.460067     20.44727     184.4158        16     0.939     0.914   4.48   0
       121    420.8534    772.1465 300.0970537 +22.7364397     496.4093     72.51144      1.665     3.21      3.53162     20.44727     61.80441         5     0.863     0.448 -45.00   0
       122    582.7813    767.4550 300.1489826 +22.7836553     418.3391     72.45607      1.388     4.03      3.57392     20.44727      37.3538         6     1.047     0.444  59.82   0
       123    883.9586    762.8695 300.2443167 +22.8726177     1775.451     72.43761      1.411     2.69     3.489693     20.44727     199.8525        24     1.138     1.033  34.77   0
       124    246.8655    756.9874 300.0478654 +22.6798973     950.3337     72.41914      1.492     3.09     3.566907     20.44727     106.2187        12     0.947     0.861 -35.06   0
       125    263.0938    757.3835 300.0527825 +22.6848799     306.8756     72.40066      1.523     4.48     3.571883     20.44727     35.82038         6     0.869     0.656  26.92   0
       126    915.1945    753.0087 300.2572631 +22.8791460     1649.575     72.32671      1.417     2.52     3.493005     20.44727      217.037        21     1.180     0.970 -64.35   0
       127    710.5751    754.2142 300.1930920 +22.8181685     2617.981       72.493      1.448     2.68     3.632648     20.44727     319.8639        29     1.431     0.964   5.35   0
       128     95.7288    741.1194 300.0060483 +22.6299952      684.636     72.58521      1.852     4.64     3.716127     20.44727     56.41468        11     1.311     0.714 -35.20   0
       129    792.8001    740.3970 300.2232073 +22.8388476     525.1144     72.25267      1.418     3.68     3.650565     20.44727      60.2652        11     1.051     0.703  52.43   0
       130    828.7744    731.1490 300.2374272 +22.8469735     146531.3       72.493      1.358     2.36     3.605624     20.44727     18622.62       162     1.395     1.368 -84.15   0
       131    591.2805    735.2401 300.1621041 +22.7769599     351.2678     72.43761      1.160     3.59     3.682004     20.44727     57.18327         7     1.124     0.466 -65.96   0
       132    975.8466    732.7254 300.2827746 +22.8914930     1380.787     72.47453      1.550     2.83     3.435618     20.44727     156.4167        17     1.132     0.893 -55.54   0
       133    681.3075    731.7667 300.1912730 +22.8029524     729.1447     72.41914      1.264     3.50     3.761329     20.44727     83.86663        14     1.226     0.707  40.87   0
       134    861.6468    724.0059 300.2499975 +22.8547731     349.7915     72.47453      1.217     2.35     3.572131     20.44727     55.41512         7     0.713     0.640 -89.95   0
       135    515.0151    720.0482 300.1432986 +22.7497335     1489.508     72.51144      1.290     2.33      3.76787     20.44727     223.7474        19     1.028     0.877  38.39   0
       136    696.2473    717.3155 300.2006256 +22.8032828     9420.203     72.47453      1.303     2.24     3.741243     20.44727      1232.59        43     1.173     1.120  52.37   0
       137    177.9888    718.9579 300.0388172 +22.6483274     250.0069     72.47453      1.305     2.98     3.597493     20.44727     33.94158         5     0.634     0.587 -89.53   0
       138    197.7149    712.5826 300.0470215 +22.6524182     4852.854     72.43761      1.418     2.55     3.652204     20.44727     592.0764        30     1.177     1.064  27.32   0
       139    279.7073    710.5897 300.0731620 +22.6764458     1050.978     72.41914      1.287     2.71     3.616314     20.44727     125.4777        12     0.874     0.797  28.58   0
       140    529.2957    709.3841 300.1512112 +22.7509557     156.7593     72.40066      1.130     3.48     3.938739     20.44727     32.75779         5     0.759     0.461  14.88   0
       141    155.2117    708.2589 300.0352158 +22.6384254     386.1181     72.43761      1.306     3.61     3.587413     20.44727      56.6899        10     0.936     0.831 -50.75   0
       142    487.9904    705.9249 300.1394781 +22.7375777     791.3829     72.45607      1.371     2.50     3.890303     20.44727     112.4158        13     0.988     0.859  54.02   0
       143    479.7205    698.2316 300.1394050 +22.7328905     3203.131     72.47453      1.266     2.20     3.993494     20.44727     453.5964        24     1.008     0.971  -9.04   0
       144    470.0505    691.9074 300.1384512 +22.7281764     1380.212     72.54834      1.300     2.21     4.068685     20.44727     204.3687        15     0.957     0.848   6.21   0
       145    398.6471    691.2736 300.1164377 +22.7065816     389.3721     72.47453      1.408     3.28     3.956679     20.44727     40.64874         6     0.704     0.653  34.48   0
       146    863.3771    689.8927 300.2616276 +22.8454962     498.1143     72.40066      1.293     2.59      3.72681     20.44727     69.33234         8     0.778     0.675   0.37   0
       147    133.3102    688.0497 300.0349782 +22.6260596     692.5285     72.47453      1.401     2.89     3.696243     20.44727     74.15102        11     0.950     0.727 -13.68   0
       148    147.5730    686.6237 300.0398744 +22.6299304     671.1532     72.45607      1.637     3.06     3.626784     20.44727     64.22279         9     0.857     0.813 -13.39   0
       149     33.8158    686.6508 300.0045197 +22.5958011     307.2321       72.493      1.543     3.84     4.025828     20.44727     45.81491         5     0.890     0.475  48.91   0
       150    173.0409    683.5692 300.0487829 +22.6366962     526.4432       72.493      1.210     3.09     3.620063     20.44727     70.10318        10     0.957     0.717  -9.02   0
       151    916.7450    682.9363 300.2805294 +22.8594879     538.2835     72.52989      1.354     2.99     3.657139     20.44727     80.40294        10     0.877     0.812  70.67   0
       152    394.7424    681.7672 300.1183129 +22.7026835      1694.95       72.493      1.262     2.22     4.020458     20.44727     255.0682        18     0.962     0.911  -3.25   0
       153    204.2820    683.5602 300.0584970 +22.6460668     326.6371     72.43761      1.334     3.53     3.761345     20.44727     37.32958         5     0.777     0.463 -16.59   0
       154    493.7299    682.2079 300.1489743 +22.7324939     364.1702     72.45607      1.314     2.81     4.238448     20.44727     56.23589         7     0.825     0.583  66.05   0
       155    428.1484    681.1322 300.1289137 +22.7125196     254.9385     72.47453      1.394     3.77     4.134328     20.44727      36.9048         5     0.973     0.420  44.56   0
       156     48.6426    676.7223 300.0123526 +22.5974048     19673.43     72.45607      1.576     2.82     3.955795     20.44727     2254.681        69     1.407     1.344  19.79   0
       157    970.4019    678.8806 300.2985823 +22.8743970     724.0468     72.38217      1.293     3.34     3.546787     20.44727     96.68778        12     1.006     0.828   9.99   0
       158    479.6854    676.8945 300.1463300 +22.7267581     1060.845     72.65891      1.396     2.41     4.302802     20.44727     143.2032        12     0.995     0.717 -56.79   0
       159    514.7342    676.0812 300.1575040 +22.7370337     391.1138     72.58521      1.155     1.83     4.326322     20.44727      80.8183         7     0.695     0.594  74.42   0
       160    232.9420    668.5251 300.0722940 +22.6503535     165.2162     72.52989      1.146     3.81     3.874227     20.44727     34.80789         6     0.837     0.499   2.08   0
       161    897.7655    663.1390 300.2810466 +22.8481162     961.9426       72.493      1.306     2.68     3.755122     20.44727     135.7801        16     1.059     0.866  30.02   0
       162    562.9443    664.3627 300.1763222 +22.7481249     304.0924     72.47453      1.116     3.70     4.245871     20.44727     45.11547         5     0.820     0.480 -49.22   0
       163    764.4147    661.3317 300.2400651 +22.8076416     505.2513       72.493      1.287     3.08     3.838013     20.44727     73.44155        10     0.966     0.724  40.53   0
       164     60.7073    661.5087 300.0210452 +22.5966642     362.0089     72.64049      1.589     5.18     3.960611     20.44727     45.21079         9     1.073     0.773 -10.34   0
       165    684.3291    657.2570 300.2164364 +22.7824709     7333.847       72.493      1.551     2.59      3.83227     20.44727     1088.849         9     0.927     0.466 -10.19   2
       166    443.0549    657.5300 300.1412240 +22.7102181     354.9541     72.51144      1.057     2.02     4.275712     20.44727     59.29748         6     0.719     0.495   6.87   0
       167    838.0786    655.8214 300.2648162 +22.8281323     686.5742     72.47453      1.353     2.66     3.793544     20.44727     102.8959        11     0.959     0.714 -37.80   0
       168    235.7797    656.4727 300.0770935 +22.6477484     214.2887       72.493      1.364     2.80     3.871706     20.44727      45.4577         5     0.738     0.448  22.12   0
       169    833.7364    655.4545 300.2635818 +22.8267260     373.2445     72.51144      1.240     2.72      3.78869     20.44727     41.83222         5     0.712     0.449 -22.88   0
       170    582.3352    653.7657 300.1858044 +22.7508966     255.6287     72.47453      1.525     4.07     4.159914     20.44727     40.86583         7     0.971     0.675  76.23   0
       171    399.9196    649.8828 300.1302871 +22.6950891     680.3625     72.62206      1.291     1.95     4.150364     20.44727     116.0723        11     0.912     0.723  40.95   0
       172    547.8278    648.4139 300.1767995 +22.7390160     450.1033       72.493      1.162     2.51     4.349723     20.44727     71.70625         8     0.826     0.692  70.57   0
       173    595.0708    646.8986 300.1920022 +22.7527435     416.1463     72.62206      1.182     2.60      4.12511     20.44727     63.40622         5     0.637     0.560  85.50   0
       174    565.4742    646.5212 300.1829089 +22.7437629     516.1022     72.58521      1.207     2.36     4.268682     20.44727     76.96045         9     0.811     0.726  66.54   0
       175    443.8285    645.6125 300.1453381 +22.7070308     956.2327     72.47453      1.460     3.00     4.288414     20.44727     114.5844        13     0.947     0.876 -42.92   0
       176    877.7953    641.1413 300.2819699 +22.8358158      3256.63     72.43761      1.325     2.34      3.84403     20.44727     430.3181        26     1.119     1.004  49.45   0
       177    409.4836    641.0903 300.1361205 +22.6954346     1667.008     72.62206      1.279     2.27     4.202092     20.44727     228.5753        18     0.975     0.882 -85.23   0
       178    975.9173    639.1261 300.3132250 +22.8646299     653.7895     72.58521      1.453     3.36     3.723133     20.44727     75.17785        14     1.105     0.853 -41.67   0
       179    774.6696    638.4802 300.2506884 +22.8041534     291.7862     72.58521      0.985     2.61     3.863681     20.44727     58.72335         7     0.880     0.551  62.26   0
       180    384.8427    636.3512 300.1299940 +22.6866857      265.768     72.51144      1.275     3.95     4.105239     20.44727     34.43697         5     0.911     0.774 -86.08   0
       181    439.1887    632.5084 300.1481530 +22.7018796     294.2149     72.41914      1.580     4.11     4.289984     20.44727     42.58332         7     0.999     0.483   8.57   0
       182    917.3923    631.1176 300.2975749 +22.8447989     269.6274     72.40066      1.221     4.14     3.804465     20.44727      43.4659         7     0.839     0.653  16.80   0
       183    272.9008    628.0060 300.0978873 +22.6507190     8997.194     72.36369      1.360     2.37     3.841515     20.44727     1226.174        46     1.224     1.136  83.39   0
       184    395.3573    624.9887 300.1369580 +22.6865789     8933.856     72.47453      1.303     2.24     4.164136     20.44727     1196.512        39     1.142     1.086 -70.60   0
       185    160.2761    622.6774 300.0646050 +22.6154062     350.0037     72.58521      1.471     3.79     3.838271     20.44727      46.0632         5     0.858     0.599 -49.95   0
       186   1000.0071    619.9034 300.3269873 +22.8663229     1033.343     72.36369      1.542     2.83     3.825498     20.44727     125.0515        13     1.118     0.721  78.50   0
       187    641.6238    621.2987 300.2148205 +22.7593491      332.442     72.41914      1.373     2.87     4.043373     20.44727     42.08765         5     0.703     0.474 -79.11   0
       188     39.2985    621.2061 300.0274916 +22.5786860     214.8365     72.36369      1.312     3.27     4.122139     20.44727     35.00695         6     0.729     0.640 -39.03   0
       189    807.0508    618.9246 300.2671364 +22.8082405     1872.977     72.47453      1.282     2.18     3.816208     20.44727     299.1089        17     0.990     0.834 -57.80   0
       190    891.6719    616.2157 300.2943977 +22.8328140     12126.18     72.47453      1.301     2.24     3.878254     20.44727     1520.033        46     1.165     1.122  21.77   0
       191    455.9411    614.5723 300.1591952 +22.7017561     11352.83     72.47453      1.272     2.15     4.333956     20.44727     1699.311        44     1.143     1.081 -83.16   0
       192    625.5205    610.2441 300.2133975 +22.7513493     635.4703     72.45607      1.268     2.81     4.194973     20.44727     82.67291        11     0.939     0.768  71.42   0
       193    183.3530    610.0342 300.0758863 +22.6187035      1304.26     72.51144      1.314     2.57     3.908963     20.44727     172.1144        18     1.052     0.912  14.23   0
       194    430.3557    607.2955 300.1535977 +22.6919967     342.0321       72.493      1.290     3.96     4.297535     20.44727     55.30323         8     1.062     0.613  77.17   0
       195    387.6761    602.8267 300.1417699 +22.6779171     4362.602       72.493      1.284     2.25     4.146904     20.44727     628.0633        29     1.127     0.999  67.02   0
       196    730.3895    602.6822 300.2485237 +22.7806061     894.0602     72.43761      1.322     2.65     4.061829     20.44727     109.3208        12     0.911     0.791 -35.75   0
       197    365.6763    601.1476 300.1354711 +22.6708384     1275.195     72.47453      1.316     2.49     4.047782     20.44727     166.3755        17     0.978     0.917 -72.87   0
       198    120.1503    600.7022 300.0592750 +22.5970665     684.4797     72.54834      1.407     3.11     3.923043     20.44727     103.3104        16     1.098     0.951   6.61   0
       199    807.4836    598.1033 300.2740377 +22.8023908     1545.651     72.64049      1.364     2.82     3.849545     20.44727     185.8302        18     1.064     0.909 -50.44   0
       200    504.2508    590.3133 300.1821146 +22.7092778     197933.7     72.47453      1.254     2.13     4.382755     20.44727     27590.66       206     1.431     1.379 -24.49   0
       201     53.2187    597.9327 300.0393783 +22.5761906     410.6322     72.45607      1.896     3.20     4.082145     20.44727     41.77337         5     1.045     0.495  36.45   0
       202    327.6454    596.5808 300.1251248 +22.6581234      392.107     72.51144      1.590     3.74     3.950331     20.44727     51.01403         9     0.993     0.755 -45.81   0
       203    687.9141    595.1655 300.2377325 +22.7657196     773.1504     72.43761      1.272     2.21     3.922803     20.44727      128.822        11     0.815     0.791  60.67   0
       204    780.8747    593.3206 300.2672984 +22.7930450     199.3714     72.58521      1.307     3.10     3.909454     20.44727     46.73947         5     0.908     0.351  45.30   0
       205    892.3791    591.9854 300.3024924 +22.8260661     153.3218     72.45607      1.106     4.02     3.919412     20.44727     33.53582         5     0.798     0.579  -1.73   0
       206    190.2854    590.3303 300.0844436 +22.6151321     3424.992     72.58521      1.352     2.36     3.868407     20.44727     406.1697        31     1.161     1.112 -48.26   0
       207    465.0408    590.9835 300.1696924 +22.6977153     229.4664     72.49299      1.430     3.65      4.34472     20.44727     28.22704         5     0.631     0.607   1.32   0
       208    272.5953    589.9351 300.1101632 +22.6397071      329.762     72.47453      1.689     6.24     3.897703     20.44727     31.40241         8     1.380     0.793  45.74   0
       209    755.9539    586.4669 300.2617591 +22.7836101     493.8608     72.47453      1.439     4.29     3.974077     20.44727     62.71217         9     1.173     0.751  80.37   0
       210    369.4897    587.0511 300.1412379 +22.6679375      265.081       72.493      1.409     4.73     4.034285     20.44727      30.3063         5     1.002     0.632   2.48   0
       211    535.5615    576.9632 300.1961996 +22.7148321     327.7147     72.54834      1.253     1.93     4.414193     20.44727      62.8739         6     0.739     0.494  84.98   0
       212    394.8107    570.9005 300.1543633 +22.6708959     2788.871     72.38217      1.408     2.48     4.125601     20.44727     363.4732        27     1.481     0.931 -84.32   0
       213    239.0572    573.4194 300.1051007 +22.6249108     498.9073     72.47453      1.614     1.92      3.90397     20.44727     68.94926         6     0.751     0.493  -2.20   0
       214    844.7935    570.3469 300.2946874 +22.8055964     263.4856     72.47453      1.102     3.44     3.945681     20.44727     40.40021         7     0.812     0.634  25.27   0
       215    806.1044    566.6750 300.2838201 +22.7929517     379.1737     72.62206      1.252     4.11     3.884494     20.44727     61.13394         8     1.103     0.576  45.16   0
       216    625.6930    566.3052 300.2277286 +22.7387873     470.9045     72.64049      1.943     4.56     4.200343     20.44727     41.80696         7     1.026     0.576  23.32   0
       217    712.2009    559.3381 300.2569405 +22.7627102     444.7275     72.43761      1.313     2.98     3.911707     20.44727     65.07155         8     0.908     0.612 -87.50   0
       218    791.8279    556.6515 300.2826271 +22.7857959      1695.43       72.493      1.271     2.21     3.892813     20.44727     250.5097        16     0.976     0.850  52.49   0
       219    662.9847    554.3967 300.2432133 +22.7465438     2457.222      72.3082      1.237     2.14      3.94974     20.44727      360.455        19     0.981     0.867  56.28   0
       220    300.8040    554.6317 300.1304057 +22.6380394     228.9613     72.45607      1.391     4.19     3.866889     20.44727     29.22569         5     1.174     0.427 -11.80   0
       221    907.1697    551.7615 300.3201745 +22.8189418     435.9337     72.47453      1.138     2.84     3.963137     20.44727     77.10561         9     0.973     0.592   4.29   0
       222    872.2460    551.0279 300.3095232 +22.8082706     295.6958     72.51144      1.325     2.78     3.998426     20.44727     37.22942         5     0.776     0.488 -32.10   0
       223    567.8733    551.0354 300.2146839 +22.7170748     409.8274     72.43761      1.115     2.59      4.41222     20.44727     64.64673         9     0.789     0.720  47.31   0
       224    450.1881    550.3789 300.1782626 +22.6816097      620.382     72.45607      1.112     1.97     4.289732     20.44727     118.3596        10     0.833     0.652  88.53   0
       225    920.4089    548.3189 300.3254216 +22.8219180     1281.816     72.41914      1.267     2.20     3.956672     20.44727     174.2678        14     0.875     0.845  -0.69   0
       226    906.0903    547.2823 300.3212931 +22.8173317     699.6287     72.58521      1.432     3.12     3.971571     20.44727     81.76476        14     1.047     0.846 -30.70   0
       227    792.1177    546.7404 300.2859375 +22.7830362     2141.313     72.56678      1.441     3.32     3.897889     20.44727     327.5934        26     1.450     0.911  79.33   0
       228    728.8621    546.5856 300.2662751 +22.7640405     209.9441     72.43761      1.044     3.46     3.888101     20.44727     36.47285         5     0.766     0.452  18.56   1
       229    545.3671    544.9853 300.2096420 +22.7085924     565.4374     72.45607      1.231     2.85     4.477047     20.44727     94.07587        10     0.935     0.736 -38.29   0
       230    383.8366    543.9594 300.1597016 +22.6598749     399.1821     72.54834      1.188     2.57      4.03064     20.44727     65.75648         8     0.862     0.620  30.16   0
       231    331.2310    544.6871 300.1431002 +22.6443104     305.5314     72.45607      1.486     1.85     3.866833     20.44727     57.61276         5     0.703     0.420 -20.34   0
       232    830.2100    541.8685 300.2993939 +22.7930481     4374.646     72.47453      1.261     2.00     3.952596     20.44727     709.5414        28     1.065     0.963  57.68   0
       233    471.2196    541.8295 300.1875856 +22.6854609     214.1653     72.47453      1.437     4.40     4.342839     20.44727     27.16468         5     0.774     0.712  48.07   0
       234    545.1779    540.6890 300.2109788 +22.7073025      325.176     72.40066      1.050     1.77      4.46589     20.44727     58.74138         5     0.678     0.439 -16.59   0
       235    567.8080    538.2957 300.2188024 +22.7133980     255.9574     72.36369      1.085     2.85     4.405811     20.44727     49.49201         5     0.808     0.460 -48.45   0
       236    490.7467    537.7668 300.1949833 +22.6901484     306.8521       72.493      1.096     3.13     4.378661     20.44727      50.6171         6     0.726     0.632   0.43   0
       237    921.8582    532.1052 300.3311412 +22.8176940     715.9312     72.54834      1.247     2.62     3.972812     20.44727     107.5315        13     1.003     0.838  72.99   0
       238    744.6229    527.2261 300.2774756 +22.7632029     204.3916     72.43761      0.971     3.46     3.873672     20.44727     37.23419         5     0.736     0.470 -78.06   0
       239    722.8520    525.8698 300.2711324 +22.7562908     355.2002     72.45607      1.353     3.93     3.868987     20.44727     37.33449         6     0.757     0.584  50.05   0
       240    328.4017    525.6080 300.1484179 +22.6379878     182.3909      72.2897      1.161     3.38     3.903585     20.44727     31.33504         5     1.065     0.310  21.73   0
       241     54.7139    522.4177 300.0643749 +22.5549865     369.7915     72.41914      1.193     3.73     3.998364     20.44727     63.39246         9     0.986     0.718  36.08   0
       242     62.4154    532.3246 300.0635496 +22.5601379     1042.073     72.47453      1.457     2.84     3.964535     20.44727      110.872        17     1.007     0.968 -15.25   0
       243    662.5302    516.4764 300.2553908 +22.7355195       468.45     72.56678      1.153     3.73     3.931769     20.44727       61.982         6     0.934     0.428  71.96   0
       244    270.8803    514.8643 300.1340180 +22.6176569     361.9839     72.58521      1.411     3.87     3.926578     20.44727     52.62675         6     1.102     0.390 -28.28   0
       245    551.3881    514.4059 300.2214505 +22.7016188     294.5706      72.3452      1.058     2.96      4.38277     20.44727     41.52618         6     0.800     0.530 -45.66   0
       246    603.4465    512.4291 300.2383030 +22.7166526     761.7147     72.51144      1.164     2.37     4.314081     20.44727     109.2763        13     0.894     0.815  48.31   0
       247   1011.1227    509.9925 300.3661680 +22.8380711     1036.766     72.41914      1.322     2.43      3.94151     20.44727      151.806        11     0.829     0.806 -42.04   0
       248    918.0679    504.6529 300.3388773 +22.8086718      433.244       72.493      1.186     2.39     4.002168     20.44727     78.15257         7     0.803     0.545  26.24   0
       249    664.3569    504.5103 300.2598468 +22.7326308     902.9745       72.493      1.271     2.69     3.917917     20.44727      112.916        15     0.958     0.911  68.77   0
       250    821.6326    500.6929 300.3100963 +22.7786514     997.5466     72.41914      1.191     2.30     3.941086     20.44727     147.7371        14     0.956     0.808  85.23   0
       251    806.0599    497.2494 300.3063607 +22.7729976     687.9717     72.52989      1.223     2.65     3.911112     20.44727     109.5952        11     0.928     0.771  65.26   0
       252    786.0257    497.2530 300.3001151 +22.7669975      305.998       72.493      1.406     4.49      3.88935     20.44727     55.36923         7     1.052     0.583 -22.48   0
       253    550.1982    495.1600 300.2273315 +22.6957370     3117.747       72.493      1.223     2.00     4.334822     20.44727     520.5346        23     0.983     0.941 -51.13   0
       254    910.7045    494.0185 300.3400354 +22.8034112     464.0506     72.38217      1.178     2.21     4.014246     20.44727     72.43958         7     0.690     0.647 -65.06   0
       255     26.3780    486.4730 300.0672466 +22.5361782       328.19     72.51144      1.250     3.43     4.177598     20.44727      44.5684         5     1.030     0.329 -22.60   0
       256   1021.4102    482.6851 300.3782479 +22.8333037     613.1417       67.445      1.673     4.83     3.921837     20.44727     59.26043        10     1.234     0.646  61.01  16
       257    555.9003    483.2803 300.2329654 +22.6940352     325.5323     72.60364      1.302     3.99     4.303244     20.44727     44.39317         7     0.778     0.644   5.67   0
       258    389.9983    482.2349 300.1816681 +22.6440089     388.3872     72.43761      1.266     2.05     4.154352     20.44727     71.24102         7     0.680     0.653  24.20   0
       259    961.6136    474.3168 300.3623122 +22.8129950     1380.421     72.45607      1.306     2.26     3.985133     20.44727     171.2288        18     1.027     0.921 -48.16   0
       260    919.8376    472.8975 300.3497439 +22.8000776      875.826     72.47453      1.306     2.38     4.025884     20.44727     161.4786        13     0.983     0.755  65.06   0
       261    833.2485    473.6066 300.3225153 +22.7743495     571.8784     72.47453      1.255     2.56     3.964591     20.44727     91.02207         9     0.978     0.559  60.04   0
       262    569.4091    471.1159 300.2411224 +22.6945911     235.6083     72.41914      1.252     3.40     4.296562     20.44727     36.65503         5     0.764     0.437  68.93   0
       263    660.7092    468.9460 300.2702619 +22.7213251     946.4547     72.52989      1.193     2.13     3.911014     20.44727     167.0559        14     1.005     0.847  33.68   0
       264    456.4077    469.5201 300.2064629 +22.6602663      408.465     72.40066      1.143     2.50     4.280142     20.44727     84.74969         5     0.728     0.419  27.26   0
       265    164.8084    467.4456 300.1164409 +22.5722435     603.5892       72.493      1.208     2.61     3.945302     20.44727     90.19293        10     0.897     0.686 -79.24   0
       266      4.5900    465.8729 300.0671685 +22.5237345     38.54863     70.81252     -0.154     3.42     4.172213     20.44727     51.42747         5     1.131     0.298 -35.10  16
       267    227.1346    463.1149 300.1372228 +22.5896918     3623.699     72.58521      1.308     2.14     3.999639     20.44727      534.681        26     1.073     1.007  83.95   0
       268    960.2568    461.4098 300.3660811 +22.8088797     4244.899     72.45607      1.250     2.17     3.982573     20.44727     625.6006        27     1.055     0.997 -30.30   0
       269    174.2947    457.8678 300.1224999 +22.5723408     7574.405     72.62206      1.362     2.47     3.939151     20.44727     917.6859        36     1.191     1.091  54.99   0
       270    678.9872    458.2307 300.2794359 +22.7237239     248.8385     72.47453      1.143     2.57     3.816912     20.44727     42.84678         5     0.770     0.469  66.75   0
       271    552.7162    457.1017 300.2404761 +22.6855650     359.7466     72.64049      1.180     2.78     4.309904     20.44727     48.76407         7     0.811     0.597  62.69   0
       272    315.1270    452.0530 300.1681785 +22.6129012     4748.519     72.47453      1.312     2.24     4.031484     20.44727      684.254        29     1.100     0.972  89.23   0
       273    940.2188    452.4445 300.3627430 +22.8003035     1849.284       72.493      1.255     2.22     4.009083     20.44727     270.0981        17     0.951     0.895 -58.67   0
       274    559.3877    448.7429 300.2452679 +22.6851643      18306.3     72.43761      1.229     2.01     4.305643     20.44727     2917.633        54     1.159     1.080  76.78   0
       275    406.9778    450.4834 300.1972628 +22.6399857     233.1756     72.43761      1.112     3.39     4.246229     20.44727     41.75204         7     0.869     0.655  66.01   0
       276    576.8089    448.5325 300.2507608 +22.6903242     681.7416     72.47453      1.712     6.38     4.281492     20.44727     84.19576        14     1.490     0.768 -37.33   0
       277    185.9924    447.1198 300.1296263 +22.5727654     322.7872     72.40066      1.359     4.57     3.941599     20.44727     50.97867         8     0.861     0.689  32.91   0
       278    803.2009    444.7220 300.3225298 +22.7570521     226.4436     72.36369      1.355     4.42     3.905852     20.44727     33.53455         6     1.005     0.553 -65.48   0
       279    415.9430    445.1782 300.2017753 +22.6411503      230.552       72.493      1.366     3.82       4.2719     20.44727      35.2691         5     0.816     0.513  49.75   0
       280    756.3949    439.0820 300.3097734 +22.7414125     332.2444     72.40066      1.168     3.42     3.836661     20.44727     57.59897         6     0.887     0.547 -25.78   0
       281    179.0713    435.8623 300.1311303 +22.5674602     357.9131     72.51144      1.306     3.85     3.914936     20.44727     49.68887         6     0.922     0.461 -34.84   0
       282    893.0927    431.1565 300.3549599 +22.7800751     815.2925     72.47453      1.331     2.68      4.03337     20.44727     117.0103        12     1.005     0.778 -48.03   0
       283    113.9707    428.9461 300.1131423 +22.5459528     2002.514     72.47453      1.378     2.67     3.885474     20.44727     268.8966        24     1.182     0.974  89.26   0
       284    500.0002    418.2358 300.2366852 +22.6586087     6371.827     72.43761      1.251     2.04     4.313472     20.44727     1025.078        32     1.110     0.975  79.01   0
       285    769.8904    420.6295 300.3199713 +22.7401540     255.8598     72.43761      1.357     3.52      3.85088     20.44727     36.53237         5     0.810     0.440  16.93   0
       286    913.6570    418.4026 300.3655142 +22.7825678     1053.273     72.43761      1.153     2.25     4.029666     20.44727     161.7838        15     0.956     0.806  13.48   0
       287    214.8371    417.5404 300.1481980 +22.5729283     689.9955       72.493      1.472     3.71     3.988719     20.44727     98.32349        12     1.079     0.781  87.71   0
       288     72.4603    410.5588 300.1062134 +22.5282287     660.0445     72.45607      1.700     4.73     3.896869     20.44727     70.24443        11     1.128     0.801  59.33   0
       289    759.8508    409.8602 300.3203394 +22.7340533      369.831     72.52989      1.305     2.51     3.838193     20.44727     49.70041         8     0.790     0.655 -39.73   0
       290    704.2828    406.9869 300.3039571 +22.7165836     1081.376     72.45607      1.327     2.60     3.801883     20.44727     149.8443        16     1.046     0.925 -62.33   0
       291    613.4911    408.4496 300.2752000 +22.6898049      479.021     72.47453      1.443     2.66     4.170746     20.44727     69.96458         6     0.827     0.455 -17.02   0
       292    124.4718    406.4825 300.1236991 +22.5426580     198.5809     72.60365      1.109     4.14     3.893782     20.44727     30.96613         5     1.225     0.400 -54.66   0
       293    990.9807    406.0158 300.3936539 +22.8021584     225.4786     72.45607      1.227     3.69     3.905335     20.44727     29.11396         5     0.638     0.612   0.54   0
       294    406.5901    404.4692 300.2120834 +22.6266616     5930.413     72.45607      1.206     2.15     4.271012     20.44727     823.2655        28     1.051     0.961  78.98   0
       295    798.5223    398.8144 300.3359786 +22.7424619     1508.488       72.493      1.317     2.07     3.915142     20.44727     204.5927        17     0.952     0.847 -73.96   0
       296    896.0898    398.8903 300.3663718 +22.7717006     615.3965     72.64049      1.201     2.38     4.024156     20.44727     104.1325        10     0.863     0.702 -24.75   0
       297    391.1353    393.0733 300.2109744 +22.6187581     516.9699     72.51144      1.370     3.42     4.267739     20.44727     59.83617         9     1.031     0.620  72.75   0
       298    473.8774    391.0083 300.2373941 +22.6429631     418.1443     72.43761      1.536     3.77     4.297052     20.44727     64.05144         9     1.057     0.687 -75.67   0
       299    771.3194    386.4446 300.3315163 +22.7307611     484.5811     72.45607      1.085     2.46     3.876771     20.44727     86.30422         8     0.848     0.631  46.39   0
       300    294.1312    383.7243 300.1838338 +22.5869976     2401.819     72.54834      1.317     2.36     4.217036     20.44727     327.7995        21     1.032     0.923  31.35   0
       301     12.6668    381.0012 300.0972332 +22.5018166     924.1226     72.45607      1.463     2.63     4.064172     20.44727     128.5741        16     1.116     0.882 -79.42   0
       302    263.4940    373.1899 300.1777258 +22.5747898     29380.11     72.41914      1.322     2.27     4.260506     20.44727     3672.967        67     1.294     1.138  60.55   0
       303    241.3971    376.9181 300.1696443 +22.5692351     287.1307     72.38217      1.426     3.45     4.217599     20.44727     33.24118         5     0.781     0.440 -70.64   0
       304    798.0812    370.6107 300.3449980 +22.7342265     1264.806     72.43761      1.224     2.23     3.939467     20.44727     205.1421        18     1.024     0.889  16.47   0
       305    713.5370    359.4941 300.3222596 +22.7057127     595.3077     72.56678      1.317     3.53     3.866343     20.44727     77.94102        12     1.175     0.675 -50.65   0
       306    137.8640    359.5406 300.1431000 +22.5332065     476.8828     72.51144      1.377     2.70     4.033893     20.44727     57.29871         9     0.871     0.659 -76.53   0
       307    361.9730    358.3775 300.2131648 +22.6000578     396.6963     72.45607      1.042     2.15     4.305462     20.44727     73.06131         7     0.712     0.602 -30.89   0
       308    673.8520    352.8696 300.3120460 +22.6919232     1765.194     72.45607      1.182     2.10     3.937548     20.44727     309.3317        19     1.066     0.783  69.73   0
       309    889.1382    345.8102 300.3814370 +22.7543649     754.4724     72.40066      1.274     2.60     4.013307     20.44727     93.04627        11     0.925     0.754 -58.63   0
       310    482.5166    347.5116 300.2542036 +22.6330630      342.009     72.58521      1.014     2.33     4.315253     20.44727     67.25099         5     0.694     0.470 -19.42   0
       311    335.6626    337.5154 300.2117517 +22.5861834      2067.57     72.58521      1.487     2.55     4.364656     20.44727     286.7739        23     1.219     0.907  65.58   0
       312    547.8276    336.2587 300.2781884 +22.6493999     258.5191     72.47453      1.224     2.89     4.345442     20.44727     46.92763         7     0.843     0.580  27.17   0
       313    774.8623    330.0864 300.3509162 +22.7156295     714.1655     72.58521      1.302     2.61     3.886225     20.44727     101.3888        12     0.958     0.762  77.67   0
       314    657.2520    328.0045 300.3149460 +22.6798083     289.8757     72.47453      1.195     1.83     4.158314     20.44727     75.80742         7     0.658     0.644  31.14   0
       315    625.0142    327.3575 300.3051145 +22.6699661     330.3006       72.493      1.576     2.81     4.279956     20.44727     39.76162         5     0.854     0.471  -7.08   0
       316    735.5775    321.7079 300.3413930 +22.7014577     279.9261     72.40066      1.401     3.44     3.813907     20.44727     31.53695         5     0.775     0.442  69.71   0
       317    126.1783    318.3684 300.1528314 +22.5178893      157.734     72.47453      1.185     3.39      4.23275     20.44727     32.50647         5     0.774     0.431  19.74   0
       318    411.5027    316.7378 300.2420910 +22.6029473     1191.643     72.56678      1.365     2.46     4.415559     20.44727     163.6603        15     0.972     0.863 -57.42   0
       319    218.6021    317.1934 300.1819427 +22.5452614     221.8896      72.2897      1.187     2.40     4.363184     20.44727     38.76689         5     0.694     0.466 -73.26   0
       320    922.8065    312.7094 300.4026807 +22.7549305     285.9162     72.38217      1.212     2.48     4.057503     20.44727     63.51728         5     0.801     0.429  48.14   0
       321    656.3806    308.6480 300.3209572 +22.6739868     2140.495       72.493      1.185     2.25     4.258881     20.44727     302.6518        19     0.997     0.847  75.83   0
       322    795.0568    309.5858 300.3638645 +22.7157857     231.9582     72.45607      1.173     3.39      3.89915     20.44727     41.97729         5     0.787     0.423 -22.28   0
       323    917.6808    302.9593 300.4042468 +22.7505935     3036.808     72.43761      1.254     2.20     4.077944     20.44727     441.3207        22     1.020     0.941  58.29   0
       324    978.8101    297.9118 300.4249514 +22.7674403     396.6052     72.41914      1.387     2.61      3.98691     20.44727     64.11396         6     0.854     0.460 -55.11   0
       325    364.7698    292.5070 300.2354142 +22.5819859     554.1823     72.40066      1.195     2.34     4.443723     20.44727     95.61208        10     0.871     0.681 -83.00   0
       326    987.1451    290.7606 300.4298725 +22.7678791      1732.37     72.47453      1.307     2.20     3.978181     20.44727     284.7542        19     0.991     0.935  85.43   0
       327     39.6368    286.9220 300.1361454 +22.4829172     1421.691     72.43761      1.644     3.15     4.364527     20.44727     141.9001        19     1.145     0.979 -63.10   0
       328     70.2460    286.8061 300.1456930 +22.4920624     598.8211       72.493      1.379     3.08     4.364096     20.44727       70.147        11     0.908     0.815  60.16   0
       329    933.4758    283.5877 300.4154599 +22.7497531     545.2981       72.493      1.254     2.83     4.129006     20.44727     69.78138        11     0.982     0.737  18.53   0
       330    777.2703    280.1967 300.3678589 +22.7020145     438.9952     72.41914      1.394     2.67     3.925142     20.44727     62.17279         7     0.740     0.645  88.23   0
       331    123.8218    278.8674 300.1649177 +22.5058480     447.5154     72.45607      1.281     2.85     4.407986     20.44727     75.45055         8     0.867     0.662 -25.74   0
       332    799.4319    272.1290 300.3773846 +22.7063315     258.3824     72.47453      1.266     4.49     4.027577     20.44727     40.29897         8     1.059     0.561  65.98   0
       333    728.0190    270.0624 300.3557990 +22.6843549     677.0383     72.45607      1.426     3.21     4.017583     20.44727     99.14545        13     1.177     0.717  76.06   0
       334    318.0523    269.5270 300.2283384 +22.5613880     435.4333     72.47453      1.168     2.73     4.441375     20.44727     58.33306         8     0.829     0.653  46.36   0
       335    818.6805    262.8877 300.3863835 +22.7094385     410.9794     72.60364      1.403     2.89     4.103758     20.44727     51.42131         9     0.854     0.714 -17.19   0
       336    826.1964    259.0422 300.3899744 +22.7105833     2044.323       72.493      1.258     2.11     4.123903     20.44727      337.267        20     1.049     0.853  83.80   0
       337    244.6640    256.5064 300.2097394 +22.5356550     2049.807     72.58521      1.276     2.33     4.429684     20.44727     287.3062        19     0.996     0.930  33.74   0
       338    322.5556    251.6176 300.2355503 +22.5575958     1032.805       72.493      1.397     2.42     4.457112     20.44727     118.2363        14     0.961     0.819 -49.78   0
       339    724.6520    250.8334 300.3609896 +22.6778212     522.3857       72.493      1.200     2.70     4.188288     20.44727     85.42442        11     0.928     0.759 -89.20   0
       340     74.7016    252.0527 300.1583540 +22.4834264     358.1049     72.56678      1.511     2.25     4.537144     20.44727     48.87102         5     0.761     0.454 -31.60   0
       341    831.4286    247.5545 300.3953331 +22.7088480     405.9016     72.51144      1.474     3.98     4.172943     20.44727     49.71759         7     0.866     0.675 -56.50   0
       342    139.3979    243.8793 300.1811111 +22.5004769      655.666     72.38217      1.236     2.55     4.485304     20.44727     88.48355        11     0.902     0.735 -20.63   0
       343    742.1288    240.0459 300.3699359 +22.6799543     502.1169     72.45607      1.273     2.72     4.255413     20.44727     82.54124        11     0.951     0.709  86.90   0
       344    677.3380    240.4915 300.3496036 +22.6606815      1692.43     72.56678      1.200     2.13     4.376521     20.44727     241.2393        15     0.896     0.832 -69.69   0
       345    109.0123    240.4472 300.1727812 +22.4903827      251.985     72.47453      1.392     4.44     4.561611     20.44727     36.69347         5     1.041     0.538 -76.76   0
       346    160.9298    236.8477 300.1900851 +22.5049135     510.5406     72.45607      1.232     3.03     4.446146     20.44727     73.68452        10     0.973     0.700  86.17   0
       347    948.8182    232.7646 300.4367374 +22.7397342     895.4866     72.47453      1.370     2.38     4.427352     20.44727       129.82        13     1.007     0.800 -82.62   0
       348    681.2375    231.8620 300.3536184 +22.6593697     709.5338       72.493      1.302     2.37     4.383091     20.44727     106.2458        12     1.068     0.701  39.85   0
       349    601.6002    231.2348 300.3290156 +22.6353402     1271.098     72.43761      1.191     2.22     4.392234     20.44727     189.0651        15     0.993     0.774  69.54   0
       350    423.0086    227.6685 300.2745742 +22.5808187     365.7009     72.45607      1.107     2.82     4.507511     20.44727     53.62239         7     0.752     0.601  21.01   0
       351    797.3667    222.7062 300.3927776 +22.6915089     1439.129     72.41914      1.235     2.24     4.432251     20.44727     231.1675        17     1.002     0.851  55.02   0
       352    527.9395    223.0725 300.3087267 +22.6109328     1078.669     72.51144      1.325     2.57     4.386575     20.44727     153.5529        15     0.971     0.838 -62.31   0
       353    809.2679    221.6320 300.3968359 +22.6947630     746.9038     72.47453      1.269     2.30     4.396142     20.44727      129.582        12     0.915     0.787  79.81   0
       354    855.6285    220.9563 300.4115080 +22.7084468     409.0761     72.51144      1.333     2.98     4.174207     20.44727     54.61219         6     0.973     0.460  35.40   0
       355    970.1021    212.5357 300.4499396 +22.7402876     1662.927     72.58521      1.317     2.25     4.596814     20.44727     261.7302        19     0.986     0.955  29.33   0
       356    926.0366    212.0548 300.4363513 +22.7269618     1034.359     72.49299      1.317     2.08     4.450016     20.44727     166.4534        12     0.879     0.808 -75.45   0
       357    160.1336    205.3277 300.2000631 +22.4956280     674.5786     72.51144      1.267     2.62     4.471609     20.44727     90.85004        11     0.906     0.742  84.21   0
       358    829.1764    205.5979 300.4082440 +22.6961138     230.5355     72.41914      1.013     3.46     4.335213     20.44727     25.80615         5     0.795     0.434 -20.07   0
       359     21.9149    200.1273 300.1587991 +22.4527000     2247.983     72.58521      1.461     2.61     4.613883     20.44727     259.7219        24     1.235     1.001  50.66   0
       360    845.0734    196.9081 300.4160192 +22.6983744     779.8159     72.62206      1.276     2.45     4.309641     20.44727     124.3981        11     0.901     0.757  66.87   0
       361    179.3283    193.4572 300.2098804 +22.4979740     5558.592       72.493      1.368     2.47     4.469423     20.44727     616.5927        35     1.224     1.063  65.08   0
       362    160.8949    194.5032 300.2038110 +22.4927492     423.1288     72.65891      1.522     4.35      4.47674     20.44727     37.09158         7     0.887     0.608  77.67   0
       363    162.6437    184.1449 300.2077145 +22.4903001     682.7164     72.47453      1.716     3.19     4.483703     20.44727     76.72052        12     1.043     0.788  54.44   0
       364    978.2046    180.7224 300.4627880 +22.7335644     18108.04     72.38218      1.340     2.24      4.83692     20.44727     2799.582        57     1.240     1.160 -74.99   0
       365    823.4413    174.8090 300.4164442 +22.6855465      3573.33     72.47453      1.263     2.08     4.410349     20.44727     553.2992        26     1.067     0.987  44.47   0
       366    107.5086    175.6150 300.1933448 +22.4713254      331.663     72.40066      2.416     5.95     4.530648     20.44727     37.71113         8     1.806     0.552  12.30   0
       367    927.0783    173.5535 300.4491665 +22.7162036     2855.177     72.47453      1.287     2.17     4.541998     20.44727     447.5004        22     1.035     0.931 -59.86   0
       368    125.6501    170.5538 300.2006245 +22.4753107     447.2021       72.493      1.397     2.84     4.511954     20.44727     69.71189        11     0.929     0.797  61.57   0
       369    372.8195    169.8376 300.2777173 +22.5491740     676.9981       72.493      1.267     2.72     4.512039     20.44727     102.9407         9     0.892     0.644 -68.02   0
       370    487.3292    167.8492 300.3139985 +22.5829055     437.1813     72.47453      1.208     2.16     4.479993     20.44727     58.35557         5     0.689     0.454 -76.51   0
       371    296.9429    162.2262 300.2565824 +22.5242545     557.9109     72.47453      1.373     2.82     4.509258     20.44727     76.46926        12     0.940     0.820 -58.06   3
       372    300.7812    160.3982 300.2583690 +22.5248796     603.0681     72.40066      1.697     4.91     4.508251     20.44727     53.08579         9     1.020     0.711  23.99   3
       373    424.2316    157.3924 300.2977515 +22.5610015     1588.339     72.47453      1.259     2.23     4.498333     20.44727      229.536        20     1.025     0.947   9.81   0
       374    352.3643    157.8591 300.2752385 +22.5396056      452.115       72.493      1.302     2.40     4.506756     20.44727      65.1065         7     0.762     0.622 -15.69   0
       375    486.0562    156.6408 300.3172377 +22.5793045      363.266     72.45607      1.256     3.66     4.475001     20.44727     42.84057         7     0.856     0.593  29.82   0
       376    167.5820    153.0703 300.2193284 +22.4828600     458.9438     72.51144      1.558     5.68     4.552691     20.44727     42.34879        11     1.438     0.633  72.15   0
       377    712.5195    146.8195 300.3909524 +22.6442966     336.9974     72.45607      1.205     3.78     4.486667     20.44727     57.98605         7     0.991     0.576 -64.13   0
       378     63.1825    159.3755 300.1848380 +22.4533773     724.5198     72.47453      1.560     4.00     4.507654     20.44727     69.04839        12     1.209     0.684  74.28   0
       379    858.4565    140.8714 300.4383687 +22.6862701     343.1221       72.493      1.249     2.26     4.419404     20.44727     59.36311         5     0.700     0.468 -70.95   0
       380    984.6446    140.2708 300.4779183 +22.7238585     275.3843     72.43761      1.191     2.82     5.044745     20.44727     38.11079         5     0.712     0.465 -74.02   3
       381    988.7166    137.9954 300.4799266 +22.7244225     3523.723     72.40066      1.364     2.41     5.084318     20.44727     434.6089        26     1.105     1.022 -43.35   2
       382    198.3282    137.3520 300.2339842 +22.4875620     5964.981     72.45607      1.383     2.45     4.548728     20.44727     654.5862        35     1.224     1.076  62.52   0
       383    704.9589    137.5681 300.3915972 +22.6393741     554.5776     72.52989      1.823     3.86     4.550021     20.44727      55.3231         8     0.900     0.762 -88.08   0
       384     49.1745    136.6528 300.1878548 +22.4426567     882.5198       72.493      1.645     3.24     4.626043     20.44727     90.31147        13     1.162     0.736  26.89   0
       385    827.2923    134.4816 300.4307251 +22.6751058     379.6507     72.62206      1.203     3.35     4.425264     20.44727     56.37348         7     0.975     0.499  45.78   0
       386    170.2369    131.5603 300.2271295 +22.4774807      370.497     72.54834      1.447     2.84     4.690961     20.44727      59.6536         9     0.887     0.860  80.95   0
       387    213.5254    128.1893 300.2416805 +22.4894855     447.3138       72.493      1.434     4.34     4.495735     20.44727     62.61535         8     1.236     0.592 -61.71   0
       388    444.4047    122.6204 300.3153068 +22.5570561     6174.248     72.43761      1.278     2.23     4.421885     20.44727     861.3529        36     1.155     1.078  41.00   0
       389    329.8907    122.5321 300.2797041 +22.5227272     592.3827     72.60364      1.292     2.30     4.426761     20.44727     93.16695        10     0.816     0.748  73.25   0
       390    501.4938    116.9760 300.3349073 +22.5725330     177.7228     72.40066      1.059     2.44     4.418605     20.44727     51.33581         6     0.749     0.492  80.80   0
       391    696.7297    112.8780 300.3970404 +22.6298140       924.24     72.58521      1.611     4.05     4.728049     20.44727     129.2085        17     1.541     0.758 -72.21   0
       392    637.9014    113.6430 300.3784654 +22.6124217     262.1756     72.47453      1.223     3.40     4.760136     20.44727     35.47295         5     0.778     0.431  18.92   0
       393    789.1578    110.9447 300.4264711 +22.6569254       555.23     72.47453      1.289     2.30     4.481734     20.44727     83.05672         9     0.776     0.701 -68.87   0
       394    857.8054    108.8339 300.4485560 +22.6768637     114.7818     72.45607      1.214     3.99     4.394997     20.44727     33.86663         5     0.940     0.484  44.20   0
       395    495.7720    105.2602 300.3369253 +22.5674535     606.6169       72.493      1.590     4.08     4.398985     20.44727      87.3279        10     1.181     0.611 -70.38   0
       396    137.1224    106.3274 300.2250186 +22.4603127     387.2199     72.56678      1.347     4.27     4.937921     20.44727     43.64186        11     0.962     0.956  35.59   0
       397    572.7147    102.6385 300.3617317 +22.5897412      6178.05     72.45607      1.264     2.22     4.619183     20.44727     899.6108        34     1.141     1.017  58.87   0
       398    347.6024    101.7242 300.2919615 +22.5220572      1442.64     72.38218      1.241     2.31     4.379611     20.44727     198.8546        16     1.014     0.808  66.06   0
       399    613.8336     99.8457 300.3754431 +22.6012505      891.063     72.51144      1.308     2.60     4.861218     20.44727      125.171        11     0.896     0.729  87.24   0
       400    683.8741     97.3099 300.3980835 +22.6214908     257.2231     72.64049      1.145     3.86     4.862038     20.44727     34.67028         7     0.751     0.668  -6.23   0
       401    629.8565     96.0106 300.3816774 +22.6049456     630.5952     72.43761      1.291     2.72     4.882914     20.44727      99.2453        12     0.988     0.753  54.58   0
       402     96.3136     94.3873 300.2162074 +22.4446545     602.7339     72.41914      1.344     2.71     5.006098     20.44727     75.38382         9     0.915     0.610 -85.91   0
       403    899.8195     93.6956 300.4665658 +22.6850833     386.0415     72.38217      1.135     2.41     4.391614     20.44727     68.81226         7     0.718     0.622  32.28   0
       404    938.9229     92.7018 300.4790834 +22.6964979      315.307     72.62206      1.095     2.16     4.530751     20.44727     58.41446         5     0.742     0.402  20.50   0
       405    668.3093     91.5146 300.3951136 +22.6151655     464.3174     72.64049      1.173     2.34     4.887366     20.44727     64.18031         8     0.852     0.576  69.91   0
       406    154.2746     92.3229 300.2348909 +22.4614324      307.738     72.58521      1.117     3.81     5.009302     20.44727     34.16599         5     0.909     0.458  45.90   0
       407    257.9036     88.8218 300.2682453 +22.4914789     478.1174     72.38217      1.694     4.07     4.369022     20.44727     53.85741         8     1.166     0.532  66.21   0
       408    616.8798     87.4936 300.3803972 +22.5986127     2580.965     72.60364      1.259     2.21     4.892931     20.44727     416.2466        20     1.024     0.880  71.23   0
       409    632.1310     86.2505 300.3855506 +22.6028215     1032.103     72.47453      1.766     4.67     4.894044     20.44727     86.87081        18     1.475     0.893  56.71   0
       410    703.2682     78.9820 300.4100691 +22.6220283     1533.169     72.47453      1.371     2.68     4.853704     20.44727      198.404        18     1.027     0.917  85.98   0
       411    781.0146     73.7280 300.4360011 +22.6437885     408.2156     72.47453      1.703     4.94     4.485302     20.44727     40.89706         6     1.275     0.541  84.12   0
       412    641.4032     72.1605 300.3930074 +22.6015478     878.7393       72.493      1.447     2.48     4.909626     20.44727     100.0393        13     0.895     0.844 -37.00   0
       413    446.9280     71.5982 300.3326366 +22.5431542     1168.359     72.38217      1.353     2.48     4.379749     20.44727     151.4791        13     0.964     0.789 -75.61   0
       414     19.6976     71.7099 300.1997546 +22.4151813     560.7908     72.65891      1.325     2.66     4.842534     20.44727     60.08295         8     0.829     0.644 -81.16   0
       415    350.8703     69.6673 300.3033722 +22.5138286      872.916     72.51144      1.386     3.01      4.31547     20.44727      99.4506        13     1.033     0.790  47.83   0
       416    732.9554     68.2242 300.4228078 +22.6278220     398.8833       72.493      1.245     3.17     4.824867     20.44727     62.57021         8     0.870     0.676 -87.26   0
       417    993.7530     66.3885 300.5047192 +22.7053337     2297.733       72.493      1.372     2.37     5.246786     20.44727     313.5489        23     1.107     1.007 -61.11   0
       418    122.1518     59.9286 300.2354093 +22.4425056     3853.753     72.45607      1.485     2.51     5.009302     20.44727      448.293        35     1.294     1.122  40.68   0
       419    690.1727     60.1269 300.4121023 +22.6126883     548.0861     72.47453      1.186     2.24     4.899158     20.44727     97.47352         7     0.704     0.639  71.34   0
       420    252.6419     60.2104 300.2758853 +22.4816861       359.81     72.47453      1.425     3.43     4.271376     20.44727     36.57819         5     0.730     0.464 -77.83   0
       421    447.7390     56.9155 300.3376493 +22.5391788     313.9352     72.60364      1.417     4.42     4.386718     20.44727     46.00039         7     0.957     0.641  81.96   0
       422    544.5536     56.7227 300.3678505 +22.5681146     401.0025     72.47453      1.215     2.94     4.763142     20.44727     47.35224         6     0.868     0.447   1.96   0
       423    683.5619     52.1689 300.4126227 +22.6084219     773.1384     72.47453      1.266     2.63     4.917411     20.44727     117.9492        13     0.954     0.799  19.99   0
       424    237.8532     51.9344 300.2739696 +22.4748787     1249.531     72.51144      1.377     2.77     4.247393     20.44727     165.3535        17     1.059     0.950 -63.05   0
       425    649.4082     51.2661 300.4022754 +22.5979386      258.065     72.47453      1.000     3.44        4.933     20.44727     51.49466         5     0.732     0.467  74.20   0
       426    721.3094     47.1510 300.4260110 +22.6182780     586.6771     72.47453      1.578     5.40     4.876849     20.44727     65.71297        15     1.400     0.954  89.22   0
       427    464.3315     48.9740 300.3453883 +22.5418661     387.9679     72.45607      1.346     2.45      4.40156     20.44727     51.16984         5     0.777     0.485  29.98   0
       428    644.7377     46.9089 300.4022331 +22.5952881     520.1786     72.56678      1.454     3.43     4.937452     20.44727     62.09325        10     1.102     0.643  73.90   0
       429    741.3625     43.3786 300.4334830 +22.6231954     2202.598       72.493      1.290     2.22     4.822909     20.44727     301.1466        21     1.062     0.954  31.18   0
       430    446.8140     41.8497 300.3422456 +22.5345732     492.5094     72.51144      1.306     2.18     4.392498     20.44727      81.7896         8     0.818     0.620  -5.30   0
       431    124.7764     38.9585 300.2430230 +22.4372715     802.8425     72.51144      1.341     2.92     5.009302     20.44727     113.7651        16     1.106     0.849  49.08   0
       432    689.6879     36.1059 300.4197390 +22.6056380     842.2654     72.65891      1.262     3.21     4.930229     20.44727     128.4497        14     1.063     0.782 -85.30   0
       433    916.1749     36.6792 300.4901532 +22.6735796     766.9617     72.45607      1.341     2.69     4.363088     20.44727     95.45763        12     0.929     0.812 -55.80   0
       434    396.8109     34.0278 300.3292202 +22.5173508      388.179     72.47453      1.329     3.85     4.330431     20.44727     38.19088         6     0.931     0.456  51.02   0
       435    111.2345     33.7420 300.2405053 +22.4317159     298.6018       72.493      1.259     4.22     5.009302     20.44727     42.49729         6     0.934     0.611  61.69   0
       436    447.3068     28.6239 300.3466865 +22.5309207     324.0765     72.40066      1.554     4.12     4.398022     20.44727     30.49754         5     1.011     0.479  -4.76   0
       437    274.4214     25.7987 300.2938140 +22.4783278     405.3655     72.40066      1.350     2.47     4.154316     20.44727     42.50313         5     0.697     0.469 -72.58   0
       438    542.3416     20.8497 300.3787912 +22.5571432     901.2843     72.52989      1.223     2.40     5.019434     20.44727     158.9245        12     0.986     0.704 -80.87   0
       439    774.5955     19.3915 300.4516166 +22.6262446     357.3143     72.32671      1.202     2.90     4.433022     20.44727     49.26142         5     0.718     0.476 -77.10   0
       440    677.5037     18.8212 300.4215462 +22.5970221     253.8891     72.38217      1.248     2.51     4.963799     20.44727     54.37033         5     0.720     0.445  66.22   0
       441    276.4677     18.5902 300.2967870 +22.4768703     381.3273     72.47453      1.637     4.82     4.132274     20.44727     42.74506         9     1.141     0.682 -63.76   0
       442    151.5988     18.2131 300.2580846 +22.4393521     532.6849      72.3082      1.498     3.63     5.009302     20.44727     57.84029        11     1.133     0.767  59.99   0
       443    705.3582     15.5396 300.4312885 +22.6044158     744.4591     72.45607      1.296     2.57      4.94215     20.44727     86.41592        13     0.932     0.808  54.32   0
       444     82.1417   1017.6823 299.9118618 +22.7051636     972.0363     72.54834      7.334     9.20     50.94125     20.44727     40.12212        11     2.137     1.105  36.16  18
       445    101.9916   1015.5203 299.9187327 +22.7105051     1210.755     72.41914      3.453     3.42     40.01896     20.44727     50.37009         5     1.230     0.275  55.86   3
       446     96.6219   1011.6989 299.9183081 +22.7077979     2014.892     72.40066     10.992    15.37     40.20506     20.44727     49.07854        58     3.166     2.076  24.10  18
       447    603.1828   1009.8148 300.0764849 +22.8592958     6752.777     72.43761      1.646     3.26     3.014261     20.44727     506.5337        45     1.352     1.324  -4.80   0
       448     80.1396   1011.4900 299.9132552 +22.7027886      1358.83     72.56678      5.660     7.02     48.53813     20.44727      50.3591         9     1.772     0.780   5.23   3
       449    355.4230   1011.1993 299.9989255 +22.7853500     239.2778     72.40066      1.561     5.11      2.92355     20.44727     24.79759         5     1.028     0.718  13.31   0
