#   1 NUMBER                 Running object number                                     
#   2 X_IMAGE                Object position along x                                    [pixel]
#   3 Y_IMAGE                Object position along y                                    [pixel]
#   4 ALPHA_J2000            Right ascension of barycenter (J2000)                      [deg]
#   5 DELTA_J2000            Declination of barycenter (J2000)                          [deg]
#   6 FLUX_APER              Flux vector within fixed circular aperture(s)              [count]
#   7 FLUXERR_APER           RMS error vector for aperture flux(es)                     [count]
#   8 FLUX_RADIUS            Fraction-of-light radii                                    [pixel]
#   9 FWHM_IMAGE             FWHM assuming a gaussian core                              [pixel]
#  10 BACKGROUND             Background at centroid position                            [count]
#  11 THRESHOLD              Detection threshold above background                       [count]
#  12 FLUX_MAX               Peak flux above background                                 [count]
#  13 ISOAREA_IMAGE          Isophotal area above Analysis threshold                    [pixel**2]
#  14 A_IMAGE                Profile RMS along major axis                               [pixel]
#  15 B_IMAGE                Profile RMS along minor axis                               [pixel]
#  16 THETA_IMAGE            Position angle (CCW/x)                                     [deg]
#  17 FLAGS                  Extraction flags                                          
         1    567.7271     48.3801 300.3325808 +22.5432077     1081.635     72.86857      1.516     3.04     4.580023     20.55844     112.3447        15     1.047     0.895  70.30   0
         2    862.2419     20.2537 300.4334225 +22.6233103     2116.469     72.86857      1.438     2.55     5.005445     20.55844     272.2429        24     1.174     1.014 -75.60   0
         3    245.2895     15.4522 300.2429614 +22.4371427     1100.065     72.88712      1.710     4.05      5.08154     20.55844     126.7992        19     1.301     1.077  84.49   0
         4    810.5780     13.0143 300.4196691 +22.6057635     915.0713        72.85      1.412     2.45     5.042141     20.55844     115.9974        14     1.061     0.879 -15.71   0
         5    518.0490     11.2034 300.3291670 +22.5176459     324.2643     72.86857      1.197     3.03     4.628106     20.55844     43.88476         6     0.875     0.471  37.89   0
         6    568.4984      5.2170 300.3468076 +22.5310363     460.4083     72.51506      1.876     2.82      4.68137     20.55844     44.62297         5     0.731     0.461 -70.00  16
         7    395.4079      2.2474 300.2939147 +22.4783335     337.6171     61.71367      1.355     3.46     4.450697     20.55844     42.29702         5     0.744     0.464  73.87  24
         8    216.9100    988.3875 299.9182600 +22.7076854     1555.247     72.81286      4.493    12.83        46.03     20.55844     48.18073        38     2.653     1.744  24.80   0
         9    705.5239   1019.4963 300.0601220 +22.8632799     8637.455      73.0169      1.994     4.24     3.165891     20.55844     477.5717        51     1.577     1.487  34.88  19
        10    710.8927   1017.2176 300.0625353 +22.8642373     9250.544     72.79429      1.987     4.62     3.166682     20.55844     538.5904        53     1.558     1.527   4.45  19
        11    618.9084   1023.2318 300.0319410 +22.8383594       1381.3     59.16259      1.510     4.03     3.048912     20.55844     158.6211        18     1.338     0.824   0.47  24
        12    246.6788   1020.0753 299.9172007 +22.7257040     2764.787     72.12232      9.896    34.28     54.16746     20.55844     70.99976       184    10.018     3.256 -32.60  27
        13    238.7896   1008.7842 299.9184228 +22.7200999     2469.264     72.79429      6.474    22.69     52.21323     20.55844     68.13718       136     5.038     2.837  73.62  19
        14    272.6541   1019.3978 299.9254935 +22.7333109     5960.145     72.83144      8.253    22.42     41.59524     20.55844     109.2686       323     5.534     4.991  42.45  19
        15    145.9914   1019.2264 299.8861947 +22.6952184     3569.141     72.86857     11.376    34.12      51.7999     20.55844      79.7169       330     9.433     3.426   9.91  27
        16    147.2123    986.1745 299.8973270 +22.6861179     4090.315     72.86857     25.108    80.63     35.34305     20.55844     94.28378      2779    18.037    13.752 -40.37  27
        17    875.3593    980.3479 300.1257642 +22.9029993      402.907     72.88712      1.651     4.29     3.218799     20.55844      27.4325         5     1.255     0.418  53.09   0
        18    488.9856    958.7930 300.0124770 +22.7808914      488.311      72.7757      1.661     5.99     3.720244     20.55844     43.91957        13     1.169     0.871  -6.98   0
        19      3.0960    955.5455 299.8625388 +22.6340528     1534.561      65.8281      1.934     4.14     3.114506     20.55844     117.3689        27     1.488     1.124  71.44  24
        20    930.7482    955.4096 300.1511401 +22.9124548     304.6767     72.86857      1.819     5.55     3.451455     20.55844     33.95111         6     1.425     0.610  33.07   0
        21    602.6743    980.9568 300.0406430 +22.8213661     527.9614        72.85      2.134     6.04     3.068711     20.55844     35.17523        10     1.202     0.954 -13.83   0
        22    315.4710    981.0061 299.9512926 +22.7351679     509.6841     72.83144      1.412     3.67     15.14179     20.55844     54.61677         8     0.977     0.561 -49.86   0
        23    653.2522    947.7503 300.0671898 +22.8270205     356.9317     72.90568      1.654     4.86     3.148044     20.55844         40.2         7     0.981     0.681 -72.83   0
        24    500.8453    946.9760 300.0200106 +22.7810631     350.9651     72.88712      1.614     3.96     3.526912     20.55844     34.41116         5     0.861     0.522  30.63   0
        25   1002.9302    950.5624 300.1752195 +22.9327076     2132.293     72.83144      1.952     4.67      3.91651     20.55844     121.4721        33     1.521     1.308  47.58   0
        26    791.8030    939.4340 300.1130416 +22.8661997     869.2061     72.86857      2.074     5.78     3.297188     20.55844     53.92157        15     1.339     0.907  43.51   0
        27    198.1826    984.2747 299.9137793 +22.7008827     1167.443     72.86857      3.458     8.32     43.39798     20.55844     45.87688        18     2.158     0.897 -70.89   2
        28    604.1481    934.5807 300.0561884 +22.8085099      412.084        72.85      1.823     4.11     3.112363     20.55844     41.35085         7     0.916     0.638 -51.17   0
        29    826.3859    933.6287 300.1257037 +22.8749069     925.4267     72.88712      1.663     4.58     3.285848     20.55844     64.94878        16     1.112     0.982  14.42   0
        30    190.1361    930.6564 299.9287203 +22.6831047     830.9998     72.92422      8.418     8.06     9.777834     20.55844     38.05936        12     1.512     1.201  86.38   0
        31    894.2540    927.5992 300.1488128 +22.8935307       532.95     72.81286      1.974     5.81     3.395294     20.55844      32.3088         7     1.327     0.716 -22.33   0
        32     36.4254    930.5936 299.8810014 +22.6369193     637.8977     72.85001      2.029     6.10     3.554492     20.55844     37.73129        12     1.397     0.748  71.79   0
        33    848.8034    927.3188 300.1347409 +22.8798199      11358.5      72.7757      1.848     3.86     3.272048     20.55844     655.2446        61     1.536     1.459 -12.24   0
        34    160.1877    919.2329 299.9231318 +22.6708379      1092.54        72.85      6.811     5.94     5.306197     20.55844     57.58639        19     1.426     1.275 -64.93   0
        35    899.8351    915.2903 300.1545560 +22.8916722     336.8801     72.83144      1.445     3.94     3.432199     20.55844     30.02849         6     1.234     0.360 -60.16   0
        36    554.1057    915.4045 300.0468517 +22.7879947     407.6605      72.7757      1.632     3.67     3.116865     20.55844     52.04872         7     0.857     0.661 -53.81   0
        37    632.0529    977.3267 300.0509686 +22.8291412     1413.642     72.88712      1.815     4.46     3.107832     20.55844     94.97819        23     1.332     1.150 -68.73   0
        38    151.3312    910.0701 299.9233605 +22.6655530     802.0352     72.92422      3.628     5.56     5.056889     20.55844     38.26512        10     1.296     0.672 -54.21   0
        39    857.2881    909.3438 300.1432314 +22.8772068     1381.147     72.90568      1.717     3.81     3.317108     20.55844     104.4509        20     1.168     1.104 -57.51   0
        40    571.9152    907.4812 300.0549709 +22.7910667     260.3959     72.99837      1.487     4.68     3.168126     20.55844     31.71797         6     1.365     0.456  -9.15   0
        41    709.5625    906.2656 300.0982163 +22.8320154     476.6489        72.85      1.895     5.04     3.278074     20.55844     37.71675         7     1.201     0.598  20.42   0
        42    895.6494    902.6707 300.1573562 +22.8867956     843.3958     72.86857      1.918     6.31     3.427394     20.55844     55.70293        15     1.228     0.910  32.40   0
        43    723.6562    986.5981 300.0764728 +22.8592853     6571.151     72.79429      1.896     4.05     3.189139     20.55844     362.6811        49     1.493     1.475  44.84   0
        44    943.8490    893.6915 300.1752998 +22.8986711     515.1558     72.90568      1.726     5.83     3.563797     20.55844     49.84672        11     1.047     0.916 -89.24   0
        45    795.1859    893.3305 300.1290913 +22.8539873     681.3798     72.88712      1.547     3.79     3.328641     20.55844      59.8346        15     1.106     0.908  68.27   0
        46    806.6712    890.1647 300.1336989 +22.8565236     642.4528     72.86857      1.802     6.23     3.334235     20.55844     43.82656        13     1.420     0.768  49.83   0
        47    507.8701    889.4700 300.0409000 +22.7666834     4069.066     72.92422      1.687     3.43     3.382397     20.55844      304.915        33     1.260     1.253   5.49   0
        48    526.0533    973.8025 300.0191266 +22.7963199     1139.889     72.83144      1.767     3.66     3.310109     20.55844     98.11118        21     1.179     1.142  48.92   0
        49    169.7306    877.5568 299.9396494 +22.6617626     543.4716     72.83144      1.953     5.22     4.966674     20.55844     41.65598         8     1.189     0.647 -31.32   0
        50    150.6051    877.6518 299.9336772 +22.6560466     418.9086     72.85001      1.498     3.48     4.679849     20.55844     39.92803         5     0.770     0.454  72.96   0
        51    233.0747    874.7439 299.9602453 +22.6799767     829.9089     72.90568      1.732     4.30     5.747479     20.55844     81.98231        13     1.106     0.950  -8.45   0
        52    142.4566    873.6098 299.9324603 +22.6524415     555.2144     72.85001      1.859     3.66     4.577822     20.55844      43.6148         6     1.028     0.376 -70.02   0
        53    210.2215    872.2498 299.9539551 +22.6724002     1513.241     72.86857      1.741     3.71     5.380183     20.55844     130.2265        24     1.286     1.172 -20.85   0
        54     85.3638    862.0350 299.9184918 +22.6319796      319.753     72.94277      1.508     4.41     4.204587     20.55844     32.50406         6     0.850     0.652  56.25   0
        55    820.0113    853.6852 300.1497183 +22.8500568     634.4304     72.81286      2.020     7.57     3.393614     20.55844     39.05923        17     1.405     1.143 -25.64   0
        56    242.7021    853.9951 299.9699837 +22.6769209     471.2051      72.7757      1.834     4.08     4.544678     20.55844     46.30973         8     1.165     0.648 -61.71   0
        57    687.7957    847.6478 300.1105015 +22.8086706     4761.233        72.85      1.638     3.17     3.463246     20.55844     413.3167        38     1.334     1.268  77.93   0
        58    177.8140    848.1832 299.9517115 +22.6557730     361.6906     72.81286      1.369     5.94     4.537895     20.55844     39.64268        12     1.446     0.688 -86.54   0
        59    490.2184    844.7323 300.0499562 +22.7485580     564.9327     72.86857      1.373     4.12     3.516259     20.55844     60.06572        14     1.186     0.889 -24.64   0
        60    237.9056    841.4061 299.9725863 +22.6718729     1405.097     72.75712      1.770     3.48     4.502241     20.55844     102.7894        21     1.162     1.094  87.03   0
        61    708.3423    840.1017 300.1193531 +22.8126687     819.0925     72.96131      1.589     3.30     3.489605     20.55844     86.22864        15     1.141     0.954 -42.86   0
        62    257.5204    838.1526 299.9797398 +22.6768291     468.5052     72.88712      1.821     4.08     4.353052     20.55844     46.00939         6     0.927     0.764 -17.60   0
        63    863.8336    827.4026 300.1719187 +22.8556547     4145.023     72.83144      1.672     3.37     3.475393     20.55844     320.4249        33     1.285     1.239 -47.60   0
        64    272.2716    821.5215 299.9897314 +22.6764905     439.7127     72.97984      1.522     4.54     4.227456     20.55844     55.60619         9     1.186     0.608  28.99   0
        65    580.6704    819.7473 300.0862252 +22.7685317     492.4209     72.85001      1.375     3.72     3.582048     20.55844     58.82158        12     1.097     0.816  17.83   0
        66    227.1279    817.7183 299.9769383 +22.6618481     1052.013     72.99837      1.674     3.80      4.39471     20.55844      99.4537        19     1.179     1.086 -82.07   0
        67    642.1689    813.0513 300.1075448 +22.7850595     630.0135     72.90568      1.765     3.88     3.628379     20.55844     68.72398        13     1.070     0.953  40.36   0
        68    376.8678    809.8368 300.0260467 +22.7045360      52940.1        72.85      1.616     3.06     4.028438     20.55844     4879.921       104     1.481     1.445  51.49   0
        69    634.6422    809.0691 300.1064963 +22.7816593     1566.171     72.83144      1.550     3.22     3.646762     20.55844     159.7627        22     1.148     1.076   0.55   0
        70    350.7873    807.8495 300.0185834 +22.6961387     299.6949     72.92422      1.533     3.86     4.111285     20.55844     33.26738         5     0.750     0.682 -39.98   0
        71    305.1892    807.7744 300.0044322 +22.6824310      481.972     72.86857      1.337     3.78     4.141675     20.55844     56.35715         8     1.025     0.534 -52.72   0
        72    663.8649    804.9346 300.1169381 +22.7892387     820.4503     72.92422      1.413     3.38     3.665145     20.55844     87.09529        11     1.013     0.733  71.79   0
        73     63.0254    804.6915 299.9301977 +22.6088419     934.4664     72.81286      2.058     4.14     4.023232     20.55844     64.64165        18     1.223     1.080   3.78   0
        74     30.2404    804.7892 299.9199862 +22.5990241      823.897     72.86857      1.932     3.87     3.862613     20.55844     64.80557        14     1.070     0.988 -27.75   0
        75    674.4987    803.1705 300.1208224 +22.7919221     594.6548     72.79429      1.518     4.12     3.673296     20.55844     56.60191        11     1.085     0.793  27.81   0
        76    779.9806    799.7141 300.1547962 +22.8225648     524.1208     72.79429      1.438     3.88     3.530682     20.55844     47.73697         7     0.862     0.589 -26.58   0
        77    574.9882    797.3268 300.0917458 +22.7603960     273.1099     72.88712      1.270     4.65     3.712934     20.55844     36.09448         5     1.318     0.466  -2.47   0
        78    817.5378    789.9086 300.1696840 +22.8310126     751.9305     72.96131      1.572     3.42     3.528029     20.55844     85.04097        15     1.032     0.989  73.59   0
        79    426.5930    787.0775 300.0489090 +22.7129326     31385.68     72.79429      1.572     2.85     3.929568     20.55844     3335.253        78     1.396     1.368  52.15   0
        80    440.7485    787.6642 300.0531210 +22.7173485      1938.28     72.92422      1.601     3.45     3.886602     20.55844     180.2138        25     1.257     1.171 -85.87   0
        81    949.8276    783.0052 300.2131553 +22.8686913     2831.531        72.85      1.692     3.50     3.978799     20.55844     206.2923        30     1.304     1.203 -27.33   0
        82    437.3997    781.6292 300.0540412 +22.7146130     677.4474     72.83144      1.764     3.56      3.90583     20.55844     56.50885        11     1.038     0.793  33.70   0
        83    707.4332    779.1586 300.1388836 +22.7949104     993.5558     72.92422      1.616     4.05     3.714214     20.55844     89.04367        14     1.076     0.912  50.38   0
        84    543.8689    779.0107 300.0880156 +22.7458065     467.3952        72.85      1.536     3.73     3.830076     20.55844     59.56543         8     0.955     0.692 -63.30   0
        85    309.2170    778.8986 300.0150709 +22.6753619     809.8718      72.7757      1.581     3.71     4.137442     20.55844     85.77567        13     1.073     0.884 -62.81   0
        86    554.8126    773.9318 300.0930721 +22.7476327     749.0765     72.88712      1.415     2.87      3.86999     20.55844     107.2085        13     1.065     0.755 -26.10   0
        87    956.1147    771.0397 300.2190051 +22.8671407     435.0318        72.85      1.594     4.22      4.07797     20.55844     37.26738         7     0.836     0.700  29.79   0
        88    456.7805    770.2200 300.0637782 +22.7171565     233.3895     72.86857      1.042     2.75     3.880905     20.55844     41.66039         5     0.883     0.351  44.74   0
        89    412.6716    769.2067 300.0503883 +22.7036306     429.2255     72.83144      1.746     4.43     3.969958     20.55844     43.33675         7     1.013     0.777  54.19   0
        90    500.7095    768.7524 300.0779211 +22.7299159     469.5044     72.86857      1.608     5.60     3.856354     20.55844     53.08448        11     1.134     0.779  35.04   0
        91    142.2562    768.3129 299.9666295 +22.6222080     553.5214     72.94277      1.771     4.13     4.252378     20.55844     55.58641         9     1.227     0.681 -32.94   0
        92    933.0753    765.5633 300.2136033 +22.8586624     452.4626     72.81286      1.498     4.16     3.884555     20.55844     44.17417         8     1.004     0.594  41.11   0
        93    306.9817    762.7780 300.0196158 +22.6700693     648.0355     72.86857      1.781     4.60     4.126675     20.55844      51.4982        12     1.207     0.769 -82.62   0
        94    630.5287    753.5214 300.1232729 +22.7644895     541.2093     72.97984      1.827     5.72     4.023362     20.55844     47.98271        10     1.323     0.846  76.38   0
        95    599.8596    751.8113 300.1142820 +22.7547999     574.8323     72.83144      1.429     3.97     4.071054     20.55844     65.03728        10     0.966     0.765  20.73   0
        96   1016.1392    748.3538 300.2450940 +22.8786175     4419.395     72.88712      1.757     3.44     4.536217     20.55844     313.2364        41     1.403     1.355 -87.40  16
        97    621.5626    749.4316 300.1218111 +22.7606269     1260.375     72.86857      1.403     2.65     4.078207     20.55844     148.2895        17     1.044     0.926  60.40   0
        98    541.2065    748.8073 300.0970046 +22.7363441     444.7769     72.71993      1.632     4.69     4.023716     20.55844     39.56725         8     0.900     0.693  84.80   0
        99    703.1855    744.2416 300.1489107 +22.7836172     355.3932     72.88712      1.397     4.49      3.84219     20.55844     35.52609         6     0.911     0.629 -22.31   0
       100   1004.6640    739.9710 300.2442407 +22.8727714     1601.506     72.88712      1.734     3.86     4.433096     20.55844     119.6616        25     1.265     1.217  52.28   0
       101    367.6584    733.6135 300.0479589 +22.6799166     893.1628     72.85001      1.618     4.46     4.076668     20.55844     90.30106        17     1.289     0.984  41.74   0
       102    234.1769    734.3486 300.0062272 +22.6400670     314.2726     72.86857      1.152     3.23       4.1443     20.55844     41.40563         5     0.922     0.374 -85.00   0
       103    831.0521    731.0538 300.1930257 +22.8181718     2584.688     72.90568      1.671     3.40     3.777876     20.55844     222.8215        32     1.543     1.163  13.01   0
       104     53.5374    721.2321 299.9543766 +22.5820782     843.6053     72.88712      1.838     4.38     4.017923     20.55844     93.60269        19     1.322     1.113 -26.49   0
       105    215.9619    717.5464 300.0060272 +22.6297829     579.0286     72.86857      1.701     5.46     4.156818     20.55844     54.63345        11     1.155     1.027  73.10   0
       106    913.4386    716.9488 300.2232841 +22.8388194      508.461     72.86857      1.775     5.53     4.090173     20.55844      42.5895         9     1.243     0.822 -27.75   0
       107    949.3876    707.9418 300.2374170 +22.8470080     146100.6     72.83144      1.637     3.17     4.295315     20.55844     11970.96       177     1.580     1.547  76.32   0
       108    711.7903    711.8421 300.1621203 +22.7768998     320.4197     72.86857      1.357     4.01     3.937217     20.55844     46.47274         7     1.034     0.505 -19.88   0
       109    801.6692    708.2310 300.1912888 +22.8028117     711.7342        72.85      1.459     2.76     3.686135     20.55844     86.02706        12     0.901     0.857  53.76   0
       110    982.2621    700.9058 300.2499525 +22.8548400      630.503     72.96131      1.718     6.34     4.475933     20.55844     60.35039        12     1.114     1.013 -12.38   0
       111    635.7224    696.7359 300.1433448 +22.7497539     1496.224     72.96131      1.358     2.56     4.400676     20.55844     193.6482        18     0.967     0.957 -81.60   0
       112    816.8137    694.0899 300.2006025 +22.8032927     9501.776     72.81286      1.486     2.76     3.747474     20.55844     988.1176        49     1.338     1.250  84.21   0
       113    298.6343    695.5831 300.0388581 +22.6482982     294.2169     72.86857      1.367     3.47     4.096504     20.55844     39.92084         5     1.011     0.344 -69.25   0
       114    318.3270    689.1091 300.0470835 +22.6523514     4666.981     73.03542      1.534     2.87     4.099561     20.55844     455.5198        37     1.283     1.212 -88.96   0
       115    400.4373    687.2305 300.0732247 +22.6764503     1102.062     72.90568      1.430     2.79     4.136466     20.55844     122.6625        17     1.163     0.867  52.09   0
       116     31.9898    687.5289 299.9586372 +22.5659502     1687.358        72.85      1.845     3.93     3.898247     20.55844     161.8983        26     1.407     1.158  17.36   0
       117    276.0623    684.9156 300.0353081 +22.6384657      567.968     72.96131      1.559     2.31     4.095637     20.55844      74.8605         8     0.796     0.713 -81.44   0
       118    608.4348    682.8934 300.1393485 +22.7375984     772.2715     72.83144      1.575     4.12     4.580635     20.55844     96.31326        15     1.207     0.963 -22.79   0
       119    600.2681    674.9755 300.1393793 +22.7328772     3171.803        72.85      1.374     2.46     4.595021     20.55844     376.1185        25     1.114     1.002  47.44   0
       120    590.5741    668.5486 300.1384502 +22.7281258     1422.584     72.88712      1.444     2.71     4.569395     20.55844     174.8112        19     1.114     0.977  47.50   0
       121      8.1802    669.0366 299.9572531 +22.5535020     285.7229     72.88712      1.542     3.78      3.78389     20.55844     34.67311         6     0.909     0.465 -53.22   0
       122    519.1876    668.1725 300.1163568 +22.7066073      392.811     72.86857      1.614     2.73     4.291564     20.55844     37.93023         6     0.727     0.567  39.03   0
       123    984.0009    666.5235 300.2616676 +22.8454874     574.3583     72.75712      1.834     5.80     4.593609     20.55844      48.5397         8     1.015     0.934 -35.49   0
       124    253.9408    664.5149 300.0350609 +22.6259774     689.9316     72.97984      1.585     4.41      4.07138     20.55844     67.68945        11     1.210     0.658  59.02   0
       125    268.3355    663.1058 300.0399926 +22.6298932     648.9424     72.97984      1.516     3.28     4.055632     20.55844     68.79865        12     0.990     0.825  35.61   0
       126    515.2723    658.3773 300.1183211 +22.7026227     1900.199     72.90568      1.428     2.51     4.332499     20.55844     193.5158        25     1.254     1.007 -76.43   0
       127    293.9513    660.3837 300.0488391 +22.6367996     538.2073     72.90568      1.505     3.51     4.030178     20.55844      61.3503         8     0.850     0.690 -62.96   0
       128    324.8652    659.8422 300.0586252 +22.6459206     351.3013        72.85      2.007     4.82     4.036611     20.55844     30.22761         6     1.140     0.577  72.39   0
       129    614.4658    658.8635 300.1490337 +22.7325117     513.6444     72.92422      1.580     4.45      4.65789     20.55844     64.95037        10     1.108     0.715   6.48   0
       130    549.0656    657.7840 300.1290294 +22.7125882     226.4375        72.85      1.007     3.84     4.411761     20.55844     38.16019         6     0.975     0.434 -36.46   0
       131    169.2545    653.2897 300.0123929 +22.5973427     19803.46     72.90568      1.645     3.01     4.188725     20.55844     1866.625        63     1.406     1.380  63.12   0
       132     90.2070    655.1470 299.9872356 +22.5741474     789.5303     72.86857      1.749     3.46     4.080487     20.55844     83.54503        13     1.059     0.917  -9.50   0
       133    600.3829    653.6554 300.1463422 +22.7267939     950.4348     72.85001      1.478     2.98     4.641938     20.55844      116.855        16     1.061     0.941  63.84   0
       134    635.4696    652.9399 300.1574967 +22.7371103     322.5202     72.90568      1.158     2.14     4.607359     20.55844     51.94164         6     0.729     0.497  85.17   0
       135    655.0400    645.9276 300.1658677 +22.7409663     285.9176        72.85      1.476     3.74     4.571479     20.55844     31.41238         5     0.657     0.613  87.00   0
       136    683.5792    641.6866 300.1761315 +22.7483063     292.7659     72.79429      1.351     3.37     4.459018     20.55844     39.48784         5     0.743     0.442  68.44   0
       137   1018.3752    640.2896 300.2809097 +22.8482530     1065.692     72.81286      1.571     3.41     4.543684     20.55844     103.6366        15     1.069     0.928  -9.79  16
       138    115.2411    637.2737 300.0008171 +22.5765389     1604.079        72.85      1.922     4.82     4.107362     20.55844      117.201        30     1.691     1.125 -89.02   0
       139    884.9182    638.4003 300.2399193 +22.8077180     438.0243     72.73853      1.526     5.06     4.018536     20.55844     46.74874        15     1.308     0.891 -15.44   0
       140    181.2758    638.2210 300.0210230 +22.5966306     501.6057     72.86857      2.244     5.12     4.119763     20.55844      63.2025        10     1.338     0.848  37.43   0
       141    563.7147    634.4500 300.1411691 +22.7102864     488.4589        72.85      1.360     3.12     4.576525     20.55844     58.50383         9     0.886     0.727 -34.46   0
       142    957.7111    632.7303 300.2644511 +22.8279045     930.7828     73.03542      2.038     6.66     4.421534     20.55844     73.73907        15     1.676     0.761   6.07   0
       143    356.4707    633.6840 300.0769498 +22.6479015     331.1342     72.99837      1.632     3.97     3.930236     20.55844     29.69489         6     0.973     0.465  -1.20   0
       144    520.3578    626.5378 300.1302474 +22.6950130     655.2844     72.85001      1.283     2.97     4.495761     20.55844     91.93439        14     1.000     0.924  72.44   0
       145    668.4344    625.1409 300.1767912 +22.7390166      452.594     72.88712      1.382     3.72     4.608691     20.55844     65.01048         9     0.986     0.758  42.99   0
       146    715.5961    623.6782 300.1919521 +22.7527366     369.9203      72.7757      1.190     2.47     4.296478     20.55844     74.98479        10     0.887     0.743  45.44   0
       147    685.9505    623.3090 300.1828403 +22.7437426     638.7133     72.86857      1.310     2.82     4.514243     20.55844     70.52753         9     0.840     0.689  78.27   0
       148    564.4686    622.3040 300.1453495 +22.7070272     979.9241     72.99837      1.537     2.84     4.626106     20.55844     93.26668        14     1.012     0.828  65.53   0
       149    998.3563    617.8536 300.2819566 +22.8358107     3166.439     72.90568      1.554     3.12     4.403001     20.55844     283.7626        35     1.309     1.217 -87.46   0
       150    530.1564    617.8281 300.1361258 +22.6954527     1747.505     72.88712      1.396     2.72     4.567766     20.55844     204.4431        20     1.063     0.969  31.61   0
       151    895.1820    615.1952 300.2506569 +22.8041306      313.157     72.83144      1.456     3.72     4.061852     20.55844     30.11435         5     1.176     0.337 -10.65   0
       152     92.0709    611.4727 300.0020016 +22.5621878     5100.577     72.94277      1.703     3.18     4.037413     20.55844      510.115        39     1.355     1.292  61.53   0
       153    350.6013    609.3929 300.0830155 +22.6391734     196.8413     72.68272      1.499     3.89     3.781358     20.55844     22.30126         5     1.044     0.416 -15.51   0
       154    559.2194    608.6693 300.1481450 +22.7015405     281.8893     72.86857      1.368     3.45     4.673947     20.55844     40.31227         5     0.768     0.447 -13.62   0
       155    393.5367    604.6561 300.0979051 +22.6506951     8937.271     72.92422      1.445     2.55     4.233209     20.55844     1090.638        43     1.212     1.191 -30.96   0
       156    515.9821    601.6512 300.1369701 +22.6865600     8791.325     72.86857      1.415     2.56     4.573066     20.55844     1107.903        41     1.231     1.121  86.34   0
       157    927.6971    595.5974 300.2671579 +22.8082463     1973.312      72.7757      1.576     2.94     4.255688     20.55844     195.6687        27     1.263     1.072 -84.68   0
       158   1012.3195    592.9872 300.2943885 +22.8328516     12324.44        72.85      1.592     3.03     4.241006     20.55844      1085.33        54     1.388     1.316 -55.45   0
       159    576.5712    591.2707 300.1591968 +22.7017510     11402.34     72.86857      1.386     2.43     4.695083     20.55844      1265.18        45     1.188     1.164 -68.14   0
       160    303.9974    586.7841 300.0758700 +22.6187067     1416.659     72.73853      1.477     2.67     3.850765     20.55844     164.1973        21     1.146     1.007 -20.41   0
       161    746.0325    587.0928 300.2133157 +22.7513584     528.5276     72.79428      1.360     3.70     4.189394     20.55844     54.91704         9     0.793     0.787 -57.36   0
       162      5.0419    583.7419 299.9839844 +22.5281145     2610.139      72.2909      1.835     3.46     3.746836     20.55844     264.4098        35     1.523     1.282  29.28  16
       163    550.7304    584.3895 300.1533897 +22.6920274     412.3983     72.85001      1.601     4.21     4.664553     20.55844     48.96605         7     1.121     0.569 -53.50   0
       164    938.2495    584.2267 300.2741408 +22.8081426     175.5211     72.88712      1.317     4.42     4.174273     20.55844     34.36655         5     0.819     0.679 -60.58   0
       165    508.2143    579.4087 300.1417777 +22.6778481     4361.628      72.7757      1.424     2.45     4.550412     20.55844     490.5059        32     1.155     1.105  72.30   0
       166    851.1761    579.5439 300.2485239 +22.7807050      814.145     72.88712      1.571     3.03     3.784236     20.55844     86.47999        14     0.956     0.925  -7.71   0
       167    486.5864    577.8683 300.1355489 +22.6709199     1159.741     72.88712      1.317     2.64     4.489671     20.55844     164.6954        16     1.026     0.896  37.28   0
       168    240.8075    577.1164 300.0593691 +22.5969746     811.7653     72.79429      1.500     3.07     3.902184     20.55844     73.34241        11     0.973     0.775 -31.99   0
       169    927.9975    575.0421 300.2739284 +22.8024328     1637.586     72.88712      1.555     3.21     4.102408     20.55844     144.6147        23     1.247     1.015 -26.77   0
       170    624.8310    566.9574 300.1821154 +22.7092434     198604.1     72.90568      1.401     2.46     4.676503     20.55844     26069.04       203     1.501     1.455 -87.83   0
       171    174.4034    574.8583 300.0394685 +22.5764009     299.7837     72.83144      1.465     5.15     3.994139     20.55844     37.52835         9     1.112     0.675  47.66   0
       172    448.3138    573.2435 300.1251448 +22.6581142     323.0299     72.85001      1.247     3.41     4.450741     20.55844     37.49734         6     0.718     0.643 -10.67   0
       173    808.4893    571.8321 300.2377283 +22.7656973     902.1238     72.83144      1.473     3.11     3.824111     20.55844     95.63916        14     1.118     0.772 -14.14   0
       174    310.8492    567.0018 300.0844248 +22.6150884     3317.436        72.85      1.448     2.83     3.937611     20.55844     381.6291        30     1.213     1.093  64.26   0
       175    876.9963    562.9536 300.2619587 +22.7836784     516.0012        72.85      1.545     3.69     3.824083     20.55844     60.15824         9     1.083     0.718 -12.11   0
       176    515.3928    547.6105 300.1543383 +22.6708762     2765.267     72.73853      1.546     2.66     4.571372     20.55844     287.9047        32     1.666     0.997 -83.02   0
       177    359.7748    549.5620 300.1052998 +22.6247629     409.8115     72.88712      1.242     3.23     4.356993     20.55844     56.84682        10     0.935     0.738 -53.27   0
       178    965.0602    547.2910 300.2944956 +22.8055665     182.0596     72.96131      1.378     4.58     3.899923     20.55844     44.15418         6     1.000     0.596  40.36   0
       179    832.9176    536.0107 300.2569733 +22.7627319     423.4171     72.83144      1.402     4.54     3.876269     20.55844     55.49052        10     1.181     0.677  67.43   0
       180    912.5389    533.5879 300.2825734 +22.7858945     1809.062     72.83144      1.475     2.84     3.857944     20.55844     183.7894        20     1.154     0.950 -10.68   0
       181    799.3528    532.8060 300.2475565 +22.7517528     364.4854        72.85      1.803     4.58     3.987754     20.55844     34.60956         6     0.968     0.615 -28.93   0
       182     42.6585    532.2268 300.0123923 +22.5246388     880.5401     72.86857      1.909     3.63     3.875997     20.55844     81.65938        16     1.132     0.993   6.93   0
       183    783.6415    531.1597 300.2431965 +22.7465715     2589.768     72.96131      1.405     2.54      4.08069     20.55844     303.8791        22     1.071     0.992  79.06   0
       184    688.4380    527.8339 300.2146249 +22.7170814     526.6095     72.90568      1.578     3.83     4.392806     20.55844     49.99717         8     0.963     0.652  55.46   0
       185    570.9413    526.7233 300.1784075 +22.6815379     746.6364     72.92422      1.379     2.88     4.741029     20.55844     103.2926        12     0.955     0.823  71.24   0
       186    912.6472    523.4592 300.2858964 +22.7830177     2185.689     72.92422      1.773     3.84     3.857266     20.55844     220.5041        30     1.598     1.023  79.07   0
       187    666.0923    521.7278 300.2096498 +22.7086299     737.4715      73.0169      1.906     3.62      4.43735     20.55844     62.88443         9     0.990     0.752  41.67   0
       188    950.9183    518.6927 300.2993742 +22.7931147     4225.085      73.0169      1.459     2.72     3.876985     20.55844     490.5284        30     1.189     1.102  75.55   0
       189    504.5417    519.8491 300.1599770 +22.6596554     450.0569     72.92422      1.449     4.04     4.604842     20.55844     65.24925        10     1.223     0.686  62.09   0
       190    452.2267    521.3394 300.1432176 +22.6443949     261.0988     72.86857      1.212     1.98     4.456229     20.55844     52.45973         5     0.755     0.645  40.56   0
       191    611.2739    514.1955 300.1950294 +22.6900341     231.6486     72.79429      1.326     3.22     4.738373     20.55844     57.04645         7     0.937     0.733 -18.22   0
       192    183.0801    509.2534 300.0634675 +22.5601915     940.6671     72.90568      1.432     3.24     4.024969     20.55844     109.1263        17     1.143     0.982  -6.11   0
       193    981.8671    506.7476 300.3129019 +22.7989547     365.0428     72.88712      1.428     3.26      3.88199     20.55844      47.2698         5     0.714     0.691  11.63   0
       194    175.1342    499.3119 300.0642264 +22.5549562      387.018     72.97984      1.515     5.46     4.049542     20.55844     47.76619        10     1.214     0.717 -44.31   0
       195    783.0956    492.8340 300.2554714 +22.7354022     384.4285     72.86857      1.309     3.61     4.209428     20.55844     51.15997         8     0.965     0.590  68.99   0
       196    671.7020    490.8196 300.2214324 +22.7014380     300.2187     72.79429      1.387     4.67     4.364257     20.55844     51.78878         5     1.308     0.473  48.36   0
       197    724.3127    489.0273 300.2383976 +22.7166922      696.674     72.86857      1.177     2.37     4.346702     20.55844     95.77267        11     0.836     0.769  55.61   0
       198    785.0535    481.0902 300.2598944 +22.7326164     822.2908     72.90568      1.481     4.50     4.244127     20.55844     95.22869        19     1.392     0.950  72.90   0
       199    942.2753    477.6512 300.3100062 +22.7787353     1083.131     72.88712      1.574     2.92     3.858432     20.55844     110.8192        13     0.935     0.849  52.13   0
       200    926.2639    474.0592 300.3061812 +22.7729068     722.6407     72.90568      1.594     4.07     3.849557     20.55844     69.28316        13     1.110     0.791  83.85   0
       201    900.3868    475.1947 300.2977467 +22.7654806     231.4076     72.73853      1.290     3.49     3.850289     20.55844     32.67521         5     0.774     0.454  73.69   0
       202    906.8010    474.4032 300.3000029 +22.7671749     224.7809      72.6455      1.261     3.46     3.849557     20.55844     33.10225         5     0.762     0.455 -17.43   0
       203    670.8608    471.8544 300.2273279 +22.6957407     3240.305     72.92422      1.355     2.41     4.344487     20.55844     457.0507        28     1.132     1.036  61.67   0
       204    146.8311    463.5399 300.0670463 +22.5362050     434.8802     72.90568      1.579     4.16     4.112085     20.55844      45.2026         8     1.036     0.655 -40.27   0
       205    510.9819    458.8732 300.1817779 +22.6440862     285.6182     72.86857      1.214     1.86     4.573136     20.55844     60.22469         5     0.604     0.533 -88.37   0
       206    953.9084    450.7552 300.3223648 +22.7744930     499.8155        72.85      1.517     3.57     3.840162     20.55844     54.63855         9     0.979     0.632  58.19   0
       207    781.4417    445.9071 300.2701914 +22.7214298     1172.019     72.88712      1.362     2.58     4.144019     20.55844     143.8653        15     0.955     0.878 -55.36   0
       208    577.4216    446.3342 300.2065243 +22.6604053     373.8981     72.85001      1.125     3.19     4.531497     20.55844     59.12495         8     0.919     0.616 -19.68   0
       209    285.4144    443.9532 300.1164694 +22.5721607     648.5206     72.88712      1.385     2.79     4.243773     20.55844     76.86242        10     0.907     0.714   2.94   0
       210    125.2527    441.9339 300.0673563 +22.5235342     220.4051     72.90568      1.152     4.02     4.213088     20.55844     41.68012         6     0.905     0.607  30.43   0
       211    347.8133    439.7440 300.1372349 +22.5896681     3668.896     72.86857      1.407     2.50     4.436009     20.55844     487.0913        29     1.231     1.028  78.21   0
       212    295.0467    434.5223 300.1225248 +22.5723441     7458.352     72.86857      1.430     2.54     4.307777     20.55844     918.8669        40     1.254     1.136  51.40   0
       213    435.8503    428.7987 300.1681665 +22.6129274     4871.203        72.85      1.359     2.48     4.291682     20.55844      667.949        30     1.156     1.033  80.20   0
       214    680.0433    425.4417 300.2452538 +22.6851661     18258.96     72.97984      1.347     2.36     4.281345     20.55844     2537.945        60     1.292     1.147  82.52   0
       215    697.7325    425.4191 300.2507695 +22.6904610     862.8765        72.85      1.941     6.74     4.301296     20.55844     67.74413        17     1.699     0.863 -47.79   0
       216    527.4125    427.3188 300.1971333 +22.6399548     312.4364     72.85001      1.238     3.79     4.347342     20.55844     34.54265         6     0.834     0.552 -45.76   0
       217    876.7449    415.8757 300.3096350 +22.7413573      406.259     72.90568      1.374     3.73     3.807148     20.55844     60.76935         9     1.066     0.643 -48.79   0
       218    299.4021    412.7444 300.1309471 +22.5674020     444.3672     72.81286      1.416     4.92     4.413973     20.55844     43.03671         8     1.138     0.603  13.53   0
       219   1013.4617    407.9901 300.3548154 +22.7800419     961.0434     72.79429      1.797     3.36     3.819323     20.55844     77.96788        16     1.055     0.980   8.63   0
       220    234.6314    405.5619 300.1131458 +22.5459144     2016.387     72.86857      1.507     2.67     4.488493     20.55844     264.5015        25     1.177     1.067  15.46   0
       221    620.6787    394.9326 300.2366732 +22.6586137     6522.684     72.97984      1.357     2.25     4.305459     20.55844     881.8854        37     1.243     1.061 -89.96   0
       222    335.4489    394.4372 300.1480953 +22.5729595     705.0728     72.88712      1.408     2.73     4.406794     20.55844      86.5569        11     0.921     0.762 -68.32   0
       223    193.0637    387.4178 300.1061167 +22.5282406     499.4156        72.85      1.462     4.50      4.43907     20.55844     50.90825        10     1.135     0.682 -64.17   0
       224    880.6028    386.7279 300.3202978 +22.7341390      317.772     72.81286      1.334     3.95     3.788937     20.55844     44.94082         6     0.883     0.507 -43.56   0
       225    734.3152    385.1064 300.2752468 +22.6898461     475.4495     73.05393      1.308     2.93      4.32384     20.55844     63.29527        12     0.980     0.779 -72.81   0
       226     40.4540    385.0141 300.0594928 +22.4817670     1291.763     72.86857      1.594     2.99     4.694045     20.55844     136.4778        19     1.198     0.938  53.80   0
       227      9.3487    383.0090 300.0504853 +22.4718585     1406.983     72.86857      1.961     5.70     4.791903     20.55844      91.7558        26     1.708     1.090 -48.96  16
       228    824.8310    383.9991 300.3038038 +22.7166477     910.3735     72.83144      1.141     2.63     3.814729     20.55844     149.0831        19     1.093     0.958 -68.06   0
       229    527.3215    381.1620 300.2120854 +22.6266772     6280.538        72.85      1.355     2.35     4.339296     20.55844     745.1904        39     1.204     1.108  64.37   0
       230    919.2916    375.6537 300.3359506 +22.7425459     1511.806     72.92422      1.555     2.65     3.802451     20.55844     147.1794        22     1.242     0.952  73.02   0
       231   1016.6710    375.7565 300.3662780 +22.7717396     693.5884     72.83144      1.594     3.60     3.832473     20.55844     67.95805        13     1.054     0.877  64.12   0
       232    512.1315    370.0555 300.2109630 +22.6189353     448.8618     72.90568      1.231     2.15     4.364642     20.55844     79.75448         6     0.733     0.522  55.36   0
       233    594.9113    367.6251 300.2375141 +22.6430498     390.0525     72.81286      1.198     2.85     4.370553     20.55844     60.54623         8     0.819     0.663 -81.76   0
       234     39.0516    366.5727 300.0650413 +22.4760575     990.6931     72.88712      1.590     3.40     4.837321     20.55844     102.2479        19     1.255     1.017  87.78   0
       235    873.2117    366.5736 300.3245352 +22.7261346     226.7587     72.86857      1.614     3.65     3.771094     20.55844     35.48953         5     0.970     0.395  83.35   0
       236    575.5743    365.7071 300.2321177 +22.6367035      294.289     72.81286      1.108     2.49     4.374558     20.55844     50.19905         5     0.680     0.480  75.70   0
       237    892.3273    363.1327 300.3316094 +22.7308717     613.7303     72.90568      1.394     3.20     3.781616     20.55844     66.46523         9     0.919     0.667 -34.50   0
       238    414.8651    360.2733 300.1838782 +22.5869677     2485.004     72.90568      1.373     2.58     4.215204     20.55844     313.1288        29     1.185     1.093  65.63   0
       239    133.3246    357.8382 300.0971549 +22.5018352     1018.074     72.83144      1.491     3.00     4.602094     20.55844     113.3175        17     1.045     0.987  42.47   0
       240    361.8085    353.4239 300.1696005 +22.5690939     292.2985     72.86857      1.500     4.45      4.24747     20.55844     34.39108         6     0.978     0.576  64.80   0
       241    384.2241    349.8033 300.1777459 +22.5747757     29138.75     72.83144      1.395     2.47     4.238121     20.55844     3683.023        70     1.320     1.206  74.25   0
       242    918.8235    347.4313 300.3449634 +22.7342961     1360.552        72.85      1.304     2.42     3.801372     20.55844     174.1282        19     1.084     0.888 -85.71   0
       243    874.0079    345.5003 300.3316217 +22.7203183     319.6278      72.7757      1.337     2.57     3.762025     20.55844     42.69215         6     0.759     0.496   6.52   0
       244     80.5664    337.6950 300.0873031 +22.4802304     4912.602        72.85      1.577     2.82     4.757721     20.55844     558.9174        37     1.319     1.192  50.87   0
       245    958.1112    336.2689 300.3608330 +22.7428546     385.5282     73.03542      1.742     5.22     3.822496     20.55844     42.69319         7     1.296     0.594 -41.73   0
       246    258.3880    336.3654 300.1429832 +22.5331859     425.9827     72.85001      1.139     3.14     4.548572     20.55844     53.47401        10     0.984     0.714 -37.46   0
       247    833.9481    336.3082 300.3221208 +22.7056778      425.091     72.92422      1.227     3.46     3.754091     20.55844     52.78204         8     0.796     0.690  27.20   0
       248    482.6308    335.3239 300.2130539 +22.6001212     438.8345     72.86857      1.265     2.47     4.358842     20.55844     77.12771         8     0.903     0.582 -45.88   0
       249    794.6548    329.5838 300.3120600 +22.6919753     1939.732     72.83144      1.411     2.29     3.805923     20.55844     232.0486        25     1.219     1.044  25.94   0
       250    700.2413    330.3352 300.2824081 +22.6639051      273.642     72.83144      1.184     2.68     4.306959     20.55844     39.70537         5     0.725     0.446  15.61   0
       251    603.0953    324.1641 300.2541638 +22.6330226     304.9268     72.86857      1.097     2.29      4.32841     20.55844     61.57838         6     0.719     0.546  59.88   0
       252   1009.6232    322.4827 300.3813678 +22.7543177     637.2844     72.83144      1.525     4.01     3.835697     20.55844     66.43303        11     1.237     0.739  25.49   0
       253      2.8357    323.1483 300.0678852 +22.4527376     354.3596     64.64639      1.391     3.85     5.100649     20.55844     39.14592         6     0.769     0.552 -30.18  16
       254    456.4930    314.2432 300.2117618 +22.5862341     2106.319     72.88712      1.483     2.94     4.278942     20.55844     228.3332        24     1.259     0.978  67.29   0
       255    769.3056    312.9966 300.3095448 +22.6796161     2433.911      72.7757      0.596     0.74     4.030525     20.55844     1495.783        10     0.639     0.369 -13.11   0
       256    668.6085    313.2319 300.2781070 +22.6495144     290.9184     72.86857      1.250     2.51     4.306512     20.55844      47.8592         5     0.685     0.478 -78.56   0
       257    895.6533    306.9254 300.3508842 +22.7157170      607.604     72.88712      1.329     3.47     3.788654     20.55844     72.10442         9     0.944     0.689  89.75   0
       258     28.6489    304.8779 300.0818269 +22.4552421     755.0012     72.86857      2.135     7.13     4.991236     20.55844     61.15565        15     1.999     0.934 -49.23   0
       259    795.1899    305.3985 300.3200737 +22.6851872     219.2409     72.68272      1.233     2.11     3.805923     20.55844     49.43748         5     0.709     0.429  24.70   0
       260    777.9345    304.6740 300.3149330 +22.6798101     509.8171     72.90568      1.439     4.10     3.952778     20.55844     52.80136         8     0.855     0.706  60.57   0
       261    745.6509    303.8419 300.3051466 +22.6698998     377.3561     72.86857      1.306     3.23     4.229212     20.55844     45.14903         5     0.750     0.437  71.78   0
       262    532.0057    293.1432 300.2421020 +22.6028096     1587.652     72.83144      1.456     5.83     4.249085     20.55844     384.5396        16     1.206     0.792  48.92   0
       263    104.3771    294.1155 300.1088362 +22.4748721     238.4316     72.83144      1.136     2.56     4.754347     20.55844     45.13556         5     0.730     0.435  68.57   0
       264    385.2846    291.9643 300.1968406 +22.5584919      389.774        72.85      2.440     4.18     4.360338     20.55844     34.68128         5     1.012     0.551 -15.57   0
       265    777.1534    285.4177 300.3209368 +22.6740438     2205.165     72.90568      1.349     2.32     3.984624     20.55844     315.2831        19     1.021     0.932  70.06   0
       266     10.2811    270.7990 300.0871778 +22.4399569     72098.15     72.75712      1.688     2.98     5.030616     20.55844     7841.697       125     1.656     1.472  54.22  16
       267    409.5799    271.0053 300.2111954 +22.5597583     290.1611        72.85      1.194     3.94     4.298066     20.55844     30.93499         5     0.907     0.491  86.11   0
       268    485.4540    269.2885 300.2353551 +22.5820080     596.3316     72.90568      1.205     2.68     4.274201     20.55844     81.83025        12     0.909     0.811   0.02   0
       269    160.3121    263.4722 300.1361519 +22.4828571     1407.528     73.03542      1.779     3.59      4.68977     20.55844     115.6339        20     1.233     1.021 -35.31   0
       270    190.7757    263.7216 300.1455364 +22.4920646     611.9901        72.85      1.470     2.79      4.70976     20.55844     84.41608        11     0.986     0.719 -39.38   0
       271    908.7650    260.3756 300.3700722 +22.7062659     226.3658     72.88712      1.092     3.50     4.034782     20.55844     32.81183         5     0.767     0.461 -13.95   0
       272    898.1793    257.5724 300.3676820 +22.7022903     365.7331        72.85      1.623     3.65     4.046985     20.55844     38.17915         6     0.727     0.646  50.02   0
       273    244.3148    256.0087 300.1646762 +22.5059060     576.5101     72.81286      1.523     3.17     4.705787     20.55844     71.24661        11     0.993     0.755  32.95   0
       274    920.5858    248.8809 300.3774854 +22.7065019     323.0555        72.85      1.183     2.87     4.121438     20.55844     64.17789         7     0.919     0.483 -82.93   0
       275    848.7751    246.7081 300.3558089 +22.6843729     734.0447     72.81286      1.472     3.33     4.136137     20.55844     89.41064        11     1.017     0.753 -77.54   0
       276    439.3353    246.6553 300.2283487 +22.5616866     462.7632     72.92422      1.514     2.63     4.314358     20.55844     67.65126         7     0.823     0.609  69.98   0
       277    947.0330    235.9784 300.3899150 +22.7107124     2105.253     72.86856      1.451     2.74      4.21242     20.55844     255.3096        28     1.182     1.129 -88.72   0
       278    365.4878    233.2160 300.2097395 +22.5356925      2079.98     72.81286      1.365     2.49     4.358944     20.55844     255.7248        21     1.041     0.984  69.98   0
       279    443.4308    228.3920 300.2355459 +22.5576702     1026.186     72.86857      1.537     3.02     4.343184     20.55844     108.7672        15     1.033     0.881 -34.17   0
       280    845.1470    227.7258 300.3608350 +22.6778312      580.777     72.88712      1.267     2.89     4.308687     20.55844      82.7391        10     0.890     0.755  38.72   0
       281    195.5365    228.2434 300.1585221 +22.4833113     202.1591     72.86857      1.164     3.38      4.80332     20.55844      37.5554         5     0.750     0.440 -67.33   0
       282    952.4377    224.4731 300.3953315 +22.7090234     317.2905     72.81287      1.160     3.58     4.290551     20.55844     41.21269         7     0.853     0.654   8.88   0
       283    259.9201    220.7277 300.1809687 +22.5004592     739.6848     72.99837      1.483     3.36     4.750299     20.55844     80.74642        15     1.052     0.926  38.47   0
       284     41.9295    221.3801 300.1130320 +22.4352744     515.7324     72.88712      2.196     5.48     4.957534     20.55844     38.91344         8     1.130     0.749 -80.18   0
       285    378.3993    220.4317 300.2179007 +22.5358926     304.7754     72.83144      1.623     3.43     4.347769     20.55844     33.36233         5     1.035     0.329 -68.32   0
       286    798.0358    217.2873 300.3495413 +22.6607224     1638.979        72.85      1.364     2.31     4.340709     20.55844     240.4947        20     1.106     0.941  77.71   0
       287    862.9518    217.1226 300.3698225 +22.6801159     778.7139     72.86857      1.617     2.76     4.349087     20.55844     79.67863        11     0.970     0.701  -0.93   0
       288    281.7853    213.4191 300.1901354 +22.5049169     553.0793        72.85      1.364     3.56     4.653133     20.55844     71.63809         7     1.071     0.612  82.48   0
       289    801.9918    208.8901 300.3534971 +22.6594942     725.4637      72.7757      1.398     3.05     4.349175     20.55844     93.47849        12     1.016     0.753  82.38   0
       290    722.5555    208.1597 300.3289890 +22.6354922     1284.672     72.94277      1.350     2.35     4.336832     20.55844     153.7275        20     1.179     0.872  66.57   0
       291    571.4694    209.6271 300.2814722 +22.5906510      303.736     72.86857      1.396     4.14     4.222417     20.55844     55.84478         5     1.096     0.446 -32.66   0
       292    543.6981    204.5159 300.2744864 +22.5808617     358.6474     73.03542      1.023     2.01     4.306313     20.55844     60.58315         5     0.660     0.463 -23.48   0
       293    930.1039    199.1375 300.3965857 +22.6950538     853.8241     72.96131      1.510     2.85      4.31205     20.55844     87.23312        11     0.913     0.779 -29.98   0
       294    917.9674    199.4818 300.3926907 +22.6915189     1538.794        72.85      1.454     2.94     4.323486     20.55844     164.9386        18     1.117     0.922 -63.28   0
       295    648.9095    199.6602 300.3088116 +22.6109892     985.5748     72.96131      1.489     3.51     4.244358     20.55844     103.5983        15     1.116     0.865  61.65   0
       296    976.4729    197.5131 300.4115687 +22.7084691     278.4854      73.0169      1.323     4.19     4.289196     20.55844     34.37078         6     1.083     0.463 -11.06   0
       297     20.7171    187.2979 300.1174965 +22.4191342     63.91776     73.03542      1.134     3.13     4.968624     20.55844      41.0886         5     0.828     0.612 -55.38   0
       298     70.1416    185.8840 300.1333031 +22.4335521     506.6256     72.97984      1.642     5.67     4.952523     20.55844      42.2389        10     1.195     0.757  33.79   0
       299    280.9172    182.1545 300.2000034 +22.4956822     823.9985     72.83144      1.359     2.74     4.610885     20.55844     94.03522        13     0.950     0.836  60.81   0
       300    142.7657    176.8199 300.1588005 +22.4527301     2209.053     72.88712      1.522     2.80     4.890389     20.55844     255.7442        27     1.229     1.136  72.24   0
       301    965.7894    173.9740 300.4158709 +22.6985035     798.8974     72.86857      1.481     2.83     4.300934     20.55844     93.47816        14     1.060     0.785  88.54   0
       302     92.2389    173.7128 300.1441125 +22.4366867     409.6323        72.85      1.415     2.77      4.95458     20.55844     64.77029         9     0.891     0.666  64.64   0
       303    300.1679    170.0720 300.2099054 +22.4979845     5548.858     72.86857      1.417     2.66      4.50219     20.55844      611.757        36     1.285     1.051  67.62   0
       304     84.3905    164.4714 300.1446709 +22.4316813     1240.112     72.85001      1.517     3.01     4.962572     20.55844     123.3394        17     1.103     0.909 -59.28   0
       305    283.4422    160.9924 300.2076496 +22.4903642     543.8545     72.88712      1.253     2.51     4.563416     20.55844     83.04025         9     0.778     0.762 -23.64   0
       306    944.2249    151.5557 300.4164168 +22.6856027     3722.544     72.88712      1.540     2.69     4.345323     20.55844     460.6486        33     1.244     1.177 -68.33   0
       307    493.4752    146.7844 300.2775772 +22.5492318     699.3516     72.86857      1.449     2.52     4.388978     20.55844      90.3143        11     0.928     0.732  48.67   0
       308    607.9780    144.5450 300.3139393 +22.5828936     455.3464     72.88712      1.759     4.28     4.146707     20.55844     51.32191         9     1.129     0.781 -89.22   0
       309    952.4711    136.8148 300.4237669 +22.6838332     90.78267     72.86857      1.116     2.48     4.364351     20.55844     38.35782         5     0.711     0.475 -73.08   0
       310    421.8607    137.3605 300.2583531 +22.5250657     342.6195     72.86857      1.255     2.09     4.343327     20.55844     58.05413         5     0.697     0.446 -19.30   1
       311    545.0530    134.0360 300.2977602 +22.5610235     1818.688     72.88712      1.415     2.68     4.514576     20.55844     215.6777        21     1.207     0.882  68.96   0
       312    184.0742    135.6958 300.1849674 +22.4533132     588.7039      73.0169      1.342     3.53     4.852741     20.55844      74.6352        12     1.022     0.836 -77.01   0
       313    473.0222    134.2545 300.2752757 +22.5395046     606.8072     72.88712      1.607     3.32     4.381097     20.55844     64.64407        10     0.966     0.809  29.84   0
       314    417.7810    138.8024 300.2566167 +22.5242572     703.0565     72.79429      1.639     3.22     4.341248     20.55844     83.44469        12     1.038     0.777 -73.28   0
       315    368.6143    130.1019 300.2441458 +22.5070242     145.4611     72.75712      1.134     4.02     4.345256     20.55844     37.02175         5     1.011     0.457  28.37   0
       316    288.5251    129.3351 300.2194927 +22.4827995     532.5323     72.92422      1.678     4.00     4.515788     20.55844     51.41482         8     0.924     0.767 -87.80   0
       317    681.1463    119.8738 300.3447185 +22.5977216     282.0384     72.88712      1.476     3.88     4.374137     20.55844     39.07962         6     0.785     0.548 -47.05   0
       318    979.4266    118.2187 300.4382001 +22.6865552     338.1564     72.88712      1.529     2.26     4.321947     20.55844     41.03568         5     0.681     0.474  73.19   0
       319    729.8187    115.7520 300.3612130 +22.6111140     233.1494     72.90568      1.209     3.20       4.3731     20.55844     40.36062         5     0.914     0.349 -46.91   0
       320    319.1057    113.9638 300.2339827 +22.4875521     5956.949     72.86856      1.446     2.57     4.437029     20.55844     690.8378        39     1.264     1.154  68.07   0
       321    825.5966    114.2488 300.3915382 +22.6393620     286.0329     72.86857      1.499     3.46     4.551234     20.55844     37.71654         5     0.728     0.474 -76.88   0
       322    169.9407    113.4758 300.1877786 +22.4426981     740.9744     72.92422      1.708     3.22     4.672192     20.55844     62.62688        10     0.922     0.729 -83.98   0
       323    948.9324    111.3302 300.4309256 +22.6754467     256.8972     72.92422      1.286     4.80     4.425564     20.55844     40.00785         5     0.971     0.671 -27.49   0
       324     13.9615    109.9879 300.1404611 +22.3949267     612.8653     72.86856      1.472     3.76      5.11645     20.55844     68.68364        14     1.139     0.953 -41.64   0
       325    290.6599    107.8425 300.2271232 +22.4772687      435.299        72.85      1.383     3.26     4.510538     20.55844     50.08147         7     0.824     0.618 -61.81   0
       326    794.9554    105.4584 300.3848407 +22.6276607     227.2281     72.90568      1.377     4.17     4.557181     20.55844     30.51999         6     0.955     0.520  75.65   0
       327     81.0429    104.5994 300.1630395 +22.4134964       385.82     72.86857      1.450     4.06     4.996713     20.55844     41.92411         6     0.947     0.497 -76.60   0
       328    565.1417     99.3219 300.3152656 +22.5570693     6185.194     72.90568      1.365     2.40     4.479757     20.55844      828.952        35     1.210     1.082  85.20   0
       329    450.5384     99.0903 300.2796797 +22.5226679     669.6163     72.96131      1.255     2.88     4.386337     20.55844     83.37534        12     0.976     0.781   6.52   0
       330    622.1603     93.9527 300.3347549 +22.5726062     273.8327     72.90568      1.079     3.15     4.254445     20.55844     51.73902         7     0.889     0.591  73.14   0
       331    585.7249     93.5062 300.3235574 +22.5615642     258.1884      73.0169      1.418     4.23     4.359088     20.55844     39.51028         5     0.794     0.720  34.84   0
       332    759.1589     90.8051 300.3784387 +22.6127303     334.1297     72.88712      1.245     3.86      4.44414     20.55844     37.28556         6     0.780     0.547 -35.56   0
       333    817.5776     89.2414 300.3971458 +22.6297727     838.8401     72.90568      1.479     2.57     4.643736     20.55844     103.8098        10     0.862     0.776 -67.54   0
       334    910.4213     87.9382 300.4265030 +22.6571931     605.6646     72.83144      1.429     5.23     4.608395     20.55844     80.53642        11     1.028     0.751   8.19   0
       335    258.3103     83.0079 300.2251167 +22.4604422     531.7009      72.7757      1.503     2.33     4.821398     20.55844     79.33287         8     0.800     0.614   0.99   0
       336    693.5256     79.3445 300.3617110 +22.5897822     6357.622     72.90568      1.392     2.48     4.403632     20.55844      811.597        37     1.262     1.084  74.96   0
       337    616.8615     81.6797 300.3370834 +22.5674926     539.0068     72.94277      1.516     2.86     4.313359     20.55844     60.60419         9     0.902     0.646 -74.18   0
       338    468.4592     78.3295 300.2919839 +22.5220742     1485.348     72.90568      1.481     2.74     4.453332     20.55844     162.3667        17     1.111     0.859  56.18   0
       339    734.8133     76.8318 300.3753844 +22.6014241      839.539        72.85      1.332     2.70     4.287002     20.55844     113.0808        11     0.914     0.798 -88.89   0
       340    804.5875     74.3489 300.3979255 +22.6216025     380.4849     72.90568      1.228     4.10     4.722368     20.55844     41.84181         6     1.058     0.454 -37.07   0
       341    750.7563     72.6657 300.3817008 +22.6050006     630.4814     72.85001      1.846     3.76     4.364629     20.55844     77.00538        11     1.092     0.822 -50.60   0
       342     64.2376     71.4918 300.1685503 +22.3989559      292.678        72.85      1.334     4.55     4.948593     20.55844     33.95976         6     0.960     0.613 -67.14   0
       343   1020.1801     70.1760 300.4664815 +22.6849369      539.674     71.84048      1.616     5.62     4.123032     20.55844     54.76754        13     1.483     0.831  64.73  16
       344    217.4301     70.4574 300.2164784 +22.4445854     562.7345     72.88712      1.521     4.90     4.960671     20.55844     64.68816        14     1.193     0.925  87.92   0
       345    789.1517     68.0359 300.3951624 +22.6151662     516.5655     72.88712      1.332     4.27     4.657516     20.55844     62.84192        11     1.222     0.667 -78.64   0
       346    752.7926     62.9696 300.3854777 +22.6028234     866.0929     72.86857      1.689     4.54     4.358051     20.55844     88.31576        17     1.509     0.815  55.52   0
       347    737.7767     64.3084 300.3803664 +22.5987120     2764.394     72.79429      1.388     2.55     4.230589     20.55844     349.9599        23     1.109     0.973  87.47   0
       348    378.5757     65.0334 300.2683343 +22.4913236     266.4751     72.88712      1.429     4.66     4.410395     20.55844      49.7679         7     0.879     0.721  32.25   0
       349     31.5279     58.5712 300.1625795 +22.3854400     713.5653     72.86857      1.556     3.14     5.145281     20.55844     95.96506        12     1.130     0.702 -33.24   0
       350    824.1306     55.8746 300.4100024 +22.6221427     1460.387     72.94277      1.366     2.48     4.816728     20.55844     199.7732        19     1.050     0.962  18.43   0
       351    762.1457     49.0615 300.3928987 +22.6016262     792.9056     72.92422      1.410     2.89     4.426935     20.55844      97.4798        12     0.940     0.824  55.73   0
       352    140.6510     48.5996 300.1997045 +22.4152949     638.6741     72.83144      1.688     3.86      4.50239     20.55844     64.09475        11     1.170     0.713  47.38   0
       353    805.6120   1020.0557 300.0911127 +22.8934690     716.1388     72.06605      1.974     4.55     3.215799     20.55844     54.42589        14     1.242     0.899  66.73  16
       354    853.7518     45.1044 300.4227234 +22.6279139     365.5474     72.90568      1.154     2.50     4.874392     20.55844      61.0541         7     0.732     0.625  86.61   0
       355    242.9627     36.4396 300.2354377 +22.4424716     3681.184     72.94277      1.539     2.75     5.026844     20.55844     416.3433        35     1.346     1.135  50.55   0
       356    810.9214     37.1464 300.4119560 +22.6128041     690.1456     72.90568      1.487     3.63     4.916328     20.55844     77.47919        10     1.060     0.668  22.20   0
       357    373.8183     37.0002 300.2759394 +22.4818468     257.2244     72.79429      1.424     3.81     4.492823     20.55844     27.77838         5     0.822     0.506 -35.26   0
       358     35.2978     36.9390 300.1707599 +22.3803622     305.9253     72.94277      1.290     3.04     5.132094     20.55844     38.12737         7     0.718     0.679  89.94   0
       359    665.5145     34.0260 300.3676755 +22.5683698     371.7216        72.85      1.680     4.14     4.611631     20.55844     29.51043         5     0.753     0.651  -5.42   0
       360    471.8246     46.5620 300.3033264 +22.5139571      789.774     72.88712      1.376     3.30     4.526197     20.55844     109.1035        15     1.155     0.878 -36.93   0
       361    359.0883     28.7629 300.2740279 +22.4750673     1314.363        72.85      1.423     2.49     4.581284     20.55844      162.212        15     0.984     0.870  73.68   0
       362    804.3642     28.9795 300.4125595 +22.6084932     858.9818     72.88712      1.407     3.27     4.958266     20.55844     103.2808        14     1.123     0.857   9.98   0
       363    842.0987     24.2218 300.4258593 +22.6184216     682.3381     72.79429      1.672     3.78     4.984477     20.55844     71.13945        11     1.204     0.707  87.04   0
       364    765.5075     24.1328 300.4020245 +22.5954668     411.5151      73.0169      1.232     3.16     4.467712     20.55844     45.38401         6     0.775     0.499 -87.48   0
       365    291.1076   1017.9074 299.9317139 +22.7384256     7138.236     73.03542      8.331    28.38      32.9566     20.55844     133.3168       450     7.251     5.191  46.22  27
       366    567.7897     18.9007 300.3421532 +22.5347560     478.1476      72.7757      1.317     2.11     4.648374     20.55844     74.07353         8     0.781     0.600 -46.06   0
       367    456.5179    971.8139 299.9981415 +22.7748785     6328.386        72.85      1.821     3.71     4.129701     20.55844     427.8468        43     1.418     1.391  81.17   0
       368    997.6780   1003.3394 300.1564102 +22.9462790     745.6633     72.92422      2.130     7.68     3.905808     20.55844     43.83663        14     1.572     1.049 -39.85   0
       369    310.4147   1007.6973 299.9410371 +22.7412979     9447.463     72.75712     10.819    33.04     22.38242     20.55844     184.2061       939    11.622     5.718  59.56  19
       370    148.7916    949.0245 299.9099021 +22.6759502      3592.54     72.86857     23.395    51.89     16.24989     20.55844      82.1154       875    11.463     6.519 -34.66   3
