#   1 NUMBER                 Running object number                                     
#   2 X_IMAGE                Object position along x                                    [pixel]
#   3 Y_IMAGE                Object position along y                                    [pixel]
#   4 ALPHA_J2000            Right ascension of barycenter (J2000)                      [deg]
#   5 DELTA_J2000            Declination of barycenter (J2000)                          [deg]
#   6 FLUX_APER              Flux vector within fixed circular aperture(s)              [count]
#   7 FLUXERR_APER           RMS error vector for aperture flux(es)                     [count]
#   8 FLUX_RADIUS            Fraction-of-light radii                                    [pixel]
#   9 FWHM_IMAGE             FWHM assuming a gaussian core                              [pixel]
#  10 BACKGROUND             Background at centroid position                            [count]
#  11 THRESHOLD              Detection threshold above background                       [count]
#  12 FLUX_MAX               Peak flux above background                                 [count]
#  13 ISOAREA_IMAGE          Isophotal area above Analysis threshold                    [pixel**2]
#  14 A_IMAGE                Profile RMS along major axis                               [pixel]
#  15 B_IMAGE                Profile RMS along minor axis                               [pixel]
#  16 THETA_IMAGE            Position angle (CCW/x)                                     [deg]
#  17 FLAGS                  Extraction flags                                          
         1    511.3856     16.1821 300.3326294 +22.5431578     1090.911     72.50001      1.513     2.80     5.483591     20.46488     116.5884        16     1.145     0.837  74.34   0
         2    415.2959     14.2435 300.3033364 +22.5138474     814.6841     72.55544      1.484     3.04     5.506942     20.46488     80.86922        13     0.982     0.870  88.80   0
         3    754.7399      5.0384 300.4120741 +22.6127455     771.2572     71.96193      1.517     2.92     5.248477     20.46488     86.46787        12     0.973     0.787  66.72  16
         4    186.6423      4.1200 300.2354668 +22.4424959     3814.753     69.42152      1.630     2.92     6.654308     20.46488     381.0383        35     1.377     1.212  49.73  24
         5    512.3243      1.8110 300.3375786 +22.5393055     266.6238      59.2111      1.083     2.24     5.483591     20.46488     56.41317         6     0.722     0.572 -32.21  24
         6    609.0533      1.5723 300.3677891 +22.5681746     209.2425     57.81393      1.122     2.81     6.159699     20.46488     42.93979         6     0.790     0.495   0.18  24
         7    253.1726    974.4316 299.9411168 +22.7410199     8664.243     72.53697     12.706    41.93     32.49682     20.46488     187.1073      1102    14.003     5.684  70.24  27
         8    257.3822   1020.4075 299.9274669 +22.7554685     1234.147     70.85461      3.257    10.89     51.24422     20.46488     44.39096        24     2.016     1.639 -38.46  19
         9    264.4960   1014.5015 299.9316015 +22.7559087     2454.521      72.7215      5.258    18.97      39.9871     20.46488     60.43347       107     3.870     2.583  87.88  19
        10    102.5614   1011.4479 299.8822422 +22.7064488     4278.369     72.55544     15.059   101.69     86.78797     20.46488     169.5437      2030    19.411    14.783  57.70  27
        11    648.6064    987.4628 300.0599817 +22.8633276     8505.837     72.50001      2.007     4.75     3.882267     20.46488     469.1134        46     1.566     1.482  33.09   3
        12    116.8953    983.6198 299.8957520 +22.7027713     775.2292     72.44453      3.940     4.79     64.70651     20.46488     35.61715         5     1.228     0.529  69.99   1
        13    182.5497    980.4190 299.9172055 +22.7215514      1305.72     72.51849      2.872     9.51     64.97159     20.46488     43.53113        24     2.896     0.871 -14.78   3
        14    182.0973    975.6898 299.9186034 +22.7200595     1622.998      72.7215      4.679    11.55     61.72076     20.46488     52.67337        36     2.012     1.848   8.34   3
        15    942.7187    971.7546 300.1567936 +22.9469430     763.0197     72.51849      2.527     5.43     3.791563     20.46488     46.10194         9     0.992     0.929   9.36   2
        16    512.2059    976.6694 300.0210058 +22.8193414     372.0178     72.50001      1.907     7.31     4.255525     20.46488     33.02063         9     1.376     1.107 -32.68   0
        17    187.9237    991.7906 299.9151767 +22.7264246     1777.237     72.51849      8.218    15.88     74.47279     20.46488     58.55792        50     3.433     2.041 -62.87   3
        18    161.0120    957.3806 299.9180037 +22.7084835     1517.835     72.50001      5.659    11.53     49.73234     20.46488     49.90763        33     2.210     1.676  40.03   2
        19    669.3818    973.5223 300.0709913 +22.8655526     406.4652     72.53697      1.808     4.71     3.926827     20.46488     34.16875         6     1.261     0.499   1.06   0
        20    546.6033    948.2279 300.0409712 +22.8214908     342.4775     72.50001      1.872     4.28     4.152041     20.46488     34.57149         5     1.238     0.422  77.69   0
        21    258.1805    948.5256 299.9511024 +22.7350916     657.7745     72.53697      1.978     4.81     17.60172     20.46488     64.66145        13     1.195     1.068 -38.87   0
        22    666.9337    954.3120 300.0764786 +22.8593040     6990.194     72.64774      1.981     4.59     3.993864     20.46488     401.7509        51     1.548     1.521  12.76   0
        23    575.3867    944.9564 300.0510007 +22.8291798     1506.304     72.55544      1.789     3.91     4.082869     20.46488     122.6378        26     1.310     1.204  34.64   0
        24     92.0800    951.6361 299.8984434 +22.6861552      5607.49     72.48152     23.566    93.39     30.10206     20.46488     1291.342      3031    18.859    12.833 -20.37  19
        25    654.1982    984.8876 300.0625620 +22.8642644     9625.518     72.46303      2.068     5.14     3.889016     20.46488     534.9418        53     1.592     1.524  43.53   3
        26    469.4363    941.3417 300.0191819 +22.7963808     977.6942     72.53697      1.771     4.47     4.268691     20.46488     85.02101        20     1.264     1.108 -88.92   0
        27    399.7754    939.4092 299.9981254 +22.7749399     6561.086     72.53697      1.908     4.31     4.313242     20.46488     472.0343        43     1.489     1.411  33.77   0
        28      4.3367   1017.1434 299.8498640 +22.6786040     3177.785     70.17038      9.058    39.76    -30.23919     20.46488     74.93643       310     8.214     5.340 -23.65  27
        29    748.3848    988.1295 300.0908612 +22.8934225     691.8422     72.55544      1.958     6.72     3.817824     20.46488     42.71849        16     1.385     1.178  50.93   0
        30      3.8358   1001.0001 299.8549609 +22.6738265     2490.038     68.37109     17.658    47.98    -24.20319     20.46488     54.76806       379    12.107     5.277 -80.23  27
        31    432.9476    926.2395 300.0127350 +22.7811071     526.9485     72.51849      1.719     5.81     4.276596     20.46488     44.46735        10     1.071     0.886 -88.72   0
        32    946.3336    918.4536 300.1752627 +22.9327143     2225.343     72.57391      2.010     4.91     4.351024     20.46488     113.2549        33     1.483     1.385 -13.67   0
        33    597.0826    915.5626 300.0673210 +22.8272452     332.9537     72.50001      1.492     5.25     4.082944     20.46488      35.3219         7     1.563     0.498  68.03   0
        34    445.1403    914.6056 300.0203149 +22.7814242     336.0925     72.50001      2.347     4.93     4.278717     20.46488      29.4921         5     1.456     0.473  -5.06   0
        35    502.2084   1001.3650 300.0098572 +22.8234307     292.2922     72.51849      1.431     2.33      4.28659     20.46488     41.81227         5     0.719     0.438  20.49   0
        36    735.0310    907.2272 300.1130191 +22.8661912     866.2419     72.53697      1.902     5.52     4.296346     20.46488     61.99392        17     1.379     0.907   4.95   0
        37    769.7708    901.5305 300.1257017 +22.8749637     1109.542     72.53697      1.879     5.31     4.340579     20.46488      81.9892        25     1.537     1.227   5.12   0
        38    547.8785    901.5399 300.0565557 +22.8084722     283.2291     72.59238      1.704     5.43     4.168318     20.46488     27.09632         6     1.247     0.667  39.71   0
        39    370.0463    998.7708 299.9695600 +22.7830555     479.4364     72.57391      1.868     6.81      4.64691     20.46488     41.27495         8     1.238     1.052  42.08   0
        40     91.2912    918.3620 299.9090214 +22.6763776     4559.171     72.51849     21.864    63.20     9.734806     20.46488     87.72566      1257    14.914     7.431 -27.56   3
        41    792.1061    895.1241 300.1347491 +22.8798153     11301.36     72.68462      1.872     4.37     4.369581     20.46488     700.1708        49     1.472     1.433  24.85   0
        42    838.3260    895.2409 300.1491234 +22.8936950     370.8559     72.51849      1.700     4.76     4.368963     20.46488     33.72234         7     1.163     0.553  67.94   0
        43    982.6269    894.4006 300.1944114 +22.9366731     469.8163     72.50001      1.888     7.52     4.444284     20.46488     42.35813         9     1.426     1.109  60.75   0
        44    186.7455    998.7092 299.9125593 +22.7280551     2681.977     72.59238      5.657    19.86     80.66846     20.46488     63.89813       115     4.131     2.653  17.33  18
        45    562.0919    991.9623 300.0315660 +22.8386858     2316.261     72.53696      1.984     4.99     4.166729     20.46488     140.1991        29     1.393     1.319  21.13   0
        46    103.8855    886.8647 299.9231801 +22.6711237      1436.74     72.62929      6.585     8.08     8.208834     20.46488     58.06261        21     1.632     1.242 -19.27   2
        47    844.0145    883.2148 300.1548090 +22.8919446     405.8412     72.46303      2.182     5.08     4.384201     20.46488      33.6665         6     1.354     0.538 -17.02   0
        48    497.7034    883.5486 300.0467819 +22.7882683     306.4421     72.61083      1.518     3.37     4.251289     20.46488     43.20034         4     0.912     0.360 -23.28   2
        49     74.5537    880.3310 299.9161878 +22.6604505     562.9467     72.51849      2.273     3.48      6.34132     20.46488     37.71238         5     1.169     0.299  69.42   0
        50    800.5605    877.1216 300.1432406 +22.8771776      1464.88     72.51849      1.927     5.06     4.403295     20.46488     96.84168        29     1.451     1.335   6.04   0
        51    150.5901    874.5505 299.9417043 +22.6816022     1313.078     72.55544      0.916     0.09     10.24003     20.46488     739.2075        11     1.545     0.422 -53.78   0
        52    982.5287    876.7911 300.2001085 +22.9315840     427.4156     72.51849      1.799     3.45     4.503263     20.46488     35.48264         5     1.076     0.319 -68.06   0
        53     94.5375    877.5308 299.9233098 +22.6656426     608.1421     72.57391      2.885     4.90     6.615404     20.46488     44.45913         8     1.396     0.488  -4.60   0
        54    652.5797    874.1834 300.0980705 +22.8319970     657.4046     72.51849      2.671     6.61      4.21255     20.46488     35.06029        13     1.422     0.887  20.97   0
        55    838.5765    870.8121 300.1571471 +22.8867531     717.6969     72.53697      1.856     6.43     4.401863     20.46488     42.36889        15     1.268     0.915  23.59   0
        56    887.6733    861.3368 300.1755415 +22.8987367     658.6556     72.57391      1.992     5.03      4.44533     20.46488     47.84742         8     1.555     0.460  49.21   2
        57    738.7900    861.2117 300.1291574 +22.8541029     670.3625     72.42603      1.604     5.72     4.434717     20.46488     50.27845        13     1.179     0.834  12.76   0
        58    749.7664    858.1659 300.1335696 +22.8565166     615.9918     72.61083      1.658     6.35     4.443833     20.46488     43.47168        13     1.210     0.937  31.81   0
        59    451.0368    857.1465 300.0408383 +22.7667015     4079.156     72.55544      1.714     3.67     4.321435     20.46488     342.0002        32     1.343     1.247  28.63   0
        60     93.3541    845.4444 299.9333758 +22.6560857     227.0403     72.57391      1.236     3.71     5.408873     20.46488     26.50466         5     1.398     0.284 -45.28   0
        61    112.9605    844.8502 299.9396636 +22.6617965     437.9872     72.55544      1.825     4.45     5.854321     20.46488     35.87314         8     1.112     0.505  51.37   0
        62    176.7240    842.9134 299.9601178 +22.6803663     885.6633     72.66618      2.283     4.41     6.689044     20.46488     65.94575        17     1.307     1.165  27.05   0
        63    153.4914    839.9452 299.9538591 +22.6725468     1589.525     72.59238      1.950     4.37     6.753842     20.46488     118.4007        29     1.434     1.301 -57.38   0
        64   1023.6688    829.0549 300.2284725 +22.9301848     758.3079     56.50087      1.245     4.35     4.538208     20.46488     123.2102        11     1.333     0.468 -87.75  24
        65    924.7556    829.3928 300.1974976 +22.9006644      250.985     72.55544      1.775     4.13     4.608683     20.46488     30.57957         5     1.495     0.326  41.27   0
        66    979.5971    827.5971 300.2151927 +22.9165703     2191.911     72.31492      1.934     4.66      4.57084     20.46488     130.0347        30     1.429     1.323  32.71   0
        67    684.4485    827.9865 300.1230249 +22.8282803     448.6037     72.57391      2.058     5.71     4.482401     20.46488     38.66917         7     1.107     0.831 -57.74   0
        68    762.8176    821.3748 300.1496024 +22.8498593     529.8154     72.55544      1.777     5.96     4.556123     20.46488     52.45422        12     1.150     0.894  65.00   0
        69    185.8532    820.6776 299.9701864 +22.6767256     435.9255     72.57391      1.495     5.58     5.666777     20.46488     39.65274         9     1.332     0.659  76.32   0
        70    631.1080    815.3931 300.1104984 +22.8086820     4786.633     72.44453      1.661     3.40     4.455244     20.46488     407.2739        39     1.343     1.285 -48.26   0
        71    433.3309    812.2543 300.0499236 +22.7485089     743.4533     72.57391      1.850     4.26     4.489197     20.46488     58.11178        13     1.120     0.981   8.47   0
        72    181.2259    809.0406 299.9725309 +22.6719995     1459.275     72.59238      1.872     4.34     5.296463     20.46488     147.0718        23     1.347     1.109  23.74   0
        73    651.6646    807.6138 300.1194329 +22.8126073     783.8111     72.50001      1.839     5.07     4.532084     20.46488     57.74472        17     1.255     1.023  89.50   0
        74    200.3726    806.4302 299.9793336 +22.6769926     477.3692     72.53697      1.622     6.26     4.948394     20.46488     49.60066        13     1.254     0.935   5.83   0
        75    891.0577    803.8079 300.1953049 +22.8832219     2264.963     72.51849      0.463     0.84     4.761913     20.46488     1731.473         5     0.396     0.267 -82.45   0
        76    369.0420    798.0175 300.0345418 +22.7251511     2497.631     72.55544      0.461     2.39     4.671014     20.46488     1862.203         9     0.431     0.400  32.78   0
        77   1023.3640    795.5896 300.2392592 +22.9204756     692.7155     58.16061      1.587     4.65      4.49126     20.46488      79.3609        13     1.408     0.681 -80.76  24
        78    807.1564    795.1920 300.1719398 +22.8556191     4210.699     72.55544      1.698     3.64     4.622077     20.46488      325.394        36     1.351     1.265  59.03   0
        79    538.5165    792.1960 300.0891973 +22.7742760     303.5922     72.46303      1.257     2.63     4.447545     20.46488      48.1373         5     0.792     0.660  18.15   0
        80    215.6243    789.9969 299.9894193 +22.6768515     419.2543     72.48152      1.591     3.79      4.60278     20.46488     35.54453         5     1.202     0.342 -43.87   0
        81    524.0607    787.5975 300.0861902 +22.7686237     628.3984     72.51849      1.698     5.80     4.442419     20.46488     51.78904        17     1.235     1.045 -73.76   0
        82    170.4752    785.3500 299.9768896 +22.6619791      1035.59     72.53697      1.797     3.98     4.962666     20.46488     89.44019        22     1.255     1.208 -41.96   0
        83    320.1591    777.5411 300.0259870 +22.7046200     54035.73     72.53697      1.724     3.43     4.828212     20.46488     5269.257        94     1.499     1.442  30.50   0
        84    585.5948    780.5943 300.1076330 +22.7850521     443.8249     72.38901      1.452     5.60     4.509266     20.46488     47.66892        12     1.276     0.836  47.74   0
        85    578.0581    776.6640 300.1065630 +22.7816653      1703.05     72.57391      1.661     3.42     4.502529     20.46488     148.7386        25     1.262     1.123  62.41   0
        86    991.1952    775.9257 300.2356131 +22.9051932     935.8188     72.46303      1.906     5.73     4.563672     20.46488       65.063        19     1.430     1.118  28.06   0
        87    248.7203    775.5362 300.0044140 +22.6826262     528.9596     72.64774      1.979     4.22     4.642186     20.46488     53.55507         8     1.123     0.695 -31.44   0
        88    606.9781    772.7859 300.1168330 +22.7892170      1026.38     72.51849      1.718     3.59     4.559243     20.46488     78.28896        19     1.148     1.052  -1.77   0
        89      7.1706    771.7982 299.9305344 +22.6091114     659.2199     72.50001      1.764     6.20     5.190774     20.46488     60.65821        13     1.417     0.826  36.67  18
        90    617.7817    771.0977 300.1207477 +22.7919691     666.2471     72.46303      1.615     5.32     4.576018     20.46488     52.79736        13     1.238     0.867 -20.62   0
        91    723.5880    767.5926 300.1548596 +22.8226597     454.6573     72.42603      1.532     5.27     4.636564     20.46488      47.3019        12     1.075     0.896  46.33   0
        92    760.8113    757.9723 300.1695906 +22.8310457     819.9324     72.53697      1.616     3.48     4.628602     20.46488     75.49261        14     1.015     0.916  77.38   0
        93    369.8986    754.7914 300.0488604 +22.7130013     31516.12     72.40752      1.630     3.45     4.881999     20.46488     2971.268        67     1.389     1.359  33.07   0
        94    384.1190    755.3821 300.0530942 +22.7174333     1939.285     72.53697      1.617     3.34     4.813358     20.46488     198.0742        24     1.238     1.119  13.65   0
        95    893.0981    750.9318 300.2131322 +22.8686393     2915.705     72.62929      1.724     3.87     4.563392     20.46488     204.8139        28     1.272     1.218 -82.16   0
        96    381.3140    749.0825 300.0542688 +22.7147843     705.7816     72.66618      1.958     6.48     4.853952     20.46488      52.6142        12     1.329     0.943 -49.32   0
        97    650.9977    746.9836 300.1389360 +22.7949950     844.1515     72.42603      1.441     4.36     4.637984     20.46488     83.49277        16     1.247     0.858  20.47   0
        98    487.2712    746.7123 300.0880246 +22.7458602     532.6068     72.70306      1.698     4.17     4.375491     20.46488     45.83941         9     1.112     0.696  52.56   0
        99    252.6222    746.6114 300.0150298 +22.6754960     744.5805     72.51849      1.640     4.36     4.737629     20.46488     75.63697        14     1.177     0.808  45.87   0
       100    498.0167    741.6378 300.0930201 +22.7476234      904.244     72.53697      1.550     3.84     4.383895     20.46488     82.82697        17     1.151     1.002 -23.59   0
       101     57.6269    741.9135 299.9559275 +22.6156744     566.1184     72.53697      1.665     3.18     5.160496     20.46488      66.9538         6     0.943     0.481  86.60   0
       102    899.0729    738.5668 300.2190154 +22.8668750     521.1006     72.53697      1.653     5.68     4.521356     20.46488     43.17738        12     1.040     0.873  86.76   0
       103    444.2872    736.5071 300.0779585 +22.7300486     436.5805     72.70306      1.513     4.06     4.548418     20.46488     59.84245         9     1.113     0.616  40.00   0
       104    356.2868    737.1063 300.0503726 +22.7038449     242.2122      72.7215      1.418     3.94     5.054785     20.46488     43.03802         5     0.877     0.507  34.55   0
       105    651.9758    736.4921 300.1426511 +22.7922746     433.6843     72.46303      2.115     3.81     4.655407     20.46488     31.72861         6     0.837     0.497   4.45   0
       106     86.3281    735.9733 299.9667788 +22.6225785     564.5994     72.51849      2.104     2.46     5.130238     20.46488      70.3585         6     0.850     0.468  47.44   0
       107    877.2695    733.3266 300.2139177 +22.8588407     373.9968     72.61083      1.524     4.43     4.498488     20.46488     43.96727         7     1.040     0.536  64.30   0
       108    250.2934    730.8345 300.0194332 +22.6702704     638.2642     72.50001      1.816     6.02     4.771395     20.46488     42.63559        13     1.146     0.889 -68.88   0
       109    573.1760    721.2933 300.1230409 +22.7643020     545.0639     72.46303      1.697     4.04     4.649451     20.46488     51.67975        11     1.133     0.794 -67.35   0
       110    543.1277    719.6860 300.1142039 +22.7548374     635.9714     72.64774      1.414     3.43     4.591946     20.46488     68.69488        12     0.989     0.844  62.40   0
       111    452.0722    718.7104 300.0861666 +22.7272722     283.2334     72.70306      1.405     3.79     4.636776     20.46488     42.62944         6     1.015     0.527 -50.37   0
       112    959.6099    716.2161 300.2451671 +22.8785758      4529.33     72.46303      1.801     3.90     4.601476     20.46488     338.8198        38     1.406     1.317   3.86   0
       113    565.0294    717.0786 300.1218731 +22.7606508     1332.977     72.53696      1.469     3.29     4.661071     20.46488      118.658        20     1.110     1.061 -53.62   0
       114    484.7188    716.7490 300.0969688 +22.7364923     376.9481     72.55544      1.460     5.89     4.550947     20.46488     40.64458        11     1.283     0.761 -39.67   0
       115    646.2710    712.1723 300.1487781 +22.7835804     332.5548     72.51849      1.212     3.45     4.760961     20.46488      44.5099         5     0.991     0.347 -41.64   0
       116    947.9859    707.8002 300.2442756 +22.8726770      1683.93     72.38901      1.701     4.21     4.617042     20.46488     120.6949        24     1.324     1.170 -36.59   0
       117    310.7955    701.1157 300.0479139 +22.6798783     868.0196     72.46303      1.549     4.01     5.062163     20.46488     81.43559        16     1.134     1.045  20.30   0
       118    774.3447    698.7408 300.1930624 +22.8180818     2669.377     72.61083      1.745     3.74     4.751914     20.46488     195.5001        32     1.468     1.183  12.10   0
       119    979.2170    697.8835 300.2572438 +22.8791759      1741.76     72.50001      1.800     3.88     4.636499     20.46488     120.2822        26     1.295     1.205   3.07   0
       120    856.4733    684.8842 300.2231760 +22.8386928     748.3624     72.64774      2.016     6.32     4.754456     20.46488     51.50562        14     1.272     0.937  55.68   0
       121    159.9132    685.3901 300.0060937 +22.6301318     583.9656     72.48152      1.588     4.68     4.988286     20.46488     56.73988         7     1.026     0.607 -21.38   0
       122    892.7457    675.8433 300.2374280 +22.8469544     149142.2     72.55544      1.653     3.38     4.747716     20.46488     12138.35       165     1.527     1.508  55.10   0
       123    654.8014    679.5869 300.1620261 +22.7767756     309.6892     72.37049      1.268     4.13     4.893001     20.46488     41.48882         7     0.790     0.731 -89.52   0
       124    744.8790    675.9696 300.1912766 +22.8027150     890.8987     72.53696      1.617     4.18     4.851739     20.46488     72.19641        15     1.179     0.953  56.78   0
       125    925.3804    668.6729 300.2499389 +22.8546633     454.3288     72.53697      1.646     4.69     4.692894     20.46488     38.67596        11     1.149     0.756  68.55   2
       126    579.0064    664.5126 300.1433097 +22.7497412     1584.464     72.44453      1.507     2.84     4.998787     20.46488     169.9315        23     1.124     1.083  20.02   0
       127    760.1984    661.9288 300.2006150 +22.8032683      9563.07     72.46303      1.518     3.07     4.859979     20.46488     859.3871        41     1.263     1.203  51.02   0
       128    261.6124    656.7930 300.0470149 +22.6524136     4966.366     72.42603      1.606     3.39     5.095731     20.46488     518.6337        36     1.338     1.199  37.90   0
       129    343.7960    654.9850 300.0731725 +22.6765275     1114.912     72.38901      1.479     3.87     4.976539     20.46488     110.4196        17     1.062     1.013 -18.03   0
       130    219.9688    652.6677 300.0354020 +22.6387463     486.9689     72.51849      2.024     4.50      5.09183     20.46488     39.12112         8     0.938     0.738  76.41   0
       131    551.8491    650.4730 300.1394123 +22.7375731     796.1899     72.53697      1.544     3.42     5.022443     20.46488     81.76443        16     1.062     1.023  -9.13   0
       132    543.6625    642.6802 300.1393945 +22.7328824     3218.606     72.64774      1.473     2.79      5.02768     20.46488     407.3325        28     1.198     1.041  43.21   0
       133    534.0234    636.3079 300.1384627 +22.7281645     1560.583     72.46303      1.552     2.93     5.024715     20.46488     154.1781        23     1.264     0.998  42.52   0
       134    927.9250    634.6238 300.2617968 +22.8456377      540.838     72.57391      1.917     4.61     4.685948     20.46488     48.35948        10     1.022     0.928  67.76   0
       135    444.5288    633.1931 300.1116069 +22.7004570     252.9113     72.50001      1.333     4.42     4.953918     20.46488     41.21415         6     0.943     0.588  23.26   0
       136    197.5966    632.8691 300.0348765 +22.6263573     702.7565     72.50001      1.803     4.07     5.090249     20.46488     68.41885        12     1.156     0.850   5.16   0
       137    211.6048    630.8364 300.0398934 +22.6299732     593.9758     72.55544      1.655     4.02      5.09111     20.46488     78.74883        13     1.122     0.996  69.43   0
       138    981.0997    627.7495 300.2806222 +22.8595776     534.4836     72.62929      1.795     3.39     4.869231     20.46488     45.46396         8     0.873     0.677  84.17   0
       139    268.2231    627.8517 300.0584742 +22.6460878      330.654     72.55544      1.497     3.86     5.096338     20.46488     40.28316         5     0.909     0.469 -42.77   0
       140    237.3020    627.5382 300.0489575 +22.6367295     622.6025     72.62929      1.609     3.99     5.093204     20.46488     50.53384        11     1.102     0.733   0.47   0
       141    558.0411    626.8068 300.1490303 +22.7326305     536.7034     72.57391      1.620     3.94     5.055408     20.46488     53.89274        11     1.112     0.742 -32.79   0
       142    458.6845    626.0906 300.1183217 +22.7026588     1732.702     72.70306      1.494     3.09     4.958352     20.46488     198.3595        20     1.129     0.994  48.28   0
       143    112.6230    620.8618 300.0123560 +22.5974365     20040.34     72.51849      1.734     3.67     5.060526     20.46488     1847.439        63     1.483     1.395  32.99   0
       144     33.9692    622.5007 299.9873761 +22.5743229     691.6882     72.51849      1.576     3.23     5.272963     20.46488     66.11619        11     1.003     0.748  33.57   0
       145    543.7205    621.3973 300.1463273 +22.7267869     1181.291     72.44453      1.660     2.96     5.050655     20.46488     119.7425        17     1.141     0.922  56.90   0
       146    579.0424    620.5295 300.1576116 +22.7371183     406.9663     72.50001      1.401     2.48     5.082747     20.46488     63.75488         8     0.814     0.649  86.26   0
       147    297.6052    612.2471 300.0726847 +22.6504146     216.4699     72.51849      1.183     2.60     5.074311     20.46488     39.47701         5     0.828     0.598 -42.64   0
       148    961.7070    608.0103 300.2809840 +22.8480984     1214.244     72.48152      1.785     3.72     4.848698     20.46488      91.9594        19     1.176     1.078  53.02   0
       149     58.5894    605.0237 300.0007050 +22.5766908     1590.921     72.53697      2.124     5.40     5.165581     20.46488     91.23128        31     1.706     1.265 -81.83   0
       150    828.7137    606.1001 300.2401180 +22.8077391     546.1063     72.70306      1.647     3.84     4.790272     20.46488     70.76145        11     1.123     0.712 -13.96   0
       151    125.0358    605.5706 300.0211822 +22.5967699     433.3715     72.55544      1.825     5.57     5.050357     20.46488     37.13821         8     1.033     0.847  30.25   0
       152    507.1876    602.1898 300.1411893 +22.7103259     411.8783     72.42603      1.326     4.67     5.040663     20.46488     44.18182        10     1.029     0.760  45.06   0
       153    901.7597    600.5114 300.2647170 +22.8279995     1056.018     72.51849      2.358     4.22     4.689919     20.46488     65.00648        15     1.119     1.030  58.35   2
       154    463.9895    594.4952 300.1302375 +22.6951745     772.5862     72.46303      1.540     3.46     4.976503     20.46488     84.65252        15     1.121     0.906 -77.96   0
       155    658.4973    591.5673 300.1917761 +22.7525953      602.808     72.51849      1.901     3.96     5.129003     20.46488     66.90964        13     1.178     0.961 -41.60   0
       156    611.9053    592.8001 300.1768579 +22.7389957     497.4019     72.40752      1.329     2.91     5.262707     20.46488     65.68062        10     0.890     0.736 -89.25   0
       157    629.5395    591.1376 300.1828923 +22.7437995     461.9286     72.57391      1.294     3.16     5.222367     20.46488      62.6533        11     0.981     0.717 -22.20   0
       158    507.9115    590.2913 300.1452799 +22.7071252     913.5367     72.70306      1.489     3.29     5.100613     20.46488     92.62366        13     1.085     0.783 -24.57   0
       159    941.7039    585.8119 300.2819542 +22.8357295      3340.56     72.44453      1.617     3.36     4.727074     20.46488     288.2027        33     1.343     1.201  65.09   0
       160    473.5380    585.6158 300.1360949 +22.6954849     1760.004     72.50001      1.493     2.73     4.996569     20.46488      220.998        19     1.115     0.948 -12.30   0
       161    838.6999    583.3486 300.2506234 +22.8041893     408.3341     72.62929      1.689     4.05     4.796601     20.46488     35.71102         6     0.872     0.539  42.30   0
       162     35.3290    578.9521 300.0019442 +22.5622356     5095.156     72.51849      1.830     3.86     5.169305     20.46488     490.0196        40     1.486     1.348  21.37   0
       163    980.3989    575.3272 300.2974343 +22.8442956     341.0601     72.42603      1.549     4.64     4.805508     20.46488     42.76707         7     1.250     0.489  34.28   0
       164    336.8725    572.2440 300.0978972 +22.6506972     9098.944     72.51849      1.518     3.02      4.91914     20.46488     892.7207        44     1.330     1.187  53.84   0
       165    459.3777    569.3881 300.1369569 +22.6865820     9063.753     72.51849      1.453     2.63     5.002567     20.46488     1051.188        42     1.272     1.132  54.63   0
       166     98.0287    571.8272 300.0237465 +22.5789895     225.8098     72.51849      1.191     3.96     5.042663     20.46488     33.98359         5     0.906     0.652 -25.06   0
       167    871.1115    563.5496 300.2671637 +22.8082001      1867.57     72.53697      1.546     2.96     4.758913     20.46488     203.6679        24     1.223     1.078  17.20   0
       168    705.8138    565.6248 300.2149495 +22.7593100     334.2362     72.53697      1.472     2.34     5.071436     20.46488     43.05399         5     0.721     0.436  21.53   0
       169    955.7845    560.9905 300.2944106 +22.8328071     12677.54     72.46303      1.574     3.16     4.719128     20.46488     1069.831        51     1.348     1.296  70.27   0
       170    519.9581    559.0213 300.1591886 +22.7017518     11675.71     72.57391      1.421     2.93     5.340804     20.46488     1292.684        42     1.226     1.135  53.50   0
       171    689.3858    554.8137 300.2133408 +22.7512842     525.9454     72.46303      1.441     2.77     5.187294     20.46488      64.4877        10     0.892     0.729  51.17   0
       172    247.4113    554.1918 300.0759265 +22.6187047     1397.078     72.42603      1.555     3.12     5.003087     20.46488     157.2487        19     1.106     0.967  48.73   0
       173    494.2877    552.2399 300.1533968 +22.6921144     553.7227     72.51849      1.712     3.79      5.16438     20.46488     49.20258         9     0.885     0.750 -79.41   0
       174    451.6160    547.1375 300.1417672 +22.6778660     4530.859     72.51849      1.459     2.86     5.019102     20.46488     487.5536        34     1.275     1.078  46.46   0
       175    794.4965    547.2844 300.2485534 +22.7805903     737.1147     72.70306      1.294     3.56     4.929671     20.46488     96.48857        17     1.181     0.931  89.55   0
       176    871.3781    543.0058 300.2739196 +22.8023740     1583.902     72.51849      1.603     3.45     4.793682     20.46488     132.9769        23     1.376     1.041 -71.21   0
       177    429.8946    545.5400 300.1355234 +22.6708999     1252.391     72.62929      1.363     3.06     4.987647     20.46488     150.1803        14     0.999     0.851  55.68   0
       178    184.1117    544.7429 300.0593076 +22.5970204     580.3281     72.61083      1.489     3.35     5.062407     20.46488     81.73793        13     1.034     0.872  26.02   0
       179    751.8964    539.7300 300.2377250 +22.7656656     935.9054     72.66618      1.521     3.01     4.944859     20.46488     100.8949        14     1.052     0.831 -81.49   0
       180    392.1198    541.1050 300.1252049 +22.6583091     390.1041     72.64774      1.360     3.25     4.935234     20.46488     45.69867         8     0.838     0.648 -43.88   0
       181    568.2618    534.7297 300.1821232 +22.7092411     206942.2     72.57391      1.421     2.67     5.636933     20.46488     24600.09       189     1.469     1.381  -9.33   0
       182    845.4151    538.8326 300.2671772 +22.7934031     361.6688     72.51849      1.472     3.56     4.844835     20.46488     34.95273         5     1.000     0.366   4.61   0
       183    254.3260    534.5792 300.0844469 +22.6151463     3650.332     72.53697      1.547     2.83     4.977587     20.46488     443.4048        27     1.219     1.102  63.95   0
       184    820.3153    531.0896 300.2618643 +22.7836640     573.5517     72.68462      1.526     3.96     4.886991     20.46488     57.31736        13     1.148     0.775  -6.03   0
       185    458.9250    515.2620 300.1543945 +22.6708999     2858.605     72.59238      1.550     2.80     5.118879     20.46488     330.6836        32     1.570     1.071  84.22   0
       186    303.7797    517.8263 300.1052727 +22.6251555     371.9336     72.51849      1.476     3.46     4.917199     20.46488     44.31525         7     0.835     0.665  41.74   0
       187    775.9852    503.9964 300.2568400 +22.7626059     329.3051     72.38901      1.352     3.50     4.943062     20.46488     55.09753         9     0.932     0.698  60.60   0
       188    855.8981    501.3088 300.2826330 +22.7857531     1779.638      72.7215      1.441     2.96     4.852925     20.46488     200.1481        21     1.106     1.012  65.68   0
       189    742.5065    501.5163 300.2472079 +22.7518709     359.4324      72.7215      1.612     3.70     5.016433     20.46488      28.7597         6     0.962     0.409 -70.72   0
       190    727.0614    498.9474 300.2432273 +22.7465087      2582.28     72.59238      1.403     3.01     5.080426     20.46488     288.4126        24     1.098     1.024  67.37   0
       191    971.6957    496.5808 300.3202943 +22.8190473      549.361     72.44453      1.837     3.63     4.698631     20.46488     51.11605        11     0.989     0.840  43.93   0
       192    937.0325    495.6420 300.3097832 +22.8084049     225.1905     72.59238      1.140     3.97     4.753919     20.46488     42.72026         8     1.038     0.572 -21.69   0
       193    631.8302    495.3826 300.2147054 +22.7169717     370.8888     72.51849      1.420     4.29     5.539255     20.46488     53.77324         9     1.026     0.705 -73.86   0
       194    514.4491    494.8503 300.1783125 +22.6816670     738.4588     72.57391      1.379     2.93     5.360507     20.46488     85.01353        11     0.989     0.701  40.93   0
       195    984.5752    493.0595 300.3254570 +22.8218884     1294.365     72.53697      1.597     3.45     4.678074     20.46488      132.319        21     1.251     1.042 -80.41   0
       196    856.1666    491.4364 300.2859226 +22.7829951     2227.226     72.57391      1.662     3.81     4.860293     20.46488     216.6537        30     1.653     1.046  65.72   0
       197    970.2654    492.1192 300.3212968 +22.8173362     812.5245     72.64774      1.748     4.07     4.703436     20.46488     65.52543        11     1.022     0.780   5.09   0
       198    609.6719    489.5897 300.2096823 +22.7086720     595.0972     72.53697      1.418     2.90      5.65651     20.46488     72.45933        10     1.025     0.665 -15.85   2
       199    608.9360    486.0425 300.2106049 +22.7074324     391.4178     72.53696      1.641     3.91     5.661839     20.46488     46.83743         7     1.137     0.648 -86.16   3
       200    395.1814    489.1962 300.1430141 +22.6443179     288.2356     72.48152      1.258     3.91     5.006341     20.46488      41.9858         6     0.783     0.559  32.03   0
       201    894.4376    486.5028 300.2994622 +22.7930302     4323.588     72.53697      1.543     2.95      4.82525     20.46488     479.2727        35     1.237     1.203 -56.68   0
       202    447.9498    488.2924 300.1597348 +22.6598653     317.5929     72.57391      1.293     4.27     5.159778     20.46488     57.09541         7     0.804     0.645   6.62   0
       203    555.1685    482.2046 300.1951010 +22.6902287     440.7708     72.51849      1.317     3.49      5.45518     20.46488     49.98696        10     0.913     0.781  30.19   0
       204    986.0627    477.2609 300.3310513 +22.8177898     807.3819     72.57391      1.698     4.11      4.67439     20.46488     67.11986        16     1.127     1.051  78.55   0
       205    126.0854    476.7626 300.0633385 +22.5601142     1176.934     72.51849      1.707     3.99     5.016154     20.46488     102.2462        22     1.319     1.119  -1.30   0
       206    787.3350    470.3467 300.2713053 +22.7563302     404.4157     72.57391      1.638     5.56     4.925044     20.46488     41.42155         9     1.283     0.679 -54.74   0
       207    118.7218    466.9886 300.0642223 +22.5551014     415.6705     72.51849      1.470     3.09     5.009264     20.46488     40.39286         7     0.747     0.644 -80.02   0
       208    982.6358    466.5829 300.3334490 +22.8136935     286.8163     72.53697      1.485     4.88     4.680548     20.46488     33.31646         6     0.987     0.682 -18.34   0
       209    726.2661    461.1736 300.2552445 +22.7354131     512.8688     72.51849      1.392     2.67     5.133556     20.46488     61.90591         8     0.769     0.683 -46.91   0
       210    615.7169    458.6280 300.2216186 +22.7015846     271.6378     72.53697      1.286     2.58     5.517737     20.46488     40.28684         5     0.703     0.461  15.80   0
       211    667.7917    456.9354 300.2383951 +22.7166895     719.1917     72.51849      1.357     2.99     5.334811     20.46488     99.37997        13     0.972     0.868  -0.49   0
       212    728.5607    449.2617 300.2598272 +22.7326759     960.8979     72.53697      1.450     3.84     5.134397     20.46488     106.6475        17     1.282     0.884 -45.51   0
       213    982.2777    449.6280 300.3388422 +22.8087099     608.4528     72.55544      1.491     3.53       4.6826     20.46488     75.36251        13     1.094     0.850 -87.99   0
       214    885.9554    445.3951 300.3101634 +22.7786715     1018.087     72.53697      1.447     3.19     4.870134     20.46488     124.3981        17     1.116     0.945 -60.50   0
       215    870.2371    442.0252 300.3063545 +22.7729988     610.1713     72.55544      1.381     3.36     4.902576     20.46488     73.90172        10     0.885     0.803  53.18   0
       216    614.3491    439.6503 300.2273535 +22.6957212     3230.527     72.57391      1.345     2.39     5.429337     20.46488      430.838        25     1.138     0.990  73.16   0
       217    974.6858    438.7220 300.3400138 +22.8033018      485.724     72.66618      1.506     3.42      4.69697     20.46488     63.64492         9     0.924     0.770 -28.36   0
       218     90.9804    430.8256 300.0673374 +22.5364057     395.2697     72.53697      1.335     2.21     5.044362     20.46488     52.05626         5     0.637     0.530 -88.43   0
       219    619.6688    427.8120 300.2328541 +22.6939116     132.4678     72.55544      1.154     3.38      5.36359     20.46488     35.05552         5     0.753     0.440  74.15   0
       220    453.8981    426.8986 300.1815185 +22.6440097     410.6255     72.73992      1.552     4.53     5.282264     20.46488     39.62248         7     1.106     0.528  50.70   0
       221    897.5874    418.7484 300.3224426 +22.7744893     479.6985     72.57391      1.212     2.54     4.862477     20.46488     77.70008         9     0.887     0.698  41.19   0
       222    984.0809    417.7318 300.3497600 +22.8000752     988.3835     72.64774      1.547     3.27     4.678495     20.46488     104.8826        18     1.183     0.961  15.37   0
       223    725.1037    413.6521 300.2703096 +22.7214044     997.0352     72.61083      1.312     2.36     5.162842     20.46488     172.4516        14     0.966     0.833 -58.32   0
       224    520.8866    414.5092 300.2064004 +22.6605111     480.7713     72.70306      1.344     3.35      5.25174     20.46488     51.40147         6     0.780     0.497  -4.81   0
       225    229.1663    411.9022 300.1164492 +22.5723821     543.2695     72.51849      1.306     2.68     4.877101     20.46488     77.69482        10     0.869     0.740 -69.77   0
       226    291.1625    407.3756 300.1372050 +22.5896562     3932.524     72.55544      1.531     2.78     4.938924     20.46488     457.0979        32     1.273     1.126  59.76   0
       227   1023.4872    406.2394 300.3657894 +22.8085577     2213.744     57.48848      1.126     3.12     4.675401     20.46488       477.79        17     1.212     0.630  84.52  24
       228    238.4278    402.1776 300.1224864 +22.5723643     7748.547     72.53697      1.523     2.92     4.901324     20.46488     821.9405        41     1.340     1.139  44.29   0
       229   1004.4129    397.3369 300.3627258 +22.8002909     1928.028     72.50001      1.616     3.04     4.765183     20.46488     198.3198        28     1.291     1.159 -86.00   0
       230    379.2565    396.3935 300.1681838 +22.6128903     4957.312     72.51849      1.438     2.65     5.344579     20.46488     581.5107        33     1.220     1.103  67.41   0
       231    623.5054    393.2472 300.2452692 +22.6851257     18847.12     72.55544      1.376     2.48     5.164882     20.46488     2286.403        57     1.270     1.194  44.48   0
       232    641.0980    393.2965 300.2507350 +22.6904066     852.0044      72.7215      1.810     6.87     5.161546     20.46488     62.40703        19     1.767     0.750 -38.61   0
       233    470.6738    394.6046 300.1972242 +22.6397552     316.8329     72.46303      1.552     3.33     5.302329     20.46488     42.10772         5     0.724     0.464  16.01   0
       234    250.6884    391.3071 300.1298285 +22.5729158     340.2684     72.70306      1.710     3.32     4.947953     20.46488     43.53883         6     0.998     0.506 -35.70   0
       235    866.9113    389.8842 300.3222430 +22.7570095     371.0888     72.66618      1.506     2.21     4.993427     20.46488      54.1629         6     0.722     0.544  36.05   0
       236    820.6666    384.0511 300.3097132 +22.7414941    -234.1936     72.55544      0.000     4.30     4.921125     20.46488     42.62543         7     0.857     0.614  66.52   0
       237    243.2063    380.0632 300.1311501 +22.5674449      466.264     72.50001      1.630     4.11      4.96057     20.46488     46.35233         7     0.989     0.601  -1.38   0
       238    957.3787    375.9023 300.3550051 +22.7800549      954.717     72.46303      1.862     4.77     4.933985     20.46488     89.76427        16     1.333     0.977 -47.24   0
       239    493.7333    374.0551 300.2110743 +22.6407556     537.1968     72.59238      1.961     5.95     5.276659     20.46488     37.70573         9     1.646     0.606  76.57   0
       240    667.0008    374.4078 300.2649377 +22.6927308     288.1516     72.35197      1.400     4.12     5.031825     20.46488     43.04794         6     0.840     0.659  36.29   0
       241    178.0585    373.1685 300.1131249 +22.5459461     2174.395     72.55544      1.539     3.15     4.904984     20.46488      224.514        23     1.257     1.026  19.75   0
       242    977.9958    363.2837 300.3655342 +22.7825926     1170.298     72.46303      1.427     2.99     4.990685     20.46488     138.1825        20     1.171     1.007  24.11   0
       243    564.2100    362.6182 300.2367366 +22.6585705      6712.73     72.50001      1.353     2.57     5.126725     20.46488     884.7513        33     1.197     1.052  81.71   0
       244    279.1326    362.1406 300.1481429 +22.5730599     701.9002     72.57391      1.364     2.81     5.141953     20.46488     82.79325        11     0.885     0.801  -9.65   0
       245    136.5157    355.1136 300.1060660 +22.5283140     487.1972     72.66618      1.461     4.40     4.968804     20.46488     61.20616        10     1.092     0.704  -6.32   0
       246    824.0389    354.5496 300.3203397 +22.7340195     236.6963     72.55544      1.058     2.05     4.915418     20.46488      57.4922         6     0.744     0.497   2.37   0
       247    677.9966    353.0536 300.2752948 +22.6898833     620.6779     72.50001      1.222     2.56     4.892866     20.46488     73.84215         9     0.780     0.712  32.03   0
       248    768.4586    351.7609 300.3039135 +22.7165856     1271.941     72.53697      1.529     2.89     4.873673     20.46488     137.4813        16     1.056     0.946  28.91   0
       249    470.8088    348.8618 300.2121115 +22.6266516     6305.104     72.48152      1.389     2.63     5.315946     20.46488     856.6924        35     1.189     1.074  71.36   0
       250    960.1650    343.8589 300.3662741 +22.7716707     596.8195     72.53697      1.432     3.37     5.059802     20.46488     75.89478        12     1.043     0.856  72.34   0
       251    862.8160    343.3551 300.3360667 +22.7424025     1517.592     72.55544      1.482     2.72     5.069614     20.46488     186.6529        21     1.188     1.007  88.74   0
       252    455.3184    337.9504 300.2108289 +22.6188777     496.1919     72.55544      1.420     3.46      5.34545     20.46488      64.2272         8     0.939     0.660  14.99   0
       253    537.9377    335.7192 300.2372820 +22.6429738      368.346     72.64774      1.167     2.14     5.138094     20.46488     70.31771         7     0.790     0.560 -27.79   0
       254    518.6908    333.7206 300.2319359 +22.6366370     370.7498     72.68462      1.471     3.03     5.195709     20.46488     40.05856         6     0.703     0.647 -29.93   0
       255    835.3828    331.1717 300.3314640 +22.7306905     640.1948     72.53697      1.401     4.01     4.986405     20.46488     68.83563        14     1.144     0.842  28.79   0
       256    358.2517    328.0711 300.1838182 +22.5869710     2515.575     72.53697      1.402     2.82     5.433343     20.46488     294.5857        24     1.157     0.988  50.44   0
       257     76.8854    325.1708 300.0972433 +22.5018483      1107.31     72.53697      1.935     3.28     5.096848     20.46488     133.3262        18     1.281     0.949  78.37   0
       258    706.3760    323.2387 300.2938152 +22.6898051     296.3904     72.55544      1.384     4.12     4.927347     20.46488     34.79884         5     0.875     0.574 -38.59   0
       259    327.6855    317.4760 300.1777434 +22.5747726     29991.59     72.64774      1.476     2.66      5.38479     20.46488     3868.958        67     1.344     1.202  59.15   0
       260    862.4545    315.1424 300.3451089 +22.7341798     1389.064     72.59238      1.374     2.79     5.078363     20.46488     159.7904        19     1.069     0.964  58.20   0
       261    817.3620    312.7622 300.3318176 +22.7200040     340.0514     72.61083      1.474     4.04     4.964361     20.46488     38.33482         6     1.093     0.427  77.31   0
       262     24.0083    305.1182 300.0873143 +22.4802455     4986.313     72.48152      1.711     3.29     5.161992     20.46488      467.798        38     1.399     1.275  50.53   0
       263    777.4645    304.3205 300.3221156 +22.7056383     498.7616     72.64774      1.279     2.64     4.953448     20.46488     62.76023         7     0.863     0.523  33.02   0
       264    201.9915    304.1196 300.1429729 +22.5332861     486.7471     72.48152      1.375     3.76     4.996526     20.46488     54.35544         9     1.006     0.630 -31.32   0
       265    425.8727    302.6574 300.2131126 +22.5999187     403.8838     72.57391      1.440     4.51     5.382618     20.46488     71.62146         9     1.098     0.653  29.77   0
       266    738.1596    297.3835 300.3121121 +22.6918822     1970.427     72.55544      1.383     2.51     4.973745     20.46488     260.3915        20     1.144     0.920  59.25   0
       267    545.9785    291.9410 300.2539909 +22.6327978     305.4723     72.53696      1.480     3.94     4.951002     20.46488     40.76992         6     0.771     0.575  43.64   0
       268    953.0472    290.4917 300.3813699 +22.7541886     573.0928     72.55544      1.286     3.25     5.130692     20.46488     71.70183        10     0.944     0.699  58.65   0
       269    399.9716    281.8867 300.2117880 +22.5861943     2369.205     72.53696      1.604     3.17     5.402991     20.46488     232.8968        27     1.307     1.051  79.60   0
       270    839.2082    274.8882 300.3509190 +22.7156466      559.422     72.44453      1.340     3.38     5.049239     20.46488     66.40699        11     0.944     0.856 -85.41   0
       271    721.5298    272.7721 300.3149127 +22.6798285     303.2622     72.51849      1.211     1.92     4.955933     20.46488     59.67135         5     0.661     0.467  67.99   0
       272    689.2087    271.8483 300.3051378 +22.6698909     207.0893     72.55544      1.168     3.92     4.934461     20.46488     31.34494         6     0.780     0.564 -46.53   0
       273    475.6688    261.0960 300.2421001 +22.6028836     1146.584     72.66618      1.357     3.22     5.421557     20.46488     140.3191        16     1.094     0.919  68.06   0
       274    282.7316    261.4246 300.1819395 +22.5452057      276.448     72.51849      1.463     4.82     5.381196     20.46488     38.15738         6     1.197     0.549  28.19   0
       275    560.5815    258.9630 300.2692382 +22.6276892      332.148     72.53697      1.565     3.95     5.081755     20.46488     37.92957         5     1.066     0.418  24.41   0
       276    720.7294    253.2875 300.3209841 +22.6739857     2294.751     72.70306      1.395     2.57      4.93964     20.46488     275.5182        23     1.066     1.026  67.92   0
       277    981.9766    247.6794 300.4042868 +22.7505228     3109.906     72.50001      1.526     2.90     5.404048     20.46488     368.4598        29     1.226     1.139 -89.66   0
       278    428.9538    236.8381 300.2354234 +22.5819258     539.5892     72.59238      1.238     2.34     5.426489     20.46488      105.962        11     0.913     0.723  79.13   0
       279    134.2861    231.0349 300.1456253 +22.4920124     653.5667     72.51849      1.662     3.60     5.495628     20.46488     86.28421        17     1.184     1.125 -56.02   0
       280    103.7367    231.2059 300.1360717 +22.4829098     1339.028     72.50001      1.625     3.74     5.397937     20.46488     125.1218        21     1.337     0.976   0.67   0
       281    997.4244    228.1291 300.4154496 +22.7495166      470.292     72.55544      1.402     4.09     5.633781     20.46488     64.43325         8     0.966     0.655  22.09   0
       282    841.2183    225.2034 300.3676631 +22.7019557     434.0594     72.46303      1.904     3.79     5.052764     20.46488     35.57703         5     0.956     0.431  44.66   0
       283    187.8537    222.8264 300.1649453 +22.5057004     565.9822     72.55544      1.617     5.13      5.56229     20.46488     66.29434        11     1.420     0.754  51.03   0
       284    982.4766    221.0253 300.4130887 +22.7430024      255.372     72.55544      1.234     3.56     5.529328     20.46488     43.30206         6     0.789     0.497 -85.68   0
       285     43.1912    220.4703 300.1207329 +22.4616876     228.5613     72.51849      1.147     4.22     5.347579     20.46488     33.87659         5     0.856     0.593 -44.84   0
       286    863.8012    217.3905 300.3772409 +22.7064632     334.5908     72.35197      1.366     3.69     5.074579     20.46488     50.13723         6     0.964     0.486  -2.95   0
       287    792.3128    214.8415 300.3557724 +22.6843451     791.0785     72.51849      1.612     2.84      5.06313     20.46488     102.8616        13     1.013     0.918 -25.00   0
       288    883.2344    207.6532 300.3864610 +22.7094743     410.6075     72.55544      1.556     3.49     5.048625     20.46488     38.08685         5     0.787     0.445 -14.97   0
       289    890.4741    203.8439 300.3899549 +22.7105437     1989.885     72.51849      1.375     2.58     5.035956     20.46488      260.207        23     1.075     1.058  49.30   0
       290    309.1237    200.8638 300.2097935 +22.5357085     2053.832     72.61083      1.443     2.83     5.442968     20.46488     231.1657        26     1.209     1.054  48.18   0
       291    386.7678    196.1098 300.2354999 +22.5575901     1127.734     72.50001      1.605     2.96     5.431954     20.46488     119.2879        19     1.189     0.925 -41.42   0
       292    788.7515    195.7468 300.3608548 +22.6777871      572.777     72.57391      1.284     2.33     5.232899     20.46488     82.09547         9     0.819     0.634  -5.76   0
       293    138.4102    196.5298 300.1580978 +22.4833366     324.3444     72.51849      1.395     3.85     5.587833     20.46488     45.82391         5     0.982     0.432 -16.46   0
       294    896.0039    192.6782 300.3953012 +22.7089849     312.4162     72.44453      1.194     2.87      5.00272     20.46488     51.12228         7     0.824     0.592  23.12   0
       295    433.8782    193.1824 300.2511150 +22.5708524     265.8192     72.53697      1.208     4.39     5.436278     20.46488     31.51315         5     0.789     0.694  48.73   0
       296    203.8103    188.1060 300.1811678 +22.5005050     741.7374     72.48152      1.501     3.50     5.514632     20.46488     83.00456        14     1.091     0.895  56.86   0
       297    322.1052    187.8156 300.2180645 +22.5358460     267.1713     72.46303      1.428     4.45     5.438032     20.46488     36.25236         5     0.795     0.709  -1.22   0
       298    741.5375    185.0537 300.3496019 +22.6605868     1719.051     72.59238      1.404     2.73     5.314327     20.46488      207.829        22     1.210     0.931  71.61   0
       299    806.4407    184.7129 300.3699492 +22.6799045     650.0898     72.51849      1.341     3.16     5.310607     20.46488     78.31117        12     0.954     0.885   2.91   0
       300    224.9671    181.5090 300.1898876 +22.5049458     575.9061     72.48152      1.636     3.59     5.452082     20.46488     58.01691        10     0.990     0.737   5.49   0
       301   1013.1239    177.9213 300.4366336 +22.7397617     771.4683     72.64774      1.452     3.01     5.835034     20.46488     103.0069        15     1.045     0.969  68.31   0
       302    745.7564    176.2773 300.3537633 +22.6593245     799.1729     72.51849      1.572     3.82     5.403868     20.46488     89.84108        16     1.295     0.802 -89.27   0
       303    515.0557    177.2953 300.2815453 +22.5905842     275.6954     72.59238      1.142     2.42     5.403407     20.46488     49.10501         7     0.687     0.671 -43.70   0
       304    666.1926    175.8156 300.3291122 +22.6353873     1277.638     72.46303      1.299     2.76     5.012101     20.46488     162.9501        15     1.009     0.858  85.80   0
       305    487.7267    172.5044 300.2745877 +22.5810271      308.651     72.66618      1.202     2.91      5.45754     20.46488     43.07158         5     0.722     0.440  24.46   0
       306    873.4780    166.4640 300.3967754 +22.6947053     905.3024     72.62929      1.528     3.38     4.940897     20.46488     105.6764        18     1.289     0.920  68.20   0
       307    861.6589    167.3961 300.3927864 +22.6914386     1442.756     72.50001      1.350     2.48      4.97471     20.46488     181.4754        19     1.099     0.933  77.48   0
       308    592.3637    167.6580 300.3087520 +22.6109496     951.6212     72.53697      1.324     2.42     5.410531     20.46488     136.0686        13     0.911     0.854 -10.38   0
       309    920.3064    165.6820 300.4116379 +22.7084848     293.2638     72.68462      1.223     4.12     4.908017     20.46488     47.80273         7     0.858     0.713 -60.41   0
       310    990.4880    156.9789 300.4363600 +22.7269662     1073.049     72.46303      1.539     3.21     5.580114     20.46488      113.975        17     1.229     0.868  42.95   0
       311     13.7935    153.1791 300.1334163 +22.4335551     507.1679     72.51849      1.542     5.03     5.629423     20.46488      58.5493        12     1.153     1.056  40.59   0
       312    224.3954    149.6510 300.2000396 +22.4956210     670.1348     72.51849      1.407     3.23     5.441363     20.46488     84.66261        14     0.984     0.954 -22.69   0
       313     86.2592    144.2631 300.1588309 +22.4527019     2255.443     72.57391      1.642     3.03     5.629423     20.46488      253.891        30     1.313     1.196  49.16   0
       314    909.5475    141.9282 300.4159836 +22.6984319     780.1895     72.53697      1.460     3.03     5.034548     20.46488     84.71254        11     0.949     0.789  10.87   0
       315     36.0449    141.2300 300.1442058 +22.4367891     361.4147     72.57391      1.458     2.75     5.629423     20.46488      62.0802         8     0.796     0.733  -7.46   0
       316    243.6751    137.7399 300.2098987 +22.4979717     5730.995     72.59238      1.525     2.79     5.424932     20.46488     704.0711        34     1.256     1.139  50.82   0
       317    225.7163    139.0412 300.2038903 +22.4929680     427.7745     72.50001      1.485     3.73     5.425006     20.46488     55.12842         7     0.951     0.584  34.54   0
       318     27.7491    132.0789 300.1445942 +22.4316756     1343.555     72.53697      1.801     4.25     5.629423     20.46488     113.1472        23     1.386     1.091  57.89   0
       319    227.2310    128.7787 300.2076886 +22.4904727     627.2227     72.53697      1.434     2.55     5.413108     20.46488     77.79041         9     0.881     0.672  -4.48   0
       320    887.8585    119.5324 300.4164786 +22.6855012     3648.093     72.57391      1.546     2.77     5.196626     20.46488     458.8847        33     1.293     1.181  66.08   0
       321    991.5648    118.2355 300.4492583 +22.7161368     2823.755     72.61083      1.596     2.95     5.516787     20.46488     325.9968        29     1.309     1.146 -76.24   0
       322    437.3707    114.5908 300.2776849 +22.5493055     549.3265     72.53697      1.298     2.61     5.442514     20.46488     68.24135        11     0.878     0.792 -86.10   0
       323    190.3789    115.2216 300.2006211 +22.4755418     334.1192     72.53697      1.445     3.15      5.47956     20.46488      47.0631         5     0.846     0.537 -35.15   0
       324    361.7753    106.6609 300.2567229 +22.5243980     737.4657     72.53697      2.240     2.55     5.427592     20.46488     61.87141         8     0.851     0.587 -15.46   0
       325    127.4157    103.1954 300.1849398 +22.4532309     792.8641     72.42603      1.794     5.90      5.58045     20.46488     84.94159        17     1.551     1.080  80.05   0
       326    488.5669    101.7980 300.2977737 +22.5609499     1685.234     72.50001      1.451     3.03     5.481399     20.46488     221.4926        23     1.202     1.027  60.57   0
       327    416.4631    102.3929 300.2751299 +22.5395408     430.2911     72.50001      1.301     3.60     5.427123     20.46488     61.00945        10     1.089     0.711  28.20   0
       328    550.2010    100.9364 300.3172495 +22.5791462     347.6106     72.53697      1.255     3.47     5.476447     20.46488     50.15143         9     0.906     0.721 -83.92   0
       329    232.1504     96.9226 300.2195457 +22.4827915     416.9877     72.53697      1.495     4.84     5.379158     20.46488     44.59966         7     0.890     0.744  48.62   0
       330    777.2383     91.6030 300.3910325 +22.6443822     300.0652     72.57391      1.316     4.74     5.431513     20.46488      40.9502         8     0.945     0.675 -16.54   0
       331    922.8341     86.2239 300.4381886 +22.6863736     275.2504     72.55544      1.287     4.43     5.358232     20.46488     40.09895         5     0.817     0.683  35.33   0
       332    262.6496     81.5235 300.2340253 +22.4874976     6087.454     72.53697      1.572     2.95     5.510826     20.46488     766.6575        39     1.397     1.118  65.25   0
       333    769.1326     82.1879 300.3915572 +22.6392489     251.9638     72.53697      1.314     2.62     5.428077     20.46488     61.89927         8     0.841     0.719  89.45   0
       334    114.0730     81.1655 300.1879320 +22.4429057     611.6216     72.51849      1.374     2.66     5.790972     20.46488      96.9845        11     0.992     0.683 -24.65   0
       335    892.0018     79.8081 300.4306492 +22.6753081     366.7549     72.35197      1.456     3.81     5.356988     20.46488     36.76339         7     0.722     0.692 -67.94   0
       336    234.5067     75.6416 300.2271766 +22.4773813     275.6928     72.55544      1.240     3.51     5.608822     20.46488     38.82291         5     1.065     0.333 -19.92   0
       337    278.0743     73.1392 300.2415418 +22.4897058     227.5599     72.57391      1.404     2.82     5.537905     20.46488     46.13556         6     0.864     0.473  30.28   0
       338     24.6103     72.2169 300.1630227 +22.4135407      461.056     72.50001      1.450     3.12     5.460519     20.46488     57.16346         7     0.831     0.635 -12.27   0
       339    508.7705     66.9614 300.3153579 +22.5569786     6280.045     72.55544      1.431     2.75     5.483591     20.46488     758.3942        30     1.245     1.050  78.07   0
       340    394.2815     67.1880 300.2796360 +22.5227807     817.5474     72.51849      1.617     2.81     5.482132     20.46488     86.71363        13     0.973     0.849 -21.10   0
       341    761.1415     56.5944 300.3973614 +22.6294950     838.3238     72.50001      1.728     3.55     5.381908     20.46488     97.38349        15     1.267     0.821  78.90   2
       342    702.3807     58.3088 300.3784872 +22.6124132     235.9803     72.46303      1.158     3.68     5.380021     20.46488     50.55998         5     0.949     0.411  44.12   0
       343    853.9222     56.1628 300.4264351 +22.6571167     437.6107     72.50001      1.324     2.62     5.352195     20.46488     61.68032         8     0.818     0.686  -0.12   0
       344    560.2607     49.7942 300.3369603 +22.5674482     535.0626     72.48152      1.620     3.25     5.563415     20.46488     65.08308        10     1.037     0.748  46.99   0
       345    201.6420     51.1277 300.2248990 +22.4604965     476.4023     72.51849      1.434     3.34     6.003085     20.46488     51.53274         7     0.891     0.540  -5.70   0
       346    637.1440     47.1239 300.3617803 +22.5896813      6382.77     72.57391      1.426     2.74     5.631811     20.46488     757.7998        34     1.288     1.078  77.50   0
       347    411.8945     46.0958 300.2919551 +22.5219879     1523.117     72.70306      1.449     2.88     5.482673     20.46488     154.0607        21     1.103     1.024  76.35   0
       348    678.2554     44.7687 300.3753560 +22.6013016     873.4037     72.55544      1.349     2.91     5.357995     20.46488     116.0463        13     1.012     0.867  -1.74   0
       349    748.0071     42.7246 300.3977617 +22.6215760     450.8627     72.46303      2.115     2.60     5.352649     20.46488     41.81032         7     0.729     0.641   4.37   0
       350    693.9932     40.7572 300.3815613 +22.6048548      709.734     72.55544      1.676     3.01     5.355095     20.46488     71.15284        11     0.946     0.766  67.12   0
       351    160.8354     38.7746 300.2162113 +22.4447284     587.0404     72.55544      1.387     3.79     6.288349     20.46488      75.0759        16     1.115     1.069 -67.41   0
       352    964.4036     38.1383 300.4667460 +22.6849604     655.2692     72.53697      1.695     4.53     5.430768     20.46488     70.28601        11     1.226     0.788 -23.55   0
       353    732.8652     36.4033 300.3950898 +22.6152286     518.4114     72.55544      1.400     4.68     5.334852     20.46488     56.89798        10     1.086     0.755  23.84   0
       354    218.5533     36.6432 300.2348533 +22.4613969      258.519     72.57391      1.638     4.15     6.123316     20.46488     33.54807         5     1.026     0.478   1.90   0
       355    696.7780     31.2567 300.3855084 +22.6029545     926.1362     72.55544      1.761     4.74     5.342163     20.46488     90.20752        17     1.607     0.820  37.58   0
       356    681.3912     31.9816 300.3804775 +22.5985608     2798.951     72.48152      1.456     2.88     5.352824     20.46488     304.5022        29     1.272     1.042  72.04   0
       357    322.2603     33.0711 300.2682769 +22.4914156      427.136     72.57391      1.400     2.09     5.650939     20.46488     71.20432         6     0.703     0.543  30.23   0
       358    767.8491     23.6488 300.4101304 +22.6220211     1518.827     72.57391      1.485     2.84     5.303681     20.46488     197.8867        24     1.234     1.073  79.18   0
       359    927.6367     22.5062 300.4603395 +22.6694691     245.8811     72.51849      1.561     5.03       5.3862     20.46488     32.80337         6     1.159     0.619  41.48   0
       360    845.9102     18.1771 300.4362472 +22.6437887     369.0997     72.46303      1.526     3.87     5.340631     20.46488     39.33942         5     0.960     0.447 -47.55   0
       361    705.8116     16.9037 300.3929757 +22.6015268     823.8685     72.44453      1.475     2.73     5.312177     20.46488     101.6312        13     0.960     0.859 -14.34   0
       362    749.0068   1014.3716 300.0825156 +22.9011431     431.1653     72.53697      2.180     4.20     3.616137     20.46488     57.56691         5     1.293     0.389  30.07   0
       363     84.6458     16.0984 300.1998701 +22.4153983     515.6747     72.57391      1.383     4.52     6.317796     20.46488     75.57388         9     1.125     0.590 -27.69   0
       364    310.4052   1012.6671 299.9464803 +22.7691536     1843.556     72.51849      4.114     5.58     7.042448     20.46488     90.30045        33     1.643     1.399  34.57   0
       365    797.7011     13.1627 300.4228371 +22.6279304      487.723     72.53697      1.466     3.97     5.302556     20.46488     45.68256         8     1.037     0.517 -37.33   0
       366    146.6200   1007.9592 299.8970736 +22.7186686     1733.265     72.57391      3.540    12.42     90.06654     20.46488      55.5582        40     2.851     1.589 -36.22  16
       367    215.4671    986.1614 299.9255735 +22.7330733     4369.644     72.50001      7.825    24.10     64.82648     20.46488     94.35847       304     5.620     4.632  86.27   3
       368    235.6424    984.8073 299.9322887 +22.7387372     5844.647     72.55544     11.430    53.75     52.83357     20.46488     110.8526       712    11.562     6.934 -55.34  19
