#   1 NUMBER                 Running object number                                     
#   2 X_IMAGE                Object position along x                                    [pixel]
#   3 Y_IMAGE                Object position along y                                    [pixel]
#   4 ALPHA_J2000            Right ascension of barycenter (J2000)                      [deg]
#   5 DELTA_J2000            Declination of barycenter (J2000)                          [deg]
#   6 FLUX_APER              Flux vector within fixed circular aperture(s)              [count]
#   7 FLUXERR_APER           RMS error vector for aperture flux(es)                     [count]
#   8 FLUX_RADIUS            Fraction-of-light radii                                    [pixel]
#   9 FWHM_IMAGE             FWHM assuming a gaussian core                              [pixel]
#  10 BACKGROUND             Background at centroid position                            [count]
#  11 THRESHOLD              Detection threshold above background                       [count]
#  12 FLUX_MAX               Peak flux above background                                 [count]
#  13 ISOAREA_IMAGE          Isophotal area above Analysis threshold                    [pixel**2]
#  14 A_IMAGE                Profile RMS along major axis                               [pixel]
#  15 B_IMAGE                Profile RMS along minor axis                               [pixel]
#  16 THETA_IMAGE            Position angle (CCW/x)                                     [deg]
#  17 FLAGS                  Extraction flags                                          
         1    276.2083     27.2285 300.2939927 +22.4783616     466.3393     72.23018      1.453     4.33      5.06134     20.38352     52.08075         9     1.238     0.541  15.60   0
         2    706.7310     17.2010 300.4312539 +22.6043968     784.7385     72.19335      1.331     2.74     4.951029     20.38352     103.7439        12     1.024     0.722  62.72   0
         3    515.4071     15.4919 300.3722231 +22.5466291     1686.642     72.15651      1.228     2.31       4.9951     20.38352     210.2601        17     1.007     0.871  85.92   0
         4    472.7243      9.3284 300.3609352 +22.5320768     1351.843     72.34054      1.338     2.44     4.744479     20.38352     153.9671        14     0.965     0.776  50.41   0
         5    578.1490      6.0088 300.3948322 +22.5626882     1217.721     72.24858      1.207     2.11     5.164039     20.38352     203.8152        14     0.906     0.794  89.21  16
         6    673.6442      5.6050 300.4247056 +22.5911588     203.7706     72.24858      1.427     3.87     4.939046     20.38352     30.32399         5     1.019     0.422  75.93  16
         7    173.3825      5.0081 300.2692268 +22.4411723     504.0858     71.60159      1.341     3.38      5.03618     20.38352     76.87067         7     0.983     0.581  52.97  16
         8    222.1558      3.0113 300.2850366 +22.4552115     439.7942     64.90031      1.383     4.20     5.056072     20.38352     56.09546        10     1.151     0.599  62.64  24
         9    918.3841      2.1695 300.5021011 +22.6634086     199.8072     60.75247      1.213     2.22     5.397712     20.38352     42.55569         5     0.699     0.453  70.42  24
        10    398.6498      1.2440 300.3405043 +22.5075705     774.8189     55.80173      1.008     1.91     4.247499     20.38352     169.8882         7     0.833     0.425   4.80  24
        11    118.6030   1009.3353 299.9259314 +22.7128720     1157.778     72.24858      7.902     9.16     31.16151     20.38352     36.65533        15     2.518     0.931  77.59  19
        12    182.9518   1017.1595 299.9433804 +22.7344360     4195.718     72.30377     10.031    35.44     15.04492     20.38352     105.8091       473     7.885     5.356  16.04  26
        13     37.9376    986.8661 299.9081871 +22.6822100      878.784     72.28538      8.125     9.11     49.97459     20.38352     36.13256        13     1.626     1.425 -66.92   3
        14     45.3671   1020.3512 299.8995944 +22.6940346     1883.144     70.77985      8.005    18.52     70.56207     20.38352     49.51749        74     3.819     2.496 -10.01  27
        15     30.3646    994.0655 299.9034916 +22.6819983     1844.576     72.24858      5.133    17.36     58.24626     20.38352     52.87332        64     3.481     2.405 -33.11   3
        16     34.7844   1013.1941 299.8986375 +22.6888058     2668.047     72.17493      6.076    21.23     70.73459     20.38352     59.81471       136     3.845     3.442 -36.67  19
        17    116.2158   1002.7557 299.9273316 +22.7102698     934.8495     72.26698      6.165     8.05     30.24763     20.38352     34.44004        13     1.866     0.970  -6.63   2
        18    485.2370   1006.2881 300.0409299 +22.8220533     528.4111     72.23018      2.213     5.19     2.626217     20.38352     48.32787         7     1.200     0.756  49.93   0
        19    151.7263   1021.2697 299.9323384 +22.7262380     1632.203     67.82538     15.482    22.69     23.17132     20.38352     51.61485        81     5.398     2.648  -6.12  27
        20    756.6472   1004.1913 300.1261276 +22.9028702     447.1396     72.26698      1.703     4.72     3.626644     20.38352     39.97152         7     1.038     0.609  36.85   0
        21    512.9612   1002.0920 300.0509245 +22.8291688     1704.669     72.24858      1.741     3.47     2.791812     20.38352     124.8768        24     1.210     1.160 -85.75   0
        22    604.6220   1011.3531 300.0764440 +22.8593253     6816.818     72.26698      1.680     3.35     2.852744     20.38352      564.115        42     1.389     1.247  27.14   0
        23    174.7739   1001.8766 299.9458141 +22.7276009     790.2315     72.26698      5.596     5.53     14.78089     20.38352     35.11447         5     1.162     0.742  79.99   1
        24    690.0591    998.6151 300.1071987 +22.8812993     260.3647     72.21177      1.361     5.91     3.194867     20.38352     39.26275         9     1.283     0.767 -80.40   0
        25    406.9357    998.6141 300.0190645 +22.7963556     1004.404     72.21177      1.960     4.73      3.55615     20.38352     83.56567        19     1.410     1.075 -26.26   0
        26    337.5440    996.6345 299.9981246 +22.7749616      6557.45     72.26698      1.703     3.41     3.795111     20.38352     591.7551        42     1.353     1.305  31.88   0
        27     63.2198    996.3184 299.9129632 +22.6925108      1278.63     72.23018      4.960     9.82     46.66769     20.38352     45.24753        25     2.097     1.282 -27.26   0
        28     44.8916    984.1406 299.9112342 +22.6835175     841.5148     72.32216      2.233     5.74     45.48682     20.38352     48.63264        11     1.225     0.879  69.46   0
        29    370.3009    983.5568 300.0125701 +22.7810437     542.5804     72.24858      1.714     4.89     3.578023     20.38352     44.32701        10     1.128     0.859 -55.22   0
        30     50.3678    962.7505 299.9198974 +22.6790333     977.7563     72.28538      6.794    11.78     29.89537     20.38352     35.82549        15     3.299     1.170  -9.59   3
        31     25.2650    978.7303 299.9068994 +22.6760732     1320.197     72.28538      5.008    16.02     47.85771     20.38352       42.245        43     3.737     1.910  78.97   3
        32     33.5092    979.1367 299.9093277 +22.6786655     1911.708     72.34054      9.899    16.38     45.22361     20.38352     51.64549        57     2.817     2.646  81.80   3
        33     39.8302    974.5695 299.9127775 +22.6792552     1109.684     72.23018      6.978    10.53      40.5566     20.38352     52.84865        22     3.397     0.909  56.15   3
        34     28.7078    966.5188 299.9119434 +22.6736084     1978.865     72.39565      4.246    22.18     37.13057     20.38352     44.67914        89     5.501     2.484 -23.86  19
        35     36.1319    965.0961 299.9147122 +22.6754303     1755.418     72.37729      6.233    12.36     34.10057     20.38352     51.18648        36     2.402     1.871  -8.67   3
        36     72.2505    975.2256 299.9226343 +22.6891791     455.9179     72.26698      2.307     7.03     31.98957     20.38352     38.48976         8     1.550     0.895 -43.87   0
        37    534.3684    972.4490 300.0672377 +22.8270897     403.2873     72.28538      1.546     4.87     3.240331     20.38352     40.91734         7     0.912     0.736  63.55   0
        38    382.1170    971.1519 300.0202836 +22.7810331     273.1729     72.26698      1.392     4.84     3.599286     20.38352      27.0574         6     1.135     0.586  23.95   0
        39    672.8807    964.1227 300.1130768 +22.8662507     790.1716     72.35892      1.749     6.61     3.281303     20.38352     51.87376        16     1.528     0.801  47.71   0
        40    998.8653    963.6239 300.2148452 +22.9638459     444.9644     72.23018      1.635     5.07     3.268852     20.38352     45.06992         7     0.998     0.729  45.89   0
        41    484.7418    959.0786 300.0561440 +22.8083656     455.5094     72.28538      1.917     5.79     3.323768     20.38352     46.53263         9     1.229     0.768 -66.57   0
        42    707.5373    958.3444 300.1257530 +22.8749867     950.8875     72.30377      1.552     3.34     3.519261     20.38352     96.64322        16     1.059     0.974  67.05   0
        43    883.9017    975.2050 300.1752255 +22.9327088     2146.104     72.13808      1.597     3.30     3.178072     20.38352     172.8535        23     1.199     1.077 -27.51   0
        44    729.7243    951.9901 300.1347333 +22.8798170     11537.69     72.23018      1.567     3.03     3.619692     20.38352     1069.823        55     1.386     1.294  66.65   0
        45    775.3685    951.8298 300.1490071 +22.8934583     491.9468     72.24858      1.490     4.20     3.475654     20.38352     50.68682        13     1.158     0.967  32.96   0
        46    920.6068    951.6193 300.1943474 +22.9369418     537.8239     72.21177      1.849     3.59     3.240335     20.38352     46.16565         8     0.948     0.650  -1.45   0
        47     41.2524    943.3662 299.9233749 +22.6707418     276.3011     72.26698      1.608     5.84      17.2011     20.38352     39.20314         8     1.061     0.906  39.16   0
        48    781.7607    939.3479 300.1550619 +22.8917927     412.4974     72.23018      1.466     4.75     3.468553     20.38352     48.95127         8     0.958     0.668  56.56   0
        49    434.7017    940.1365 300.0467382 +22.7879188     522.5223     72.35892      1.528     4.23     3.673891     20.38352     43.03811         9     0.904     0.716  24.83   0
        50    738.3857    934.0589 300.1432683 +22.8772687     1285.788     72.23018      1.486     3.27     3.575176     20.38352     113.5648        18     1.119     0.960  51.19   0
        51     31.6222    935.3036 299.9230077 +22.6655397     165.7547     72.15651      1.148     2.84     11.59236     20.38352     40.46471         5     0.717     0.455 -72.53   0
        52    920.6612    933.2698 300.2003373 +22.9316902      524.817     72.28538      1.962     5.60     3.419994     20.38352     41.72192        10     1.244     0.710  -7.58   0
        53    590.3742    931.2021 300.0980989 +22.8320587     547.4682     72.19335      1.638     4.52     3.629221     20.38352     49.46904         9     1.011     0.801  -2.19   0
        54     18.1562    928.3340 299.9210936 +22.6594989     4144.779     72.23018      0.782     3.48     6.622122     20.38352      1706.07        13     0.814     0.430 -66.34   0
        55    885.1906    924.7194 300.1920612 +22.9186028     299.2878     72.19335      1.511     5.07     3.465657     20.38352     33.40551         7     1.202     0.604  16.04   0
        56    776.2427    927.6708 300.1571432 +22.8867869     825.5732     72.21177      1.697     3.53     3.497617     20.38352     63.21238        12     0.963     0.841 -45.53   0
        57    824.5827    918.4713 300.1752022 +22.8986397     671.8135     72.26698      1.546     3.40     3.471279     20.38352     64.89765        14     1.023     0.943 -66.45   0
        58    676.1599    917.8887 300.1291469 +22.8539680     681.8869     72.23018      1.483     3.73     3.597766     20.38352     65.47702        12     1.014     0.828 -74.37   0
        59    388.7247    914.2711 300.0408522 +22.7667053     4139.391     72.32216      1.495     2.87     3.684702     20.38352     439.5624        26     1.119     1.108 -70.15   0
        60    687.2833    914.8340 300.1336058 +22.8564273     500.0327     72.21177      1.494     3.37     3.590883     20.38352     72.21669        13     1.069     0.839 -12.39   0
        61    167.5725    902.9188 299.9757838 +22.6970763     265.4381     72.26698      1.230     3.41     5.245082     20.38352     37.71828         5     0.771     0.436  68.52   0
        62     51.0651    902.6027 299.9396881 +22.6620074     572.3555     72.26698      2.603     6.83     6.112702     20.38352     36.81355        10     1.416     0.925  21.53   0
        63     30.6485    901.0629 299.9338476 +22.6554357     531.4905     72.28538      4.243     6.57     5.828031     20.38352     29.90773        10     1.488     0.815  49.88   0
        64    114.0133    900.1290 299.9600485 +22.6801980      818.014     72.24858      1.759     4.26     6.102186     20.38352      75.1362        15     1.207     1.033 -29.96   0
        65     22.1857    897.9678 299.9322263 +22.6520077     469.3313     72.24858      2.687     6.50     5.634441     20.38352     42.01464         9     1.258     0.945  33.14   0
        66     91.0608    897.0742 299.9539115 +22.6724315     1670.911     72.28538      1.659     3.71     6.173076     20.38352     151.4041        25     1.244     1.182 -47.12   0
        67    962.7811    885.8956 300.2288904 +22.9307124     2165.619     72.15651      1.622     3.29     3.727339     20.38352     191.2277        26     1.224     1.176  45.48   0
        68    917.1227    884.3577 300.2151529 +22.9165865     2083.754     72.21177      1.563     3.26     3.599012     20.38352     169.6371        23     1.165     1.076   9.90   0
        69    622.9745    884.3438 300.1234995 +22.8283921      463.875     72.24858      1.774     4.81     3.753066     20.38352     44.14548         7     0.984     0.666 -22.43   0
        70    393.9851    884.3179 300.0522358 +22.7596935     259.2438     72.23018      1.171     3.45     3.714821     20.38352      43.0458         6     0.850     0.599  43.24   0
        71    700.5187    878.2430 300.1496365 +22.8498954     597.5351     72.21177      1.405     2.93     3.584502     20.38352     75.88162        12     0.980     0.839  46.90   0
        72    123.4272    878.6420 299.9699650 +22.6768655     439.1907     72.26698      1.358     3.65     4.930031     20.38352     43.87382         9     0.967     0.682  31.26   0
        73    568.7422    872.4050 300.1104983 +22.8087013     4842.614     72.21177      1.411     2.54     3.899971     20.38352      547.522        33     1.154     1.132  74.34   0
        74     58.0688    873.1320 299.9514526 +22.6556644     444.0627     72.30377      1.902     5.61      4.75113     20.38352     36.59926        10     1.147     0.772 -19.86   0
        75    370.8460    869.1640 300.0499686 +22.7484046     624.8069     72.28538      1.469     5.15      3.72297     20.38352      79.0331         9     1.205     0.623  64.52   0
        76    118.8892    866.2697 299.9725804 +22.6719568       1398.1     72.41402      1.566     3.45     4.307525     20.38352     121.8326        22     1.148     1.114 -66.51   0
        77    589.0809    864.8398 300.1192922 +22.8126307     636.5065     72.21177      1.346     3.46     3.900777     20.38352     71.21816        12     0.942     0.886 -27.37   0
        78    138.3288    863.4174 299.9795488 +22.6769748     491.5909     72.26698      1.665     3.91     4.246671     20.38352     47.52784         8     0.941     0.629  15.51   0
        79    505.7334    855.5041 300.0963836 +22.7849532     355.0752     72.37729      1.283     3.62     3.861223     20.38352     43.61844         6     0.872     0.589  67.17   0
        80    744.6982    852.0659 300.1719179 +22.8556286     4142.552     72.34054      1.435     2.54     3.623717     20.38352     468.3739        31     1.154     1.119 -75.25   0
        81    961.5891    852.1303 300.2395062 +22.9206591     1168.781     72.23018      1.616     3.75     3.808974     20.38352     105.2672        20     1.185     1.099  51.74   0
        82    999.9074    852.3173 300.2513966 +22.9321954     407.5297     72.39565      1.440     4.21     3.876375     20.38352     33.20511         7     0.746     0.678 -18.72   0
        83    153.2217    846.3802 299.9897196 +22.6765614     395.2216     72.24858      1.447     4.96     4.208819     20.38352     51.90281         8     1.017     0.686 -46.95   0
        84    461.8606    844.5494 300.0862939 +22.7686501     600.7565     72.30377      1.279     2.65     3.836602     20.38352     79.08398         8     0.786     0.726 -35.00   0
        85    107.9992    842.7890 299.9768358 +22.6619572     979.9084     72.06432      1.568     3.98     4.204934     20.38352     92.80903        17     1.273     0.922 -30.78   0
        86    257.7615    834.7253 300.0260057 +22.7045952     53297.94     72.21177      1.519     2.74     4.137851     20.38352     6099.936        98     1.412     1.368  15.32   0
        87    523.5790    837.8092 300.1076952 +22.7852293     438.3263     72.23018      1.323     2.85     3.926849     20.38352     58.33128         7     0.789     0.669 -14.87   0
        88    515.5708    833.6232 300.1065644 +22.7816263     1602.661     72.24858      1.414     2.37     3.923225     20.38352     217.7054        21     1.096     1.013 -23.00   0
        89    928.6495    832.6636 300.2355680 +22.9051974     865.3304     72.30377      1.538     3.23     3.843317     20.38352     99.68228        17     1.136     0.999  88.83   0
        90    185.7688    832.7867 300.0042569 +22.6824333     396.7405     72.23018      1.479     4.28     4.175047     20.38352     52.85197        10     0.990     0.820  17.28   0
        91    544.7083    829.6561 300.1169249 +22.7892273      836.807     72.30377      1.309     2.52     3.955665     20.38352     116.3549        14     0.976     0.808  21.58   0
        92    555.4738    828.1258 300.1207741 +22.7920170     595.4229     72.30377      1.305     2.80     3.950354     20.38352     74.14923        12     0.900     0.850 -14.33   0
        93    875.3865    825.5663 300.2212703 +22.8871965     409.8209     72.24858      1.467     5.10      3.82808     20.38352      39.3709         9     1.021     0.719  33.04   0
        94    660.8956    824.2852 300.1548506 +22.8225286     383.3614     72.43237      1.341     3.51     3.846075     20.38352     56.35635         9     0.933     0.727 -52.44   0
        95    698.5569    814.5291 300.1697554 +22.8310204     718.4882     72.21177      1.281     2.57     3.848422     20.38352     86.23277        12     0.870     0.823 -48.99   0
        96    307.4585    811.9583 300.0488648 +22.7129791     31227.94     72.24858      1.444     2.60     4.071743     20.38352     3883.244        73     1.311     1.267  35.58   0
        97    321.7152    812.4405 300.0531416 +22.7173950     2030.248     72.21177      1.459     2.72     4.038693     20.38352     227.3389        22     1.149     1.013  52.67   0
        98    830.6424    807.7391 300.2131223 +22.8686669     2723.617     72.23018      1.336     2.49     3.949438     20.38352     322.2072        24     1.085     0.979 -74.35   0
        99    318.6016    806.3007 300.0541704 +22.7146999     639.1016     72.11965      1.566     2.57     4.058118     20.38352     81.39785        10     0.874     0.755  61.78   0
       100    859.6078    805.9628 300.2227291 +22.8768385     383.8495     72.26698      1.621     4.76      3.96394     20.38352     36.52046         7     0.871     0.736  15.44   0
       101    190.0189    803.8416 300.0149935 +22.6754099     624.1066     72.26698      1.294     3.21     4.110481     20.38352     100.8728        14     1.084     0.861 -52.09   0
       102    588.4924    803.7501 300.1389838 +22.7949243     863.1248     72.28538      1.270     2.55     3.951631     20.38352     125.9026        14     0.925     0.851  55.38   0
       103    425.2119    803.8714 300.0881234 +22.7459870     286.1464     72.26698      1.191     2.64     4.005551     20.38352      74.7457         9     0.923     0.698 -49.64   0
       104    482.8797    801.8043 300.1067407 +22.7626919     334.9424     72.15651      1.398     3.66     4.002552     20.38352     37.16425         6     0.886     0.619 -12.17   0
       105    435.4764    798.6201 300.0930253 +22.7475596     864.5861     72.24858      1.346     2.55     4.018948     20.38352     113.0048        15     0.972     0.873  31.68   0
       106    836.9506    795.4039 300.2191013 +22.8670158     410.0079     72.23018      1.141     3.33     4.005506     20.38352     74.70039         9     0.951     0.673  36.08   0
       107    337.7641    794.9432 300.0638244 +22.7171918     267.1158     72.24858      1.252     3.37     4.048639     20.38352     44.65689         7     0.869     0.580 -60.95   0
       108    381.4833    793.7573 300.0778089 +22.7299678     399.0375     72.21177      1.286     3.00     4.030454     20.38352     54.69521         6     0.690     0.640  60.87   0
       109    293.4217    794.5329 300.0501679 +22.7037698       232.48     72.23018      1.083     3.17     4.107454     20.38352     46.99265         5     0.742     0.460 -19.36   0
       110    589.8362    792.5582 300.1430428 +22.7921155     319.7184     72.32216      1.393     4.92     3.953847     20.38352     33.72604         6     0.931     0.735 -82.96   0
       111     23.6374    793.1295 299.9667826 +22.6223978     481.5596     72.21177      1.582     2.64     4.094428     20.38352     52.43531         7     0.731     0.624 -59.31   0
       112    814.5260    790.5456 300.2136923 +22.8588997     321.5688     72.26698      1.010     3.97        4.016     20.38352     57.32429         6     0.906     0.498   0.79   0
       113    187.9302    787.9457 300.0195145 +22.6702253     566.8915     72.28538      1.325     3.41     4.080679     20.38352     76.28946        10     1.105     0.651  -7.91   0
       114    510.8028    778.3976 300.1230449 +22.7643507     372.2326     72.02741      1.168     2.83     3.984848     20.38352     60.71846         8     0.875     0.619 -10.15   0
       115    480.6966    776.5803 300.1142659 +22.7547999     681.5807     72.15651      1.362     2.48     4.007691     20.38352     80.89344         8     0.848     0.602 -66.77   0
       116    389.8229    775.6356 300.0862975 +22.7272712      278.877     72.26698      1.351     2.60     4.056016     20.38352     37.99622         5     0.718     0.451  17.44   0
       117    896.9657    772.9998 300.2450984 +22.8785684      1823.98     72.21177      1.416     2.69      4.03711     20.38352     504.7033        27     1.123     1.077 -46.89   0
       118    502.4547    774.0366 300.1218650 +22.7605957     1384.595     72.26698      1.273     2.47     3.991701     20.38352     184.0257        13     0.896     0.784  11.94   0
       119    421.8591    773.4942 300.0969609 +22.7362667     419.4997     72.32216      1.451     3.71     4.056169     20.38352     45.05771         6     0.798     0.496   5.69   0
       120    630.1383    769.5139 300.1630882 +22.7975863     316.3565     72.34054      1.457     4.10     3.951689     20.38352     41.75086         5     0.762     0.631  66.38   0
       121    583.8227    769.0580 300.1488143 +22.7835680     357.2078     72.24858      1.231     1.72     3.954529     20.38352     69.34425         5     0.696     0.453  34.61   0
       122    885.5190    764.3748 300.2443350 +22.8726612     1727.097     72.23018      1.340     2.49     4.032255     20.38352     188.2374        19     1.080     0.933  71.99   0
       123    264.1948    758.8433 300.0526877 +22.6847648     268.3736     72.26698      1.588     3.92     4.088499     20.38352     26.70834         5     0.996     0.441 -44.11   0
       124    248.2579    758.4966 300.0478455 +22.6798835     785.7358     72.32216      1.393     3.14     4.067577     20.38352     90.77927        14     1.022     0.855  16.06   0
       125    711.7957    755.6719 300.1930246 +22.8180938     2570.192     72.19335      1.376     2.39     3.906563     20.38352     325.2458        24     1.231     0.961   4.53   0
       126    916.5338    754.5449 300.2572023 +22.8791319     1659.814     72.30377      1.462     2.59     4.098983     20.38352     181.5137        16     1.003     0.930  33.43   0
       127    221.2141    754.2527 300.0408184 +22.6705517     197.8389     72.28538      1.209     3.90     4.032114     20.38352      27.5706         5     0.947     0.459  45.86   0
       128    794.2936    741.5401 300.2233262 +22.8387645     572.3332     72.34054      1.426     2.78       4.0931     20.38352     67.71041        10     0.852     0.766   7.44   0
       129     97.1860    742.1752 300.0062007 +22.6298680     597.4722     72.24858      1.432     3.41     3.969039     20.38352     69.88383        10     0.971     0.672  25.20   0
       130    830.2112    732.6595 300.2374088 +22.8469788     145900.4     72.21177      1.340     2.31     4.084899     20.38352     20148.37       150     1.364     1.327  47.12   0
       131    592.5482    736.5257 300.1621115 +22.7768472     383.4105     72.26698      1.355     3.35     3.953507     20.38352     58.68338         6     0.907     0.453 -74.72   0
       132    977.1826    734.3905 300.2826709 +22.8915144     1271.996     72.19335      1.442     2.73     4.170137     20.38352      154.447        17     0.990     0.948  -9.64   0
       133    682.6444    732.8583 300.1913631 +22.8028057     746.0093     72.26698      1.424     3.29     3.951966     20.38352     95.07417        15     1.188     0.770  83.87   0
       134    863.1890    725.5443 300.2500025 +22.8548179     381.6434     72.24858      1.337     3.27     4.046066     20.38352     61.86325         9     0.932     0.701  50.83   0
       135    516.4337    721.6561 300.1432511 +22.7497567     1646.718     72.26698      1.222     2.33     4.048423     20.38352     218.1788        17     0.979     0.862  78.90   0
       136    697.6743    718.7757 300.2006246 +22.8032682     9394.459     72.28538      1.276     2.18     3.980957     20.38352     1394.828        43     1.146     1.108  57.01   0
       137    179.2019    719.8026 300.0389620 +22.6480658     290.0258     72.02741      1.395     4.37     3.979834     20.38352     39.65993         6     1.193     0.456  59.47   0
       138    199.1980    714.0888 300.0470351 +22.6524273     4877.117     72.17493      1.378     2.50      4.00678     20.38352     579.4031        32     1.141     1.114 -15.50   0
       139    281.1367    712.0881 300.0731596 +22.6764373     1028.504     72.35892      1.335     2.81     4.139719     20.38352     128.0365        16     1.057     0.831  46.35   0
       140    157.0289    709.7722 300.0353322 +22.6385359      513.748     72.21177      1.394     3.52     3.958612     20.38352     62.00772        10     0.900     0.832  16.66   0
       141    489.5182    707.5381 300.1394644 +22.7376339     632.8971     72.34054      1.138     2.42     4.123521     20.38352     89.75716        12     0.861     0.798   5.54   0
       142    481.1218    699.6482 300.1394166 +22.7328518     3266.748     72.24858      1.280     2.27     4.160865     20.38352     467.0638        25     1.091     0.937  73.91   0
       143    471.4164    693.4556 300.1384096 +22.7281642      1469.06     72.19336      1.243     2.25     4.206336     20.38352     179.8421        15     0.917     0.850 -88.46   0
       144    399.7944    692.7770 300.1163444 +22.7064901      406.456     72.23018      1.375     4.07      4.27597     20.38352     51.63594         9     1.016     0.778 -68.93   0
       145    666.4832    691.9563 300.1996295 +22.7862186     221.8013     72.21177      1.416     4.95     4.079225     20.38352     35.45866         6     1.003     0.692 -35.53   0
       146    864.9966    691.1987 300.2617346 +22.8454952     302.6454     72.02741      1.104     2.12     4.176017     20.38352     65.62985         7     0.738     0.592   5.58   0
       147    382.0665    690.3868 300.1116064 +22.7004873     253.1563     72.19335      1.252     3.34     4.265215     20.38352      42.2073         7     0.751     0.659  24.23   0
       148    134.6368    689.6902 300.0349027 +22.6260578     631.4351     72.23018      1.502     3.20     3.958612     20.38352     77.33159        12     1.038     0.819  14.82   0
       149    149.0877    688.0834 300.0399158 +22.6299333     755.0471     72.35892      1.373     3.50     3.958612     20.38352       85.284        11     1.124     0.614  64.44   0
       150     34.6161    687.5685 300.0045181 +22.5954327     285.0067     72.23018      1.378     4.03     4.341798     20.38352     33.59474         5     0.942     0.492   3.92   0
       151    205.7170    685.0748 300.0584948 +22.6460620     373.1046     72.35892      1.323     3.92     4.034923     20.38352     45.02684         7     0.871     0.717 -85.58   0
       152    174.7656    685.1373 300.0488540 +22.6367932     528.2615     72.24858      1.487     3.09     3.982353     20.38352     63.23213        10     0.904     0.758  39.38   0
       153    918.2911    684.5938 300.2804986 +22.8595660     551.0379     72.15651      1.377     2.56     4.183222     20.38352     76.99879         8     0.857     0.638 -42.40   0
       154    495.2207    683.7907 300.1489605 +22.7325287     534.4811     72.23018      1.264     2.44     4.223911     20.38352     63.22615         8     0.772     0.655  32.41   0
       155    396.0974    683.0648 300.1183520 +22.7025946     1707.337     72.35892      1.330     2.48     4.307761     20.38352     226.8446        20     1.066     0.953  61.25   0
       156    971.7795    680.4911 300.2985132 +22.8744116     863.3273     72.17493      1.402     2.61      4.18096     20.38352     103.3984        14     0.948     0.877  29.30   0
       157     50.1436    678.2729 300.0123633 +22.5974278      19521.4     72.28538      1.509     2.79      4.28837     20.38352     1987.022        63     1.379     1.286  41.21   0
       158    481.0506    678.4847 300.1462754 +22.7267569      1078.82     72.23018      1.309     2.32     4.251941     20.38352     143.0785        15     1.091     0.822 -58.25   0
       159    516.2491    677.5798 300.1575251 +22.7370515     372.6783     72.24858      1.368     2.59     4.246079     20.38352     49.87846         6     0.724     0.617  56.98   0
       160    398.3028    675.5411 300.1214842 +22.7010972     298.5682     72.32216      1.322     4.28     4.336384     20.38352     32.20078         7     0.940     0.555 -55.99   0
       161    899.2435    664.5035 300.2810915 +22.8480883     1056.734     72.26698      1.233     2.27     4.215786     20.38352     159.1922        15     0.976     0.849 -38.54   0
       162    765.8438    662.5852 300.2401342 +22.8075654     341.7706     72.26698      1.183     2.72     4.227009     20.38352     66.55611         9     0.931     0.653  22.78   0
       163     62.4246    662.8804 300.0211821 +22.5967000     369.2116     72.23018      1.306     2.83     4.222488     20.38352     52.50957         6     0.734     0.619  28.53   0
       164    444.5178    658.9573 300.1412550 +22.7101978     515.2845     72.21177      1.304     3.26     4.403017     20.38352     59.02792         9     0.943     0.680 -61.81   0
       165    236.9108    657.8669 300.0770370 +22.6476165     243.3518     72.37729      1.477     5.18     4.131074     20.38352     45.76501         7     1.265     0.747  56.24   0
       166    839.6396    657.3246 300.2648438 +22.8281679     875.7529     72.21177      1.353     2.36     4.280938     20.38352     105.3588         9     0.819     0.653 -80.33   0
       167    834.9390    657.1445 300.2634371 +22.8267077     440.5285     72.32216      1.411     2.87     4.288162     20.38352     52.50561         6     0.887     0.453 -32.65   0
       168    401.0873    651.4492 300.1301826 +22.6950192     767.7678     72.24858      1.184     2.20     4.436635     20.38352     111.6664         8     0.718     0.683 -87.96   0
       169    549.0970    649.8380 300.1767694 +22.7389374     513.0389     72.24858      1.303     2.23     4.390826     20.38352     77.74178         8     0.781     0.644  36.58   0
       170    596.2864    648.4759 300.1919045 +22.7526932     506.3677     72.37729      1.087     2.68     4.318256     20.38352     81.39264         6     0.789     0.553 -63.34   0
       171    566.9696    647.9906 300.1829342 +22.7437652     586.7959     72.24858      1.400     2.36     4.370127     20.38352     88.91341         9     0.778     0.726  50.97   0
       172    445.4683    646.9954 300.1454393 +22.7070500     1110.404     72.21177      1.401     2.31     4.463471     20.38352     141.1945        13     1.010     0.745  82.27   0
       173    879.2106    642.6581 300.2819478 +22.8358111     3197.963     72.21177      1.275     2.20     4.237559     20.38352      496.638        22     1.007     0.964 -22.75   0
       174    410.9898    642.6420 300.1361264 +22.6954615     1704.685     72.24858      1.263     2.31     4.487001     20.38352      239.098        17     0.956     0.927 -33.55   0
       175    977.1731    640.6606 300.3131452 +22.8645835     843.1047     72.24858      1.451     2.80      4.19017     20.38352     104.9842        14     0.962     0.902 -21.09   0
       176    776.1147    639.8731 300.2507185 +22.8041206     422.3409     72.35892      1.325     2.40      4.26785     20.38352     56.27322         6     0.725     0.555 -36.58   0
       177    761.2832    638.5145 300.2465384 +22.7992860     359.9101     72.37729      1.580     3.72     4.224305     20.38352     48.75146         5     0.824     0.614 -46.81   0
       178    386.4646    637.8408 300.1300571 +22.6867289     272.6072     72.21177      0.997     3.44     4.455988     20.38352     48.33307         5     0.999     0.342  67.24   0
       179    440.3201    633.4991 300.1482246 +22.7016329     398.6053     72.37729      1.446     2.97     4.534856     20.38352     52.53376         6     0.868     0.676  17.48   0
       180    918.3737    632.1681 300.2975688 +22.8445301     282.7192     72.24858      1.094     2.49      4.22623     20.38352     54.39662         5     0.739     0.422  67.02   0
       181    274.3156    629.5005 300.0978875 +22.6506995     9001.724     72.41402      1.300     2.31     4.331831     20.38352     1089.587        37     1.135     1.062  42.23   0
       182    396.7738    626.5078 300.1369481 +22.6865683     8809.175     72.19335      1.250     2.19     4.519925     20.38352     1228.509        38     1.114     1.059  15.02   0
       183    642.9058    622.6443 300.2148196 +22.7592511     488.0792     72.26698      1.478     3.65     4.373987     20.38352     62.84213         7     0.771     0.746  74.96   0
       184   1001.4208    621.7603 300.3268527 +22.8664155     893.1304     72.28538      1.391     2.64     4.176142     20.38352     111.2874        14     1.002     0.854   0.79   0
       185    808.5081    620.3361 300.2671648 +22.8082158     1975.668     72.35892      1.280     2.22     4.333408     20.38352     245.0839        21     1.112     0.885  59.02   0
       186    893.0718    617.7026 300.2943819 +22.8327946     12138.54     72.37729      1.302     2.15     4.240974     20.38352     1890.487        46     1.139     1.124  66.81   0
       187    457.3520    616.1080 300.1591775 +22.7017486     11499.94     72.26698      1.253     2.14     4.625199     20.38352     1641.392        42     1.116     1.047  76.20   0
       188    627.0322    611.9746 300.2133441 +22.7514297     499.8847     72.24858      1.218     1.82     4.454565     20.38352     105.2612         9     0.731     0.681 -41.96   0
       189    184.7681    611.6200 300.0758604 +22.6187080      1152.17     72.24858      1.304     2.45     3.987321     20.38352     162.5234        15     0.941     0.878 -19.15   0
       190    342.8048    610.4694 300.1253727 +22.6657811     268.8844     72.21177      1.043     2.72     4.481879     20.38352     50.89314         7     0.809     0.594 -65.13   0
       191    431.5117    608.9446 300.1534649 +22.6919446     412.0726     72.28538      1.318     2.91     4.645499     20.38352     53.30212         8     0.838     0.661  40.36   0
       192    389.0293    604.2526 300.1417723 +22.6778592     4382.552     72.26698      1.264     2.19     4.573758     20.38352     676.0119        30     1.063     1.031 -30.52   0
       193    732.0518    604.0413 300.2486361 +22.7806259     836.9621     72.24858      1.265     2.22     4.207042     20.38352     146.0848        11     0.825     0.764  25.30   0
       194    367.3740    602.5515 300.1355885 +22.6708771     1338.774     72.26698      1.249     2.17     4.524053     20.38352     172.0587        15     0.930     0.823 -83.20   0
       195    121.6246    602.2026 300.0592974 +22.5970629     954.5959     72.19335      1.629     2.71      3.88877     20.38352     102.1094        14     1.032     0.813  -5.72   0
       196    808.8749    599.6683 300.2739971 +22.8023890     1646.741     72.32216      1.369     2.55     4.348032     20.38352     196.8024        19     1.095     0.896 -32.99   0
       197    505.6482    591.7956 300.1821106 +22.7092500     198663.6     72.23018      1.240     2.00     4.691062     20.38352     32567.99       201     1.397     1.348  -0.03   0
       198    329.4323    598.1683 300.1252114 +22.6582408     308.9894     72.28538      1.202     4.08     4.492352     20.38352     46.14626         7     0.963     0.494 -87.68   0
       199    909.1259    598.4141 300.3056572 +22.8320623     149.5663     72.26698      1.104     3.51     4.261424     20.38352     46.32094         5     0.785     0.454  17.44   0
       200    689.1229    596.4963 300.2377143 +22.7655943     817.1129     72.37729      1.229     2.82     4.388546     20.38352     119.4851        11     0.977     0.669  76.84   0
       201    191.7873    591.8165 300.0844782 +22.6151330      3229.61     72.19335      1.406     2.48     4.083745     20.38352     469.8872        29     1.172     1.070  53.62   0
       202    893.7453    593.2126 300.3025522 +22.8259605      327.701     72.24858      1.191     2.68     4.271005     20.38352     46.09756         6     0.727     0.610  45.76   0
       203    757.6100    587.6946 300.2619127 +22.7835895     658.5377     72.19335      1.422     2.40     4.283051     20.38352     80.67568         8     0.872     0.576 -17.39   0
       204    537.4007    578.6871 300.1962548 +22.7150056     181.6306     72.13808      0.991     3.11     4.678257     20.38352     62.34771         6     0.845     0.549  29.56   0
       205    396.2304    572.3544 300.1543793 +22.6708640     2806.662     72.28538      1.350     2.33     4.616418     20.38352     381.0255        27     1.337     0.962 -89.85   0
       206    240.4894    574.6918 300.1051832 +22.6248288     379.3054     72.41402      1.289     3.30     4.399588     20.38352     49.04476         7     0.853     0.621 -13.08   0
       207    846.1111    571.6773 300.2947011 +22.8055039     172.4044     72.39565      1.003     2.61     4.338879     20.38352     45.01257         5     0.745     0.424 -18.71   0
       208    807.6516    568.6329 300.2837027 +22.7931074     414.4734     72.26698      1.236     3.42     4.391798     20.38352     61.42798         7     0.940     0.542 -27.73   0
       209     55.9375    599.3443 300.0398178 +22.5765340     373.4113     72.30377      1.917     4.35     4.315598     20.38352     32.03125         6     0.915     0.588  87.49   0
       210    627.1425    567.2718 300.2279072 +22.7386268     299.8341     72.28538      1.248     2.18     4.590751     20.38352     56.67491         6     0.724     0.528  56.18   0
       211    713.4578    560.8810 300.2568702 +22.7626582     412.0953     72.28538      1.138     3.38     4.433593     20.38352     71.95432         9     1.000     0.763  64.25   0
       212    793.2772    558.2797 300.2825873 +22.7858268     1557.676     72.35892      1.140     2.08     4.403861     20.38352     265.8929        17     0.899     0.854  86.69   0
       213    664.4197    555.8325 300.2432348 +22.7465134     2512.449     72.24858      1.197     2.05     4.646438     20.38352     394.7966        21     0.983     0.897 -74.20   0
       214    908.7255    553.0295 300.3202826 +22.8189022     665.0243     72.26698      1.608     3.00     4.329363     20.38352     63.19643         7     0.717     0.675 -68.94   0
       215    874.0392    552.8550 300.3095245 +22.8084623     163.4443     72.24858      0.943     2.44      4.34596     20.38352     60.08219         5     0.644     0.542  87.31   0
       216    569.1786    552.6274 300.2146168 +22.7170490     368.7221     72.24858      0.993     2.20     4.668532     20.38352     78.92171         6     0.702     0.579  67.23   0
       217    451.6519    551.8337 300.1782921 +22.6815906     819.9992     72.26698      1.260     2.37     4.740355     20.38352     123.0039        14     1.024     0.839 -70.88   0
       218    921.7432    549.7528 300.3254066 +22.8218597     1197.492     72.28538      1.256     2.17     4.327397     20.38352      185.825        14     0.866     0.842  27.80   0
       219    907.3224    548.9326 300.3211765 +22.8173047     758.3477     72.34054      1.379     2.35     4.336418     20.38352     101.8275         9     0.849     0.648  40.90   0
       220    793.3514    548.0842 300.2859236 +22.7829202     2238.753     72.23018      1.464     3.38     4.418929     20.38352     302.4256        24     1.715     0.805  67.63   0
       221    546.8892    546.4670 300.2096791 +22.7085993     564.7325     72.37729      1.186     1.99     4.705218     20.38352     94.35107         8     0.740     0.634 -87.88   0
       222    332.6709    546.3003 300.1430741 +22.6443278      367.951     72.39565      1.196     3.97     4.530852     20.38352     47.01283         7     0.986     0.548  25.03   0
       223    831.6209    543.3428 300.2993923 +22.7930228     4297.309     72.24858      1.194     2.09     4.400567     20.38352     573.3022        26     1.087     0.913  45.07   0
       224    385.3041    545.3051 300.1597698 +22.6598243     314.7842     72.41402      1.151     2.69     4.616722     20.38352     64.37005         7     0.966     0.448  30.24   0
       225    472.6525    543.1558 300.1876474 +22.6853953     291.9128     72.26698      1.098     1.95     4.790356     20.38352      54.2984         5     0.689     0.445 -71.21   0
       226    392.7808    542.4205 300.1630331 +22.6612381     245.2593     72.24858      1.227     3.35     4.628012     20.38352     33.43341         5     0.751     0.434 -22.63   0
       227    569.5372    539.7102 300.2189258 +22.7134476     262.1166     72.34054      0.978     3.17     4.684019     20.38352     48.61841         5     0.916     0.455  75.14   0
       228    492.4890    539.3418 300.1950605 +22.6902469     324.9429     72.32216      1.177     2.77     4.787956     20.38352     48.18997         6     0.830     0.474   1.89   0
       229    923.5270    533.7480 300.3311638 +22.8177948      825.742     72.24858      1.261     2.20     4.348993     20.38352      112.242        10     0.789     0.758  51.41   0
       230     63.6660    533.8912 300.0634871 +22.5600811     841.5774     72.37729      1.295     2.64     4.353575     20.38352     131.7352        13     0.972     0.845  35.68   0
       231    862.9288    531.0144 300.3131580 +22.7988590     376.9508     72.24858      1.381     2.51      4.38145     20.38352     48.13216         5     0.609     0.593  86.86   0
       232    724.2690    527.6942 300.2710226 +22.7563655     351.1592     72.37729      1.368     3.76     4.435322     20.38352     44.59848         5     0.839     0.485 -45.95   0
       233    329.9997    527.0003 300.1485142 +22.6379879     298.4509     72.02741      1.295     2.21     4.479476     20.38352     37.47896         5     0.610     0.577  90.00   0
       234    111.3458    525.6313 300.0809846 +22.5720159     286.4725     72.26698      1.125     4.01     4.149375     20.38352     33.52793         6     0.893     0.516  41.46   0
       235     56.2086    524.0691 300.0643615 +22.5550265     448.6739     72.23018      1.396     4.10      4.45721     20.38352     53.74159         9     1.014     0.696  18.84   0
       236    919.2994    522.6582 300.3334490 +22.8133419     355.4615     72.34054      1.499     3.46     4.366663     20.38352     52.60513         5     0.750     0.462 -10.31   0
       237    663.9915    517.9130 300.2554229 +22.7354948     458.1997     72.17493      1.067     2.68      4.70261     20.38352     104.1155         9     1.007     0.592 -75.72   0
       238    553.0374    515.3940 300.2216896 +22.7015201     434.3665     72.28538      1.244     2.27     4.725647     20.38352     65.93685         6     0.807     0.520 -87.78   0
       239    272.5558    516.5098 300.1340582 +22.6177515     276.5952     72.24859      1.459     2.94     4.449511     20.38352     58.09057         6     0.867     0.498  -3.22   0
       240    605.2056    513.7375 300.2384712 +22.7166793     732.4724     72.23018      1.235     2.36     4.673748     20.38352     137.7402        13     1.076     0.747  39.17   0
       241   1012.5855    511.4209 300.3661954 +22.8380483     1097.635     72.23018      1.325     2.47     3.398036     20.38352     139.3405        16     0.957     0.937  71.16   0
       242    919.7149    506.1474 300.3389433 +22.8087216     548.9698     72.28538      1.267     2.60     4.390054     20.38352     87.28823         9     0.884     0.674  20.22   0
       243    666.0179    506.0664 300.2599031 +22.7326994     824.0662     72.23018      1.193     1.82     4.705533     20.38352     180.5821        10     0.817     0.671   1.99   0
       244    823.0886    502.3594 300.3100494 +22.7786919     1081.411     72.24858      1.216     2.27     4.424261     20.38352     158.3667        12     0.914     0.752  74.37   0
       245    807.3431    498.5364 300.3063838 +22.7728770     605.7479     72.30377      1.155     2.18     4.430006     20.38352     89.26666        10     0.820     0.716   0.46   0
       246    551.6470    496.6854 300.2273349 +22.6957312     3223.874     72.23018      1.146     2.05     4.742379     20.38352     520.5538        18     0.894     0.883  77.01   0
       247    911.9827    495.1995 300.3400891 +22.8032597     486.5347     72.15651      1.239     2.29     4.407159     20.38352      80.6114         8     0.791     0.628  47.67   0
       248     27.7375    487.7764 300.0673074 +22.5360750     271.5574     72.23018      1.345     4.66     4.660833     20.38352     33.27723         8     0.982     0.626 -84.37   0
       249   1023.0537    483.9431 300.3783887 +22.8332843     474.1224     59.67047      1.291     2.79     3.185871     20.38352     76.37812        10     0.881     0.724  71.49  24
       250    556.7528    484.2079 300.2329781 +22.6936785     338.1848     72.26698      1.227     2.86     4.749472     20.38352      41.5224         6     0.727     0.572 -47.41   0
       251    391.4718    483.7980 300.1816717 +22.6440186     497.8297     72.19335      1.469     3.65     4.527335     20.38352     58.96988        10     1.179     0.617  35.39   0
       252    323.3901    483.7552 300.1605077 +22.6235944     271.8171     72.26698      1.349     4.05     4.361032     20.38352     31.94778         5     0.980     0.478 -83.64   0
       253    963.0812    475.6097 300.3623888 +22.8129317     1290.748     72.19335      1.225     2.01     3.972299     20.38352     230.6343        14     0.866     0.825  88.92   0
       254    834.6987    475.3826 300.3224326 +22.7744183     575.1917     72.15651      1.291     2.83     4.428812     20.38352     81.19981        10     0.971     0.720 -27.04   0
       255    921.3464    474.3026 300.3497980 +22.8000583     1007.377     72.34054      1.212     2.38     4.424809     20.38352     139.9269        14     0.944     0.778  62.42   0
       256    571.2945    472.9487 300.2411632 +22.6948031     223.9021     72.32216      1.219     3.87     4.736638     20.38352     34.94801         6     0.874     0.577   2.01   0
       257    662.2338    470.4969 300.2702799 +22.7213490     1018.067     72.24858      1.163     2.19     4.657822     20.38352     159.6279        12     0.882     0.744  62.56   0
       258    457.9983    471.2088 300.2064615 +22.6603471     376.9757     72.06432      1.180     2.34     4.723512     20.38352     70.03626         8     0.748     0.727   9.24   0
       259    166.2134    468.8439 300.1164831 +22.5721816     676.0343     72.26698      1.281     3.43     4.374202     20.38352     92.54421        10     1.025     0.665  34.84   0
       260      6.1615    467.5812 300.0671656 +22.5238094     107.4656     72.26698     -0.426     2.85     4.665323     20.38352     34.07158         5     0.720     0.462 -18.24   0
       261    228.5992    464.6747 300.1372299 +22.5896947     3605.502     72.13808      1.262     2.26     4.565119     20.38352     509.3103        24     1.015     0.996  43.61   0
       262    961.6870    462.8955 300.3660843 +22.8088598     4385.594     72.43237      1.255     2.15     3.985582     20.38352     666.4094        28     1.089     0.980  71.22   0
       263    175.8107    459.5013 300.1225006 +22.5723792     7605.183     72.13808      1.321     2.34     4.452435     20.38352     1012.918        35     1.126     1.059  52.60   0
       264    941.6994    454.0023 300.3627396 +22.8003186     1861.269     72.13808      1.304     2.14     4.251252     20.38352     271.6863        21     1.061     0.892  41.38   0
       265    316.5632    453.6682 300.1681575 +22.6129117      4771.71     72.23018      1.254     2.18     4.399218     20.38352     693.8412        32     1.075     1.032  59.03   0
       266    560.8005    450.2842 300.2452580 +22.6851494     18362.43     72.11965      1.194     1.98     4.739655     20.38352     2940.529        49     1.123     1.030  66.25   0
       267    407.9980    451.6844 300.1972448 +22.6397537     308.1542     72.17493      1.235     3.25     4.660802     20.38352     40.75936         7     0.755     0.645   8.68   0
       268    578.2179    450.3977 300.2506441 +22.6904014     743.6446     72.15651      1.785     4.93     4.715714     20.38352     86.00676        16     1.659     0.695 -41.00   0
       269    804.2369    446.4668 300.3223309 +22.7569855     252.5574     72.23018      1.164     2.87     4.401226     20.38352     38.78134         5     0.716     0.473  17.21   0
       270    418.2455    446.8250 300.2020117 +22.6414304     376.0172     72.26698      1.781     2.73     4.703334     20.38352      53.4128         5     0.910     0.376   3.59   0
       271    757.6340    440.6861 300.3096850 +22.7413654     393.1367     72.21177      1.283     2.64      4.37548     20.38352     64.29218         7     0.811     0.630 -18.81   0
       272    180.7044    437.3553 300.1312145 +22.5674921      295.086     72.26698      1.258     2.83     4.591361     20.38352      48.1949         6     0.833     0.482  45.44   0
       273    894.0876    432.6699 300.3548221 +22.7799299     828.9224     72.41402      1.260     2.35     4.425007     20.38352     126.1624        12     1.091     0.723  63.16   0
       274    431.2020    432.0689 300.2108358 +22.6410774     480.6897     72.21177      1.172     2.71     4.738833     20.38352      59.3251         6     0.817     0.504  53.37   0
       275    115.4380    430.4789 300.1131640 +22.5459451     1987.124     72.23018      1.369     2.49     4.598356     20.38352     228.1905        21     1.091     0.960  51.26   0
       276    128.9526    425.7287 300.1189063 +22.5486354     167.3407     72.23018      1.152     2.69     4.596923     20.38352     40.85398         7     0.728     0.662   4.95   0
       277    501.4224    419.7590 300.2366876 +22.6585887     6555.774     72.28538      1.187     1.98     4.762187     20.38352     997.8524        32     1.046     0.991  62.40   0
       278    915.0044    419.9297 300.3654822 +22.7825316     1170.387     72.19335      1.208     1.98     4.424018     20.38352     214.4503        10     0.805     0.704  81.90   0
       279    216.1382    419.1523 300.1481408 +22.5728939     710.4274     72.28538      1.349     2.56     4.819396     20.38352     75.45966         9     0.757     0.744  52.80   0
       280     73.9425    412.6465 300.1060618 +22.5283830     477.5967     72.30377      1.330     2.88     4.607443     20.38352     70.21392         8     0.948     0.556  19.34   0
       281    761.6445    411.3539 300.3204616 +22.7341386     304.4866     72.28538      1.451     3.28     4.368335     20.38352     46.29292         5     0.746     0.450 -15.66   0
       282    615.1303    410.1830 300.2751998 +22.6899110     531.0405     72.26698      1.248     2.72     4.568972     20.38352     88.68535         9     0.956     0.610 -89.53   0
       283    705.5674    408.3589 300.3039617 +22.7164807     1196.059     72.30377      1.303     2.45     4.365985     20.38352      177.744        15     1.038     0.771 -87.54   0
       284    992.6089    407.3016 300.3937870 +22.8021369     363.0357     72.13808      1.347     3.22     3.573359     20.38352     51.07618         7     0.945     0.471  80.97   0
       285    408.0423    406.0212 300.2120889 +22.6266568      6020.67     72.28538      1.261     2.09     4.715242     20.38352     1011.118        28     1.068     0.952  68.54   0
       286    985.8896    404.4000 300.3926334 +22.7992912     252.9031     72.15651      1.460     3.48      3.66261     20.38352     30.83888         5     0.796     0.439 -19.14   0
       287    897.3745    400.4584 300.3663088 +22.7716559     493.6334     72.24858      1.082     2.33     4.395334     20.38352      82.4951        10     0.843     0.730 -67.17   0
       288    800.0631    400.2837 300.3360298 +22.7424643     1488.529     72.34054      1.206     2.06     4.371605     20.38352     236.2768        14     0.885     0.796  78.20   0
       289    392.6642    394.7469 300.2109655 +22.6188103     480.6346     72.28538      1.213     2.40      4.66615     20.38352     85.07167         8     0.844     0.729  66.14   0
       290    475.1122    392.7292 300.2372766 +22.6429416      499.697     72.41402      1.549     3.70      4.62402     20.38352     56.14354        10     1.003     0.725 -82.79   0
       291    455.8917    390.2235 300.2321085 +22.6364618     278.3283     72.17493      1.287     3.94     4.635167     20.38352     55.35084         7     1.171     0.555 -66.07   0
       292    772.8416    388.0189 300.3315291 +22.7307870     541.5373     72.26698      1.242     2.33     4.368402     20.38352     76.48528         8     0.782     0.635  51.05   0
       293    295.6585    385.2611 300.1838718 +22.5870082     2443.596     72.30377      1.258     2.23     4.427719     20.38352     349.2301        19     1.011     0.875  87.29   0
       294     14.2218    382.6070 300.0972641 +22.5018518     937.1108     72.23018      1.437     2.85     4.529824     20.38352     120.5038        15     1.081     0.855  87.26   0
       295    643.2137    379.8440 300.2937985 +22.6896093     238.1135     72.26698      1.472     4.57     4.384741     20.38352     34.52423         7     1.175     0.505 -37.30   0
       296    265.0025    374.7494 300.1777520 +22.5748002     29696.11     72.24858      1.322     2.21      4.51086     20.38352     4473.097        75     1.305     1.160  63.02   0
       297    799.5236    371.9236 300.3450713 +22.7341526     1209.799     72.34054      1.155     2.43     4.368589     20.38352     192.4309        15     0.947     0.858  26.63   0
       298    755.2355    369.6866 300.3319956 +22.7202458     259.8111     72.23018      0.993     2.91     4.366827     20.38352     66.86737         5     0.971     0.324  53.60   0
       299    714.8839    360.7530 300.3223235 +22.7055929      546.865     72.24858      1.248     2.19     4.366439     20.38352     86.53825         9     0.846     0.612 -73.94   0
       300    139.0264    361.0044 300.1430536 +22.5330833     521.5253     72.21177      1.375     3.16     4.622371     20.38352     66.58135         9     0.910     0.767  32.40   0
       301    363.5137    359.8387 300.2132317 +22.6000499     539.1788     72.23018      1.308     1.97     4.602429     20.38352     82.14626         7     0.776     0.536   7.61   0
       302    675.3523    354.3253 300.3120951 +22.6919050     1891.662     72.24858      1.194     2.12     4.366542     20.38352     283.0354        17     0.935     0.870 -77.40   0
       303    483.8244    348.9143 300.2542149 +22.6329692     317.4739     72.19335      1.288     2.36     4.368387     20.38352     59.60331         6     0.741     0.532  52.09   0
       304    890.2511    346.9715 300.3814564 +22.7541482     476.8698     72.26698      1.129     1.96     4.322242     20.38352     95.57817         8     0.746     0.615  51.88   0
       305    337.1053    338.9984 300.2117831 +22.5861507     2155.791     72.15651      1.389     2.82     4.649852     20.38352     270.9553        22     1.199     0.907  59.84   0
       306    549.4955    338.0070 300.2781989 +22.6495134     276.6933     72.13808      1.114     1.90     4.285778     20.38352     58.92799         6     0.708     0.500 -87.57   0
       307    776.1795    331.6596 300.3508693 +22.7155900     626.2546     72.19335      1.154     2.36      4.35154     20.38352     110.7978        11     0.899     0.725 -82.17   0
       308    768.5511    332.2187 300.3483105 +22.7134662     290.4499     72.26698      1.179     2.83     4.354646     20.38352      46.7901         5     0.730     0.432 -65.26   0
       309    658.6152    329.4580 300.3149553 +22.6797466     491.9958     72.23018      1.195     2.31     4.315402     20.38352     69.80321         9     0.858     0.641 -38.60   0
       310    626.7692    328.7030 300.3052816 +22.6699903      324.536     72.19335      1.183     3.14      4.26668     20.38352     48.09935         7     0.808     0.624 -34.51   0
       311    413.0233    318.3554 300.2421026 +22.6029762     1123.898     72.28538      1.161     2.03     4.558748     20.38352     182.0042        13     0.944     0.692  85.57   0
       312    220.0150    318.1269 300.1821473 +22.5450593     275.8802     72.24858      1.318     4.37     4.718239     20.38352     51.51106         7     0.895     0.804   5.40   0
       313    924.4715    314.0684 300.4028096 +22.7549342      380.552     72.28538      1.304     2.77      4.26244     20.38352     65.60035         8     0.899     0.645 -18.43   0
       314    657.8620    310.3242 300.3209323 +22.6740231     2127.172     72.30377      1.216     2.08     4.295803     20.38352      341.333        19     1.044     0.836  63.75   0
       315    796.4382    311.3284 300.3637836 +22.7158130     229.3481     72.21177      1.194     3.68     4.318787     20.38352     46.45433         5     0.937     0.534  48.24   0
       316    919.0432    304.4260 300.4042471 +22.7505368     3190.086     72.26698      1.263     2.12      4.26314     20.38352     498.8946        24     1.006     0.960  80.35   0
       317    980.2179    299.3227 300.4249829 +22.7673816     375.2688     72.24858      1.259     2.43     4.339072     20.38352     70.33746         7     0.813     0.586  73.23   0
       318    366.1112    294.2029 300.2353474 +22.5819813     647.7489     72.15651      1.201     2.16     4.803248     20.38352      123.016        11     1.024     0.665  72.16   0
       319    988.4716    292.2437 300.4298554 +22.7678164     1732.555     72.21177      1.295     2.25     4.445868     20.38352     224.0745        17     1.013     0.832  80.14   0
       320     71.9831    288.4111 300.1457860 +22.4921464     502.3524     72.19335      1.238     2.73     4.478167     20.38352     86.78261         9     0.840     0.741 -83.56   0
       321     41.0967    288.2304 300.1362493 +22.4828326      1451.14     72.19335      1.632     3.17     4.384456     20.38352     162.5338        24     1.313     1.098 -42.79   0
       322    934.7633    285.0912 300.4154258 +22.7496835     589.9429     72.23018      1.434     2.32     4.284151     20.38352     91.01567         9     0.861     0.653 -85.86   0
       323    778.6175    281.8352 300.3678036 +22.7019995     379.9755     72.24858      1.338     3.20     4.313509     20.38352     56.24604         6     0.880     0.481  51.13   0
       324    124.7016    280.3482 300.1647839 +22.5056394     461.7939     72.34054      1.342     3.64     4.640732     20.38352     60.30064        10     1.007     0.790 -68.08   0
       325    920.3777    277.6768 300.4133464 +22.7432455     406.8383     72.23018      1.222     3.07     4.262674     20.38352     53.63781         8     1.016     0.598  11.15   0
       326    801.0832    273.6919 300.3774486 +22.7063855     440.5278     72.41402      1.428     3.24     4.287011     20.38352      58.2897         7     0.895     0.618  41.51   0
       327    729.3734    271.5273 300.3558042 +22.6842909     739.8605     72.24858      1.324     2.02     4.342628     20.38352     108.8411        11     0.824     0.723 -76.12   0
       328    319.7467    271.0709 300.2284334 +22.5614435     377.2986     72.24858      1.284     2.22     4.997674     20.38352     60.04897         7     0.709     0.634  72.99   0
       329    865.6779    264.3760 300.4006080 +22.7230466     57.24887     72.24858      0.979     3.19     4.231722     20.38352     35.90819         6     0.827     0.524  46.52   0
       330    827.7000    260.7388 300.3899492 +22.7106310     2207.774     72.34054      1.272     2.29     4.261995     20.38352     318.2017        23     1.263     0.896  62.90   0
       331    820.1558    264.5914 300.3863472 +22.7094799     303.0815     72.26698      1.093     2.41     4.270731     20.38352     57.99673         5     0.704     0.457 -19.67   0
       332    246.1861    258.1156 300.2097623 +22.5356759     2172.929     72.19335      1.275     2.27     4.915894     20.38352     302.7039        19     1.022     0.865  60.65   0
       333    323.9005    253.2295 300.2355157 +22.5575650     1004.532     72.17493      1.317     2.67     4.957686     20.38352       126.44        13     0.913     0.839 -43.52   0
       334     76.2200    253.6722 300.1583766 +22.4834468     381.1126     72.28538      1.338     3.72     4.569453     20.38352     39.15467         5     0.990     0.401 -15.61   0
       335    725.9626    252.2605 300.3609948 +22.6777319     472.0617     72.26698      1.062     1.81      4.31725     20.38352     107.0452         7     0.676     0.619   6.50   0
       336    833.1807    249.3468 300.3953551 +22.7089969     406.7392     72.23018      1.192     1.74     4.250671     20.38352     64.21631         5     0.639     0.466  12.60   0
       337    140.8646    245.6955 300.1810530 +22.5005385     704.1898     72.35892      1.304     2.72     4.797867     20.38352     98.45183        12     1.011     0.726  86.56   0
       338    258.9031    244.8964 300.2180064 +22.5356920     229.9134     72.43237      1.149     3.57     4.965816     20.38352     39.12962         6     0.748     0.578  45.85   0
       339    678.7622    242.1605 300.3495675 +22.6606945     1597.734     72.32216      1.230     2.11     4.289166     20.38352     267.6104        15     0.949     0.815  52.79   0
       340    743.5686    241.6424 300.3699267 +22.6799518       570.91     72.30377      1.157     2.40     4.307487     20.38352     86.29116        10     0.829     0.745  40.93   0
       341    162.2643    238.7926 300.1899441 +22.5049722     526.5413     72.23018      1.275     2.40     4.892919     20.38352     79.49407         8     0.751     0.672  44.69   0
       342    950.2217    234.3437 300.4367181 +22.7397180     851.2346     72.28538      1.186     2.27      4.36118     20.38352     150.5554        12     0.890     0.802  87.35   0
       343    682.6730    233.4091 300.3536259 +22.6593505     731.7617     72.23018      1.288     3.03     4.288701     20.38352     104.9832        13     1.049     0.772  62.03   0
       344    603.1096    232.8065 300.3290400 +22.6353492     1074.762     72.15651      1.195     2.00       4.2675     20.38352     214.9856        12     0.869     0.755  14.85   0
       345    424.3775    229.2834 300.2745453 +22.5807956     337.5982     72.21177      1.358     2.61     4.485785     20.38352     50.33747         5     0.718     0.446  70.32   0
       346    529.4229    224.7637 300.3087066 +22.6109669     1061.276     72.26698      1.343     2.51     4.272573     20.38352     141.5124        15     1.048     0.782  63.77   0
       347    798.7132    224.1777 300.3927798 +22.6914421     1383.448     72.17493      1.169     2.10     4.287777     20.38352     224.6511        15     0.919     0.812  46.68   0
       348    810.6949    223.3300 300.3967894 +22.6947855     773.7404     72.35892      1.183     2.34     4.273052     20.38352     117.0354        12     0.987     0.662  48.88   0
       349    981.6299    220.6850 300.4509471 +22.7451898     332.9746     72.24858      1.195     4.08     4.494294     20.38352     49.08035         6     0.736     0.647  14.79   0
       350    971.5168    214.1025 300.4499288 +22.7402701     1646.804     72.41402      1.273     2.32     4.493088     20.38352     216.3259        20     1.075     0.920  84.25   0
       351    927.4415    213.5175 300.4363723 +22.7269108     1097.782     72.21177      1.119     2.24     4.298238     20.38352     147.6483        14     0.918     0.802  64.88   0
       352    161.4682    206.7537 300.2000927 +22.4955357     768.1071     72.23018      1.319     2.59     5.001669     20.38352     94.93777        13     0.935     0.812 -64.49   0
       353     23.3366    201.6405 300.1588311 +22.4526568     2123.813     72.23018      1.461     2.93     4.619608     20.38352      239.261        24     1.250     0.968  56.63   0
       354    846.4459    198.2933 300.4160581 +22.6982894     841.5231     72.26698      1.357     2.71     4.254209     20.38352     97.46962        12     0.972     0.758  68.99   0
       355    180.8411    195.0962 300.2098966 +22.4979957     5469.444     72.24858      1.343     2.30      5.00135     20.38352     758.7625        34     1.187     1.041  69.42   0
       356    163.9458    185.7108 300.2076900 +22.4902369     692.5341     72.28538      1.492     2.73     5.056859     20.38352     80.32744         9     0.789     0.756  46.68   0
       357    979.6328    182.2367 300.4628004 +22.7335339     18339.34     72.26698      1.292     2.30     4.720359     20.38352      2242.18        58     1.222     1.178  61.83   0
       358    824.8354    176.2987 300.4164581 +22.6854964     3650.574     72.23018      1.251     2.20     4.299879     20.38352     538.6309        24     1.058     0.921  83.79   0
       359    928.4568    175.0407 300.4491739 +22.7161493     2899.458     72.23018      1.312     2.29     4.319322     20.38352     371.8102        25     1.064     1.023 -85.18   0
       360    374.3067    171.6315 300.2776724 +22.5492333     725.5455     72.17493      1.365     2.51     4.869667     20.38352     104.5326        12     0.969     0.739  77.15   0
       361    127.2501    172.7754 300.2004817 +22.4755236     305.1032     72.26698      1.263     4.20     5.052835     20.38352     40.21108         7     1.115     0.452 -32.79   0
       362    298.4289    163.8080 300.2566082 +22.5242511     629.4643     72.24858      1.224     2.64     5.092696     20.38352     87.99454         9     0.811     0.771  28.28   0
       363    302.1835    161.8089 300.2584245 +22.5248020     444.7059     72.17493      1.254     4.50     5.086633     20.38352     47.22542         8     0.809     0.712  49.10   0
       364     64.8114    160.6781 300.1850045 +22.4533335     514.5786     72.23018      1.257     3.61     4.981615     20.38352     72.29961        10     1.034     0.723 -25.78   0
       365    425.7376    159.1303 300.2977303 +22.5610502     1587.301     72.28538      1.195     1.98     4.694602     20.38352     261.2582        19     0.986     0.864  53.87   0
       366    353.5894    159.0969 300.2752938 +22.5394257     497.4409     72.13808      1.292     3.00     4.990598     20.38352     68.19936        10     0.953     0.721  89.16   0
       367    487.3699    158.3861 300.3171528 +22.5792984      443.847     72.26698      1.324     3.10     4.536672     20.38352     55.37093        10     0.927     0.771  -0.48   0
       368    169.1685    154.5748 300.2194142 +22.4828624     401.8092     72.24858      1.315     3.26      5.12445     20.38352     55.13648         8     0.854     0.676 -57.77   0
       369    642.0073    152.5006 300.3672109 +22.6239184     230.9464     72.13808      1.048     3.70     4.655704     20.38352     36.07081         6     0.795     0.495   6.22   0
       370    714.0372    148.1880 300.3910486 +22.6442454     282.4458     72.23018      1.267     2.32     4.650807     20.38352     59.59133         6     0.734     0.529  35.75   0
       371    860.2248    142.7935 300.4383605 +22.6864545     344.1397     72.23018      1.092     2.54     4.324557     20.38352     48.31988         6     0.728     0.551 -49.17   0
       372    990.1357    139.5001 300.4799420 +22.7243838     3637.666     72.34054      1.336     2.23     4.971952     20.38352     547.4406        27     1.066     1.011  34.78   2
       373    199.7224    138.8544 300.2340113 +22.4875055     5990.233     72.28538      1.404     2.49     5.101274     20.38352     787.3087        37     1.260     1.085  62.11   0
       374    706.1695    139.0244 300.3915701 +22.6392555     262.3316     72.24858      1.228     2.44     4.677723     20.38352     59.74799         5     0.713     0.629  86.19   0
       375    828.7800    135.8584 300.4308075 +22.6750486     389.6273     72.24858      1.046     1.94     4.408329     20.38352      63.3669         6     0.700     0.528  32.30   0
       376    171.1953    132.5520 300.2271879 +22.4771462     336.7021     72.23018      1.631     4.88     5.108107     20.38352       46.255         8     1.286     0.525  65.89   0
       377     50.8880    138.4972 300.1878738 +22.4427922     934.9702     72.43237      1.895     3.28     4.949116     20.38352     99.03053        14     1.115     0.888 -86.29   0
       378    841.8729    128.3218 300.4373338 +22.6768001     308.1356     72.35892      1.567     3.63      4.40003     20.38352     34.39447         6     0.746     0.635  62.25   0
       379    445.7740    124.1718 300.3153055 +22.5570082      6138.71     72.23018      1.260     2.17     4.711992     20.38352     901.2339        31     1.082     0.996  57.24   0
       380    331.3735    123.9338 300.2797894 +22.5226689     495.7658     72.23018      1.177     2.81     4.955999     20.38352     80.57552         9     0.831     0.718  71.36   0
       381    696.3198    117.3332 300.3955376 +22.6300707      115.004     72.35892      0.897     4.88     4.750875     20.38352     28.99493         5     0.847     0.795  36.20   3
       382    698.3616    113.7383 300.3973398 +22.6296485     803.0772     72.24858      1.283     2.43     4.755939     20.38352     111.1866        15     0.965     0.852 -85.69   2
       383    465.9872    118.2688 300.3235109 +22.5613665     214.8081     72.26698      1.197     3.29     4.727637     20.38352     55.61169         6     0.899     0.487  43.37   0
       384    639.8676    115.2592 300.3786250 +22.6125729     330.9242     72.28538      1.189     2.30     4.816934     20.38352      47.2981         6     0.731     0.533 -47.64   0
       385    790.6288    112.5535 300.4264755 +22.6569279     517.0006     72.28538      1.415     2.64     4.622402     20.38352     75.06884         8     0.792     0.763  24.04   0
       386    859.1038    109.7958 300.4487150 +22.6766293      192.617     72.15651      1.231     4.32     4.377021     20.38352     36.02961         6     1.101     0.482 -27.80   0
       387      9.3966    110.1650 300.1841740 +22.4222208     250.1904     72.24858      1.300     2.90     4.883213     20.38352     42.82446         6     1.029     0.664  -1.57   0
       388    138.6107    107.9422 300.2250422 +22.4603138     507.5944     72.21177      1.553     3.94     5.081097     20.38352     59.40347        12     1.111     0.878  39.30   0
       389    574.1729    104.2356 300.3617416 +22.5897333      6202.82     72.26698      1.246     2.18     4.930183     20.38352     904.8517        34     1.110     0.997  68.49   0
       390    497.1410    106.5087 300.3370221 +22.5673179     498.6886     72.32216      1.435     2.06     4.828991     20.38352     65.31715         6     0.716     0.496   7.02   0
       391    349.1443    103.2347 300.2920309 +22.5220468     1599.462     72.26698      1.306     2.32     4.865051     20.38352     202.9317        20     1.020     0.985  25.48   0
       392    615.3318    101.4963 300.3754473 +22.6012703      860.121     72.37729      1.254     2.16     4.894351     20.38352     126.9328        11     0.834     0.741 -78.92   0
       393    685.0714     98.9887 300.3979834 +22.6214293     363.6015     72.26698      1.166     2.92     4.830605     20.38352     63.02566         7     0.892     0.591 -70.60   0
       394    631.2527     97.4575 300.3817158 +22.6048763     603.6788     72.30377      1.221     2.24      4.90016     20.38352      86.0961        10     0.852     0.686 -51.73   0
       395     97.7549     95.6913 300.2163188 +22.4445511     567.7477     72.23018      1.268     3.93     5.047298     20.38352     82.66994        12     1.095     0.823  45.69   0
       396    940.3661     94.5586 300.4789964 +22.6965641     244.4607     72.30377      1.043     2.84     4.994176     20.38352     51.18309         7     0.819     0.647 -68.15   0
       397    900.8504     94.9295 300.4665532 +22.6848465     606.2844     72.24858      1.374     2.95     4.725415     20.38352     91.33206         9     0.889     0.803  77.79   0
       398    669.7115     92.9339 300.3951622 +22.6150902      456.069     72.35892      1.125     2.61     4.873546     20.38352     75.41267         7     0.719     0.647  65.51   0
       399    633.5029     88.2258 300.3854107 +22.6028962     912.0001     72.19335      1.704     5.11     4.916429     20.38352     92.26218        16     1.700     0.677  58.69   0
       400    618.3882     89.0685 300.3804299 +22.5986130     2740.236     72.26698      1.284     2.25     4.930956     20.38352     375.6348        25     1.061     0.996 -86.05   0
       401    258.9487     89.7439 300.2683540 +22.4911486     437.7378     72.28538      1.292     3.90     5.032084     20.38352     57.03273         8     0.896     0.661  57.47   0
       402    880.3835     82.8542 300.4640879 +22.6752487     284.7995     72.23018      1.264     3.47     4.653331     20.38352     27.37808         5     0.782     0.446 -72.36   0
       403    704.7585     80.5655 300.4100919 +22.6220261     1614.651     72.30377      1.283     2.25     4.819271     20.38352      234.847        15     0.913     0.867 -14.10   0
       404    642.8962     73.5422 300.3930985 +22.6014873     789.4129     72.32216      1.366     3.02     4.931528     20.38352     125.2225        14     1.012     0.861 -70.88   0
       405    448.3895     73.2389 300.3326385 +22.5431563     1137.788     72.24858      1.388     2.40     4.689225     20.38352     146.5487        14     0.951     0.802  69.58   0
       406     21.3640     73.2553 300.1998611 +22.4152123     523.7944     72.26698      1.433     3.53     4.932045     20.38352       64.913        12     0.993     0.869 -77.40   0
       407    352.2700     71.4793 300.3033018 +22.5138601     669.9431     72.35892      1.308     2.68     4.843062     20.38352     96.95567        12     0.981     0.749 -64.51   0
       408    734.5258     69.9259 300.4228173 +22.6278774     424.0395     72.30377      1.296     3.23     4.797745     20.38352     62.52768         8     0.911     0.735  56.19   0
       409    995.3171     67.9981 300.5047507 +22.7053639     2479.175     72.15651      1.389     2.43     5.123627     20.38352     328.2445        25     1.096     1.052  -0.63   0
       410    740.6646     64.8854 300.4263648 +22.6282655     3668.541     72.34054      0.943     2.38     4.804732     20.38352     1202.278        13     1.046     0.428  70.17   3
       411    737.8091     58.6478 300.4274978 +22.6256172     5281.185     72.26698      1.882     5.18     4.829218     20.38352     826.6498        15     2.157     0.351  60.86   3
       412    792.9381     65.3321 300.4425106 +22.6440397     1968.597     72.30377      0.623     1.44     4.718774     20.38352     947.4163         6     0.546     0.321  89.90   0
       413    691.6748     61.9495 300.4120529 +22.6127570      556.301     72.24858      1.202     2.80     4.872939     20.38352      89.2226        10     0.864     0.766  50.54   0
       414    123.6841     61.4614 300.2354766 +22.4424932     3695.292     72.35892      1.471     2.46     5.021636     20.38352      411.438        32     1.274     1.086  38.06   0
       415    449.0714     58.4653 300.3376415 +22.5391151     270.7384     72.28538      1.327     4.63     4.638398     20.38352     41.29377         8     0.808     0.751 -89.79   0
       416    546.0648     58.3210 300.3678803 +22.5681196     315.5287     72.35892      1.267     2.83     5.060931     20.38352     46.76712         6     0.870     0.566 -61.73   0
       417    685.0302     53.5903 300.4126937 +22.6083645     899.4947     72.24858      1.274     2.30     4.890953     20.38352     141.7068        11     0.891     0.710  68.62   0
       418    650.5312     53.0687 300.4021161 +22.5978870     330.3886     72.30377      1.207     2.63     4.950778     20.38352     68.23795         6     0.927     0.455  75.27   0
       419    239.5808     53.4413 300.2741039 +22.4749182     1244.533     72.26698      1.470     2.83      5.05344     20.38352     143.4226        18     1.033     0.991  42.33   0
       420    722.8569     48.6513 300.4260805 +22.6182672      701.603     72.30377      1.559     4.42     4.873112     20.38352     67.65546        13     1.224     0.800 -79.39   0
       421    646.3066     48.6129 300.4022450 +22.5953413       440.92     72.17493      1.080     2.49       4.9686     20.38352     69.93009         7     0.771     0.664 -29.53   0
       422    742.8134     44.9410 300.4335020 +22.6231735     2261.398     72.23018      1.291     2.28     4.861349     20.38352     366.5254        23     1.063     0.964  85.60   0
       423    448.3926     43.4421 300.3423018 +22.5345945     463.3678     72.26698      1.262     2.79     4.574961     20.38352     61.71865         8     0.789     0.733 -71.72   0
       424    126.2246     40.5454 300.2430481 +22.4372481     899.5416     72.26698      1.337     2.43     5.000708     20.38352     117.2302        16     1.031     0.866  39.54   0
       425    917.8127     38.1437 300.4902586 +22.6735872     617.9582     72.24858      1.213     2.45     5.198876     20.38352      108.103        10     0.854     0.718  73.52   0
       426    691.0247     37.4451 300.4197965 +22.6055167     760.6088     72.26698      1.195     2.31     4.911201     20.38352      123.652        12     0.912     0.738  51.17   0
       427    398.0940     35.7609 300.3291404 +22.5173230     381.0241     72.26698      1.565     4.76     4.442167     20.38352      39.5974         9     1.115     0.727  -7.70   0
       428    311.3409     32.1024 300.3033389 +22.4902864     147.6092     72.32216      1.124     3.20     4.983241     20.38352     40.56736         5     0.763     0.421  70.00   0
       429    110.3926   1021.7554 299.9193371 +22.7139652     902.9126     65.85612      2.334     3.47     38.19138     20.38352     42.80972         5     1.103     0.316 -67.88  18
       430    776.0460     21.6604 300.4514072 +22.6264245     255.0181     72.26698      1.279     3.93     4.802408     20.38352     35.01029         7     0.743     0.675  -2.59   0
       431    543.6877     22.4042 300.3787864 +22.5570838     827.1749     72.17493      1.230     2.32     5.115972     20.38352     119.9937        13     0.873     0.813 -68.40   0
       432    152.9589     19.7600 300.2580961 +22.4392898     458.5098     72.32216      1.318     3.12     5.025742     20.38352      64.2398        10     0.898     0.757  57.13   0
       433     79.5505   1009.4849 299.9137501 +22.7011874     1170.304     72.23018     10.605    13.47      46.1048     20.38352     45.30013        31     2.978     1.695  15.42  19
       434    337.7865     18.3839 300.3160125 +22.4942665     254.9407     72.19335      1.037     2.18     4.894001     20.38352     46.32975         5     0.678     0.469 -15.18   0
       435     82.6323   1016.1250 299.9125458 +22.7040154     1517.364     72.24858      5.595    12.85      47.8812     20.38352     50.40614        33     2.259     2.036  -1.37  19
       436    238.4864     13.0925 300.2868459 +22.4629999     608.0543     72.41402      1.296     2.41      5.06074     20.38352     86.30058         9     0.807     0.662  33.64   0
       437     31.5593   1002.0141 299.9012752 +22.6846343     2193.479     72.26698      4.606    14.93     63.69492     20.38352     67.10065        67     3.032     2.392   7.03   3
       438    106.9450   1020.0000 299.9188375 +22.7124269     1030.729     71.52728      3.966     3.82     38.57606     20.38352     31.37254         5     1.449     0.289   0.00  17
       439    102.8659   1014.8459 299.9192481 +22.7097252     1211.775     72.24858      5.161     8.34      38.2047     20.38352     52.54237        16     2.815     0.691 -66.70  19
       440     96.7976   1013.1564 299.9179128 +22.7074188     1948.533     72.24858     10.832    14.10     39.43534     20.38352     58.40449        50     2.708     2.128   0.45  27
       441    117.7068   1022.5693 299.9213446 +22.7163949     1367.037     62.11592      8.085    10.45     35.66478     20.38352     56.84663        28     2.190     1.391 -12.25  26
       442     55.0138   1014.5208 299.9044888 +22.6952615     1064.479     72.23018      5.912     8.93     61.90633     20.38352     51.68333        15     1.558     1.430  -0.58  17
