#   1 NUMBER                 Running object number                                     
#   2 X_IMAGE                Object position along x                                    [pixel]
#   3 Y_IMAGE                Object position along y                                    [pixel]
#   4 ALPHA_J2000            Right ascension of barycenter (J2000)                      [deg]
#   5 DELTA_J2000            Declination of barycenter (J2000)                          [deg]
#   6 FLUX_APER              Flux vector within fixed circular aperture(s)              [count]
#   7 FLUXERR_APER           RMS error vector for aperture flux(es)                     [count]
#   8 FLUX_RADIUS            Fraction-of-light radii                                    [pixel]
#   9 FWHM_IMAGE             FWHM assuming a gaussian core                              [pixel]
#  10 BACKGROUND             Background at centroid position                            [count]
#  11 THRESHOLD              Detection threshold above background                       [count]
#  12 FLUX_MAX               Peak flux above background                                 [count]
#  13 ISOAREA_IMAGE          Isophotal area above Analysis threshold                    [pixel**2]
#  14 A_IMAGE                Profile RMS along major axis                               [pixel]
#  15 B_IMAGE                Profile RMS along minor axis                               [pixel]
#  16 THETA_IMAGE            Position angle (CCW/x)                                     [deg]
#  17 FLAGS                  Extraction flags                                          
         1    352.8051     18.8654 300.2740957 +22.4748710     1124.717     72.80199      1.463     3.00     4.901167     20.53966     150.6189        17     1.224     0.855  76.67   0
         2    890.9789     14.8867 300.4429428 +22.6348115     214.1881     72.72778      1.716     4.02     4.944107     20.53966     38.57999         5     1.320     0.350  65.42   0
         3    836.1507     14.8589 300.4258635 +22.6184006     643.5074      72.8576      1.609     3.70     4.738021     20.53966     61.71611        13     1.021     0.936 -10.62   0
         4    856.1223     10.6724 300.4334443 +22.6231714     2232.168     72.91317      1.432     2.45     4.783423     20.53966     321.5561        27     1.258     1.020  69.93   0
         5    561.7225      9.4131 300.3421579 +22.5347071     469.7788     72.82054      1.227     2.70     5.169317     20.53966     73.51492         7     0.888     0.512 -60.75   0
         6    239.3159      5.9624 300.2429926 +22.4371730     975.4279     72.78345      1.619     2.67     5.230029     20.53966      111.935        15     1.009     0.898  82.79  16
         7    804.4223      3.0207 300.4198130 +22.6055026     919.7094     65.39744      1.506     3.37     4.665379     20.53966     107.4697        17     1.150     1.015 -38.23  24
         8    512.1191      1.3624 300.3293287 +22.5175436     277.2823     56.80245      1.255     4.12     4.769562     20.53966     50.21994         7     1.021     0.474  -5.19  24
         9    800.9451   1010.8199 300.0914433 +22.8940033     663.2519     72.78345      2.700     5.41     3.210434     20.53966     47.04488         8     1.163     0.731 -35.82   2
        10    266.3417   1008.9012 299.9257159 +22.7330761     3801.973     72.89465      6.830    28.39     62.80209     20.53966     87.78706       229     5.694     3.929 -74.02  19
        11    285.9207   1008.1680 299.9320399 +22.7387425     4607.722     72.78345      9.199    34.61      61.5214     20.53966     97.10007       393     7.347     4.720 -42.64  19
        12    295.5722   1022.8923 299.9302485 +22.7458599     894.9827     60.93047      2.032     5.24     64.52807     20.53966     60.86108        19     1.348     1.033  -4.98  27
        13    237.9516   1019.3342 299.9134978 +22.7275447     3463.553     72.82054      6.129    22.20     69.87598     20.53966     69.48618       171     4.493     3.564 -23.68  27
        14    140.6263    942.6168 299.9082195 +22.6763420     3987.748     72.82054     15.858    55.45      17.5542     20.53966     89.87531       967    13.308     6.412 -38.32   3
        15    144.3150   1016.4621 299.8853397 +22.6986117      5035.41     72.93169     11.455    42.94      51.8166     20.53966     101.3688       733    10.280     6.259  10.52  27
        16    141.4123    978.7990 299.8966926 +22.6869473     4643.721     72.61633     23.641    77.22      33.3674     20.53966     101.5468      3019    18.051    14.645 -26.79  19
        17    230.5164    993.8767 299.9194710 +22.7180164     1240.465     72.91317      4.378    10.59     54.60954     20.53966     46.87862        25     2.364     1.322  69.84   3
        18    717.5099    976.9833 300.0764660 +22.8592761     6641.743     72.72778      1.883     4.06     2.943701     20.53966     382.2962        47     1.543     1.392  26.46   0
        19    869.3463    970.6779 300.1258188 +22.9029889     339.6913     72.83907      1.628     7.00     3.209781     20.53966     35.38337         9     1.618     0.850  45.81   0
        20    597.8051    971.5007 300.0409809 +22.8218042     405.5547     72.69065      1.539     4.25     2.987174     20.53966     42.67605         6     1.041     0.495   4.22   0
        21    300.6133   1021.9248 299.9321304 +22.7470956     904.1509     65.66525      5.986     9.21     58.74768     20.53966     49.62025        14     1.606     1.475  14.23  27
        22    626.1234    967.7264 300.0510239 +22.8292147     1525.478     72.89465      1.797     4.69     2.947016     20.53966       94.623        25     1.410     1.152 -70.38   0
        23    233.1236   1002.5282 299.9174661 +22.7212786     1783.269     72.89465      4.034    13.67     60.07065     20.53966     57.19687        48     2.821     2.373 -33.19   3
        24    520.1806    964.1544 300.0192139 +22.7964134     906.0959     72.83907      1.719     3.90     3.220767     20.53966     85.38651        19     1.189     1.078 -67.76   0
        25    450.4044    962.1973 299.9981429 +22.7749198     6414.563     72.61633      1.797     3.94     3.523055     20.53966     475.8053        42     1.407     1.353  -4.90   0
        26    483.3535    949.2224 300.0126141 +22.7810834     480.2723     72.83907      1.734     4.86     3.237833     20.53966     34.51648         9     0.916     0.860  17.07   0
        27    231.6447   1000.0098 299.9178260 +22.7201129     715.0906     72.82054      1.862     3.36     58.25879     20.53966     49.36875         5     1.062     0.308 -65.00   3
        28    304.2413    997.3977 299.9412394 +22.7411537     7621.641     72.80199      8.457    33.01     42.33075     20.53966     160.4858       698    10.792     4.628  64.79  18
        29    996.7768    941.2208 300.1751258 +22.9327249     2170.396     72.80199      2.011     5.16     3.086098     20.53966     124.1832        34     1.546     1.416  21.30   0
        30    563.8354    998.7007 300.0215577 +22.8194173     370.8746     72.78345      1.482     4.26     3.096141     20.53966      32.4499         6     1.272     0.407  30.76   0
        31    187.7306    939.0082 299.9240272 +22.6894470     858.8445     72.78345      4.890     5.02     20.61167     20.53966     29.49479         5     1.229     0.580   9.48   0
        32    494.8207    936.3831 300.0203586 +22.7808407     264.3242     72.78345      1.538     4.17     3.196218     20.53966     31.43938         5     0.933     0.532  50.69   0
        33    785.6900    929.3617 300.1131962 +22.8660520       590.23     72.78345      1.763     4.69     3.156948     20.53966     43.98747        15     1.122     0.962 -70.30   0
        34    820.3519    924.0862 300.1257111 +22.8749286     1017.109     72.78345      1.846     4.53     3.237635     20.53966     74.18855        19     1.217     1.137  57.55   0
        35     30.0393    920.8854 299.8809445 +22.6369150     690.2873     72.78345      2.033     5.53     3.293338     20.53966     53.17655        14     1.409     1.267   3.53   0
        36    842.7064    917.7336 300.1347430 +22.8798060     11255.44      72.9502      1.807     4.00     3.281694     20.53966     665.8901        54     1.479     1.408 -29.09   0
        37    887.3255    917.6373 300.1486789 +22.8931522     447.0404     72.74635      1.911     4.20      3.30732     20.53966     47.38038         6     1.176     0.428  78.30   2
        38    889.7215    916.9914 300.1496357 +22.8936849     310.4477      72.7649      1.508     3.56      3.31603     20.53966     31.87603         5     0.793     0.461 -70.99   3
        39    153.8449    909.2370 299.9231836 +22.6707427     879.1078     72.83907      2.355     5.46     10.68202     20.53966     67.06135        21     1.339     1.291 -64.95   0
        40    185.7277    997.1783 299.9044798 +22.7055180     610.8077     72.82054      4.591     4.89     54.65776     20.53966     38.68889         5     1.543     0.439 -63.96   1
        41    894.0227    905.5942 300.1546839 +22.8917020      395.407     72.78345      1.563     4.98     3.406595     20.53966     43.42021         7     0.979     0.716 -41.57   0
        42    547.7594    905.8937 300.0467491 +22.7879735     492.1258     72.82054      1.652     4.77     3.121427     20.53966     40.96646         9     1.104     0.719 -54.27   0
        43     48.0593    996.1971 299.8620395 +22.6639043     640.2787      72.7649      2.168     7.20     5.972996     20.53966     40.36947        12     1.503     0.967 -47.77   0
        44    851.1895    899.8514 300.1432035 +22.8772154     1352.761     72.80199      1.742     4.20     3.404088     20.53966     101.7632        22     1.291     1.098 -23.01   0
        45    144.0124    901.5942 299.9226150 +22.6656007     296.4099     72.67207      1.485     3.94     8.889091     20.53966     37.48966         5     0.924     0.482  -6.77   0
        46    703.4427    896.9172 300.0981335 +22.8320825     584.8699      72.7649      2.062     5.90     2.962502     20.53966       44.704        10     1.340     0.803  35.78   0
        47    889.4534    893.3637 300.1572383 +22.8868212      790.579     72.82054      1.769     4.94     3.509052     20.53966     59.11552        15     1.182     0.972 -71.38   0
        48    991.9146    993.5804 300.1565722 +22.9463011     789.8508     72.72778      2.175     7.91     3.092498     20.53966     50.95771        18     1.708     1.193 -36.17   0
        49    997.4244    890.0854 300.1919632 +22.9182354     420.5782      72.7649      1.946     6.13     3.021462     20.53966      35.0868         7     1.568     0.673  15.75   0
        50    937.9030    884.9276 300.1750840 +22.8989186     431.1256     72.93169      1.505     4.57     3.528849     20.53966     48.67939         8     0.927     0.639 -51.71   0
        51    789.0788    883.4380 300.1291908 +22.8538865     636.8184     72.78345      1.590     5.27      3.24329     20.53966     56.21512        14     1.183     0.962 -23.87   0
        52    800.6409    880.7537 300.1336659 +22.8565817      574.064      72.8576      1.830     4.59     3.317472     20.53966     53.06172        13     1.163     1.036  45.82   0
        53    501.6002    879.8363 300.0408615 +22.7666540     4119.754     72.80199      1.666     3.66      3.06301     20.53966     340.6276        37     1.397     1.248  41.79   0
        54    256.0881   1003.7637 299.9242008 +22.7285258     835.7196     72.78345      2.500     6.80     59.85333     20.53966     36.25903        10     1.999     0.648  60.33   1
        55    545.4814    868.0281 300.0583562 +22.7764269     421.1843     72.82054      1.844     4.20     3.037384     20.53966      31.0687         6     0.968     0.519  13.82   0
        56    163.7922    867.6820 299.9397888 +22.6618166     260.0346     72.72778      1.391     5.06     5.689784     20.53966     36.94797         5     1.050     0.690 -76.47   0
        57    226.7361    865.1906 299.9601567 +22.6799921     838.7562      72.7649      1.953     5.80     5.238667     20.53966     72.18098        17     1.412     1.113  51.16   0
        58    135.5102    864.3448 299.9320882 +22.6523717     268.9267     72.83907      1.432     4.12      4.66289     20.53966     38.60105         7     0.996     0.486 -82.33   0
        59    203.8181    862.5757 299.9538855 +22.6723650     1557.315     72.80199      1.812     4.10     5.217252     20.53966     156.2503        26     1.326     1.290  15.56   0
        60    195.7037    979.2064 299.9134268 +22.7033619     1455.083     72.69065      6.017    12.83     44.51904     20.53966     46.16058        27     3.494     1.312  64.00   2
        61    735.3474    850.1172 300.1232912 +22.8282154     458.8634     72.83907      1.980     5.29     2.944006     20.53966     33.73096         8     1.214     0.650 -48.08   0
        62    236.1274    844.2739 299.9698771 +22.6768131     362.2094      72.8576      1.420     5.99     4.624429     20.53966     39.15257         8     1.026     0.983   4.71   0
        63    813.4523    843.9026 300.1496427 +22.8498430     649.3088     72.87614      1.834     3.87     3.510234     20.53966     60.43612        12     1.126     0.920  32.39   0
        64    681.6873    838.0632 300.1105006 +22.8086692     4717.731     72.91317      1.587     3.17     3.168442     20.53966     423.4461        34     1.262     1.209 -24.38   0
        65    171.0488    838.3543 299.9515802 +22.6555869     421.3073     72.82054      1.884     5.43     4.574597     20.53966      41.4012         8     1.521     0.547  47.53   0
        66    483.9362    835.0407 300.0499339 +22.7485053     629.1295      72.7649      1.503     3.78      3.21392     20.53966     63.21377        13     1.053     0.852 -13.86   0
        67    232.0517    831.7030 299.9726982 +22.6719857     1409.033     72.87614      1.720     4.01     4.375949     20.53966     120.5905        21     1.275     1.066  22.62   0
        68    702.1346    830.5713 300.1193041 +22.8126488     775.0079     72.82054      1.512     3.56     3.115561     20.53966     77.02858        14     1.081     0.891 -14.95   0
        69    251.4037    829.0889 299.9795624 +22.6770428     404.6876     72.70922      1.552     4.31     4.198743     20.53966     39.17458         6     0.794     0.666 -30.60   0
        70    857.6742    817.7879 300.1719143 +22.8555983     4184.709     72.82054      1.658     3.62     3.694222     20.53966     324.5956        33     1.295     1.207 -37.60   0
        71    589.2047    814.1631 300.0894807 +22.7740824     250.4132     72.83907      1.410     3.69     3.089269     20.53966     26.75846         5     1.155     0.338 -78.51   0
        72    266.4058    811.6270 299.9899028 +22.6765367     424.8882     72.80199      1.490     3.92     3.861163     20.53966     57.33417         9     1.027     0.845 -51.15   0
        73    574.7579    809.9765 300.0863455 +22.7685493     606.9325      72.8576      1.475     3.80     3.197171     20.53966     62.67976        12     0.990     0.834  32.24   0
        74    221.0065    808.3199 299.9768686 +22.6619668     969.9502     72.72778      1.663     3.98      3.80341     20.53966     99.47346        19     1.314     0.978 -43.47   0
        75    370.7380    800.2776 300.0260285 +22.7045808     53232.76     72.87614      1.614     3.14     3.650126     20.53966     4757.652        95     1.434     1.399  30.07   0
        76    636.2343    803.8257 300.1074818 +22.7852161     525.3447     72.80199      1.435     5.28     3.158008     20.53966     55.30886         9     1.247     0.631 -36.15   0
        77    628.6083    799.1847 300.1066167 +22.7815978     1614.762     72.70922      1.554     3.36     3.116857     20.53966     139.1851        23     1.320     1.076 -42.42   0
        78    298.9721    798.4544 300.0043085 +22.6825295     388.3774     72.80199      1.204     4.81     3.719473     20.53966     62.71554         8     0.984     0.686  26.06   0
        79    657.5359    795.6075 300.1167859 +22.7892435     952.0129     72.78345      1.607     3.66     3.363121     20.53966     92.33801        15     1.118     0.890 -16.59   0
        80     56.9402    794.7448 299.9303160 +22.6088390     878.1334     72.87614      2.110     4.85      3.48683     20.53966     74.93135        18     1.522     1.067  22.25   0
        81     24.3955    794.7302 299.9202153 +22.5990665     630.2814      72.7649      1.659     4.06      3.47988     20.53966     69.06194         9     1.090     0.602  46.51   0
        82    668.3352    793.7190 300.1207624 +22.7919388     541.9762     72.91318      1.458     3.60     3.443294     20.53966     70.03111        12     1.001     0.916 -89.83   0
        83    773.7250    790.0876 300.1547655 +22.8224862     354.1818     72.93169      1.388     4.73     3.404235     20.53966     39.62188         8     1.004     0.632 -29.27   0
        84    420.4660    777.5126 300.0488949 +22.7129656      31402.3     72.89465      1.587     2.95     3.530979     20.53966     3382.789        77     1.379     1.353 -73.94   0
        85    811.3762    780.2272 300.1697012 +22.8309391     777.0239     72.78345      1.461     3.86     3.670351     20.53966     74.22964        15     1.203     0.881  20.62   0
        86    434.7526    778.0911 300.0531505 +22.7174163       1888.5     72.80199      1.467     2.79     3.494921     20.53966     233.1878        20     1.103     0.984  10.69   0
        87    943.6153    773.4949 300.2131028 +22.8686295     2700.992     72.72778      1.665     3.33     3.742268     20.53966     208.1802        30     1.277     1.187  52.18   0
        88    431.7669    772.0891 300.0541730 +22.7147990     590.2868      72.7649      1.542     3.50     3.486929     20.53966     57.60077        10     0.930     0.723   8.11   0
        89    537.7651    769.7685 300.0879054 +22.7459191     442.1654     72.82054      1.857     5.58     3.469243     20.53966     43.44211         8     1.160     0.758 -76.59   0
        90    701.5472    769.4617 300.1389908 +22.7949314     961.9486      72.8576      1.475     3.28     3.340291     20.53966     102.1678        16     1.054     0.981 -36.27   0
        91    302.9472    769.4589 300.0149706 +22.6754059     901.9501      72.8576      1.712     3.18     3.637464     20.53966     75.99108        14     1.038     0.865   2.37   0
        92    548.7307    764.4716 300.0930398 +22.7476869      804.635     72.87614      1.485     3.32     3.466945     20.53966     88.14214        13     0.962     0.909  18.40   0
        93    107.7615    765.0073 299.9557664 +22.6155664     633.2929     72.82054      1.782     5.37       3.5999     20.53966     48.58364        13     1.155     0.918 -10.36   0
        94    949.7101    761.4092 300.2189321 +22.8669842     456.0963     72.72778      1.540     4.84     3.782845     20.53966     53.54668        10     1.077     0.808  -5.94   0
        95    450.7021    760.6526 300.0637808 +22.7171964     218.2106     72.89465      1.304     3.80     3.418634     20.53966     39.05677         8     0.975     0.752 -24.25   0
        96    493.9157    759.3646 300.0776434 +22.7297854     511.4405     72.78345      1.748     5.18     3.377751     20.53966     44.17246        11     1.033     0.882 -74.24   0
        97    406.8031    760.1846 300.0502785 +22.7038968     362.9985      72.6535      1.394     3.96     3.500372     20.53966     43.77261         6     0.822     0.546 -43.20   0
        98    136.3582    758.8177 299.9666612 +22.6223732     563.3832     72.82054      2.099     3.08     3.620144     20.53966      47.8576         6     0.736     0.611   3.91   0
        99    703.1813    758.5193 300.1430571 +22.7922800     230.9937     72.80199      1.230     3.54     3.367244     20.53966     40.47126         5     0.801     0.688 -45.77   0
       100    927.8465    756.3071 300.2137751 +22.8589687     245.4472     72.82054      1.235     3.85     3.854162     20.53966     41.62126         9     0.989     0.652 -28.65   0
       101    300.4623    753.4816 300.0193919 +22.6700778     468.3898     72.89465      1.540     4.12     3.597239     20.53966     64.03321        12     1.041     0.866 -15.67   0
       102    623.8448    743.9738 300.1230831 +22.7643233     403.6179     72.82054      1.429     4.67     3.435544     20.53966     41.35716        10     0.964     0.783 -27.45   0
       103    593.6820    742.3710 300.1142147 +22.7548210     712.7947     72.82054      1.606     2.76     3.448639     20.53966     70.69871        10     0.819     0.798  39.77   0
       104    502.4810    741.6471 300.0860677 +22.7272697     379.2296     72.80199      1.640     4.31     3.374163     20.53966     43.48589         7     1.014     0.522 -32.21   0
       105   1010.0286    738.7859 300.2450938 +22.8785544     4547.892     72.82054      1.750     3.60     4.022048     20.53966     317.2654        38     1.372     1.331 -60.88   0
       106    615.3708    739.7891 300.1218054 +22.7605819      1350.39     72.80199      1.450     2.59     3.458126     20.53966     162.3502        17     0.991     0.967  60.41   0
       107    535.2812    739.4763 300.0969797 +22.7364813     356.1255     72.91317      1.594     4.31     3.455628     20.53966     47.62086         5     1.020     0.520 -38.97   0
       108    696.6916    734.6434 300.1487976 +22.7834805     349.8978     72.80199      1.370     4.51     3.457234     20.53966     40.68347         7     0.917     0.631 -70.09   0
       109    998.4960    730.3325 300.2442456 +22.8726716     1655.356     72.93169      1.725     3.72     4.058608     20.53966     141.3557        24     1.314     1.108 -11.96   0
       110    361.1014    724.0437 300.0478137 +22.6798218     768.2863     72.80199      1.387     3.99     3.515624     20.53966     96.17107        15     1.208     0.847 -44.14   0
       111    824.8657    721.5236 300.1929881 +22.8181245     2601.622     72.89465      1.566     2.99     3.670256     20.53966     251.4676        31     1.286     1.178 -20.53   0
       112     47.5179    711.7513 299.9543663 +22.5822194     737.1259     72.82054      1.617     2.85      3.56234     20.53966     79.91173        14     0.989     0.880 -76.41   0
       113    907.2990    707.4267 300.2232597 +22.8387732     567.1891     72.74635      1.842     5.48     3.892835     20.53966     42.14082        11     1.117     0.759  28.29   0
       114    210.1675    708.1441 300.0060634 +22.6299874       569.51     72.82054      1.646     3.38     3.619167     20.53966     64.26175         8     0.935     0.713  -5.62   0
       115    943.2563    698.4144 300.2373976 +22.8469559     147322.9     72.78345      1.627     3.17     4.010529     20.53966     13387.79       154     1.505     1.486 -47.30   0
       116    795.4841    698.7900 300.1912229 +22.8027922     759.1873      72.7649      1.361     3.21     3.648005     20.53966     88.89089        16     1.149     0.894   4.61   0
       117    975.9874    691.1337 300.2499685 +22.8546684     357.5556      72.7649      1.453     4.48     4.125406     20.53966     44.27591         8     1.027     0.684 -15.73   0
       118    275.3159    689.2575 300.0324488 +22.6441129     304.3463     72.89465      1.369     4.25     3.621837     20.53966     36.20055         5     0.974     0.528 -36.44   0
       119    629.6288    687.1040 300.1433680 +22.7497323     1623.969     72.74635      1.425     2.82     3.868114     20.53966     183.7708        20     1.157     0.948 -63.73   0
       120    810.7325    684.5703 300.2005951 +22.8032774     9490.983     72.78345      1.516     2.77     3.693406     20.53966     1036.862        42     1.233     1.204   4.09   0
       121    312.2089    679.5324 300.0470778 +22.6523886     4893.418     72.80199      1.496     2.76     3.607857     20.53966      556.055        36     1.247     1.178 -73.00   0
       122     25.9681    678.0361 299.9586310 +22.5660864       1559.9     72.82054      1.715     3.52      3.45256     20.53966     142.5228        27     1.381     1.204 -13.72   0
       123    394.3255    677.6950 300.0732086 +22.6764876     1106.684      72.9502      1.414     2.86     3.542635     20.53966     137.2873        16     1.052     0.908  -6.42   0
       124    270.1915    675.1187 300.0354506 +22.6385201     442.3493     72.74635      1.348     3.21     3.653537     20.53966     61.01838         8     0.849     0.650  50.87   0
       125    602.2269    673.0295 300.1394117 +22.7374785     699.8166     72.80199      1.486     4.38     4.017803     20.53966      78.9799        15     1.309     0.953  41.73   0
       126    594.2164    665.2943 300.1394318 +22.7328569     3264.206     72.72778      1.406     2.58     4.003648     20.53966     350.2447        30     1.171     1.126  71.38   0
       127    584.4376    659.2291 300.1383589 +22.7281847     1316.327     72.82054      1.364     2.73     3.979894     20.53966     167.1253        17     1.070     0.930  13.70   0
       128    512.9741    658.5020 300.1163549 +22.7065537     275.9857     72.74635      1.337     3.75     3.711847     20.53966     31.60253         6     0.810     0.500  -1.77   0
       129    978.0573    657.3770 300.2615846 +22.8455900     340.2961     72.80199      1.207     4.17     4.193868     20.53966     45.77375         7     0.787     0.630 -18.84   0
       130    495.2149    656.2401 300.1115641 +22.7005805     280.4149     72.82054      1.321     3.35     3.696237     20.53966     37.70243         5     0.720     0.709  -2.80   0
       131    247.6652    655.3856 300.0348610 +22.6261029     647.4775     72.78345      1.472     4.11     3.626832     20.53966     74.97126        15     1.203     0.897 -27.55   0
       132    261.9971    653.8801 300.0398047 +22.6299697     568.4034     72.70922      1.464     3.49     3.602711     20.53966     70.93173        10     1.135     0.755 -32.86   0
       133    287.8601    650.4036 300.0489735 +22.6367293      464.787     72.78345      1.385     3.29     3.552462     20.53966     61.54533         9     0.920     0.783  46.27   0
       134    509.1549    648.8470 300.1183038 +22.7026376     1775.976     72.83907      1.395     2.66     3.787008     20.53966     210.5525        21     1.066     1.000 -15.62   0
       135    319.2728    650.0214 300.0588632 +22.6460405     314.8928     72.82054      1.588     4.86     3.531693     20.53966     53.06081         6     0.939     0.712  26.81   0
       136    608.5375    649.2000 300.1491195 +22.7325291     468.2903     72.74635      1.458     3.67     4.136678     20.53966     50.50469         8     0.907     0.756 -68.66   0
       137    163.1608    643.6949 300.0124002 +22.5974014     19771.48     72.80199      1.580     2.85     3.842237     20.53966     2316.351        62     1.399     1.330  13.26   0
       138     84.3621    645.5153 299.9873312 +22.5742833     579.9182     72.78345      1.395     3.24     3.704124     20.53966     67.07238        11     1.002     0.794 -36.36   0
       139    594.1963    644.2104 300.1462767 +22.7267982     1008.048     72.63491      1.398     2.84     4.095808     20.53966      115.388        13     1.018     0.785  19.92   0
       140    629.4190    643.1550 300.1575844 +22.7370521     320.1222     72.83907      1.269     3.07     4.107594     20.53966     48.49131         5     0.724     0.470  74.27   0
       141    511.2349    640.8055 300.1215639 +22.7009530     329.7298     72.78345      1.631     3.79     3.858939     20.53966      29.3078         5     0.925     0.445 -44.00   0
       142    677.3359    631.9069 300.1761584 +22.7481825     194.5536     72.91317      1.167     5.17     4.062542     20.53966     33.02075         7     1.070     0.706  50.92   0
       143   1012.1873    630.3730 300.2810020 +22.8480522     856.8079     72.80199      1.452     3.12     4.270742     20.53966     100.1509        14     1.026     0.862  24.60   0
       144    109.1735    627.6426 300.0008442 +22.5766017     1635.799     72.82054      1.975     4.81     3.820109     20.53966     118.8437        31     1.679     1.167  89.11   0
       145    878.8209    628.4409 300.2400524 +22.8075534     589.5239     72.83907      1.634     4.37     3.946161     20.53966     57.13204         8     1.004     0.616 -18.02   0
       146    175.4655    628.1282 300.0212807 +22.5966277     502.6832     72.83907      1.580     2.63     3.786216     20.53966     50.80779         5     0.728     0.440  66.06   0
       147    557.4156    624.8092 300.1411324 +22.7102042     401.1946     72.72778      1.187     3.42     4.097156     20.53966     53.24967         9     0.926     0.711  46.78   0
       148    952.2019    623.0156 300.2646889 +22.8279738     904.9753      72.6535      2.037     4.40     4.168541     20.53966     62.06545        11     1.090     0.753  44.06   0
       149    697.1072    621.4218 300.1857219 +22.7510964     247.1433     72.72778      1.222     3.57     4.054662     20.53966     41.56538         5     0.869     0.551 -45.32   0
       150    662.1937    616.0334 300.1766008 +22.7390870     477.3385     72.80199      1.315     3.69     4.191005     20.53966     60.59212         8     0.944     0.615 -59.56   0
       151    514.3190    616.9792 300.1302648 +22.6950384     670.4278      72.7649      1.251     2.77      4.06789     20.53966     108.7068        11     0.958     0.736 -27.52   0
       152    709.3799    614.0235 300.1919476 +22.7526493     373.9229     72.80199      1.335     3.63     4.035789     20.53966     65.01327         9     0.920     0.760 -61.17   0
       153    679.9615    613.9755 300.1828020 +22.7438204     407.7275     72.82054      1.308     2.59     4.163153     20.53966     65.29681         9     0.784     0.734  -9.36   0
       154    558.6878    612.9711 300.1453744 +22.7071871     1001.146     72.80199      1.506     3.20     4.188735     20.53966      112.087        15     1.171     0.796  33.13   0
       155    992.3215    608.4998 300.2819142 +22.8358178     3405.947     72.93169      1.584     3.16     4.233723     20.53966     328.9508        31     1.227     1.186  26.34   0
       156    524.0554    608.3599 300.1360947 +22.6954827     1680.842     72.78345      1.309     2.53     4.159598     20.53966     198.8188        19     0.979     0.977 -36.66   0
       157    874.3935    604.1667 300.2465593 +22.7992538     228.1637     72.80199      1.400     4.47     3.971282     20.53966     28.66145         5     0.945     0.762  -0.47   0
       158    499.3882    603.7423 300.1299193 +22.6867631     289.5276      72.7649      1.316     5.29     4.108549     20.53966     39.05871         8     1.424     0.555 -15.49   0
       159     85.8624    601.7735 300.0020075 +22.5621892     5152.684     72.80199      1.664     3.47     3.744072     20.53966     497.4048        41     1.373     1.341  49.20   0
       160    553.0250    598.8630 300.1481954 +22.7014396     286.7156     72.78345      1.450     3.66     4.231496     20.53966     26.89826         5     0.880     0.754   5.55   0
       161    387.4055    594.9821 300.0979304 +22.6506774     9048.852      72.7649      1.443     2.62     3.508781     20.53966     1116.244        42     1.238     1.171  89.52   0
       162    509.9119    592.1235 300.1369683 +22.6865823      9042.12     72.93169      1.365     2.38     4.153115     20.53966     1172.579        49     1.286     1.143  27.75   0
       163    275.0232    589.2418 300.0648532 +22.6153321     347.9094     72.83907      1.374     4.20     3.607171     20.53966     39.32121         6     1.141     0.441  28.08   0
       164    755.9578    588.5810 300.2147208 +22.7592978     282.9796     72.82054      1.475     4.21     3.893764     20.53966     37.41419         5     1.121     0.450 -11.37   0
       165    921.5299    586.1781 300.2670954 +22.8082035     1799.853     72.80199      1.462     2.86      4.08549     20.53966     185.6902        21     1.130     0.997 -56.21   0
       166   1006.2151    583.4942 300.2943706 +22.8327925      12402.3     72.72778      1.603     3.00     4.249957     20.53966     1299.023        48     1.315     1.288 -31.08   0
       167    570.4689    581.7016 300.1591995 +22.7017408     11735.53     72.89465      1.341     2.39     4.268557     20.53966     1548.544        45     1.193     1.136 -61.19   0
       168    739.7454    577.9389 300.2131280 +22.7513840     554.0283      72.8576      1.330     2.59     3.894206     20.53966     92.18339        10     0.965     0.627 -23.91   0
       169    297.9871    576.9879 300.0759722 +22.6187023     1424.036     72.72778      1.462     2.78     3.690798     20.53966     172.7748        22     1.240     1.002   4.80   0
       170    455.3629    576.2832 300.1251423 +22.6656839     242.6434     72.78345      1.242     3.46     3.933893     20.53966     41.78584         5     0.752     0.460  76.41   0
       171    544.8699    574.8476 300.1534588 +22.6921007     433.6568     72.78345      1.319     2.74     4.276605     20.53966     54.05937         8     0.786     0.673 -47.87   0
       172      1.0922    574.0793 299.9846796 +22.5288146     382.0854     55.30929      0.984     2.43     2.987809     20.53966     86.67526         5     0.957     0.268 -83.18  24
       173    932.1559    574.3893 300.2742376 +22.8079985      325.197     72.80199      1.565     4.32     4.082534     20.53966     26.48514         5     0.964     0.552 -47.51   0
       174    502.0723    569.9224 300.1417407 +22.6778592     4455.134     72.91317      1.354     2.33     4.165183     20.53966     604.0565        26     1.080     1.013  57.10   0
       175    845.1929    569.9302 300.2485816 +22.7806717     788.7195      72.7649      1.337     2.74      3.89875     20.53966     103.3436        13     0.909     0.868 -10.29   0
       176    480.2687    568.2710 300.1354932 +22.6708497     1258.056     72.83907      1.322     2.65     4.102469     20.53966     138.6103        18     1.051     0.951 -82.26   0
       177    234.6957    567.6170 300.0593429 +22.5970338     700.7663     72.70922      1.413     4.66      3.83892     20.53966       85.422        13     1.267     0.785  43.59   0
       178    921.9110    565.2504 300.2740127 +22.8023044      1647.62     72.80199      1.605     3.33     4.037968     20.53966     164.6082        25     1.249     1.158 -20.94   0
       179    618.7505    557.4492 300.1821064 +22.7092462     199584.2     72.83907      1.343     2.35       4.2879     20.53966     27954.62       209     1.468     1.430 -43.67   0
       180    442.5248    563.9460 300.1251559 +22.6582941     278.7495     72.83907      1.170     3.72     3.921879     20.53966     42.26679         6     0.807     0.493 -82.63   0
       181    802.5616    562.4633 300.2377235 +22.7657569     792.0667     72.78345      1.327     2.61     3.868474     20.53966     92.55895        13     0.957     0.782 -33.02   0
       182    304.8542    557.2759 300.0845096 +22.6151051      3484.87     72.83907      1.420     2.55     3.861572     20.53966     419.1078        27     1.143     1.066 -83.88   0
       183    871.0814    553.4333 300.2620081 +22.7836861     441.6939      72.7649      1.273     4.80     3.910307     20.53966     60.37571        11     1.257     0.778 -31.82   0
       184    889.2667    551.8561 300.2681882 +22.7886793     53.96407      72.8576      1.181     3.40      3.94433     20.53966     35.66241         5     0.960     0.348  44.70   0
       185    650.1868    544.3326 300.1961540 +22.7148992     328.5941     72.80199      1.311     2.72     4.275679     20.53966     43.99709         5     0.850     0.471  -1.97   0
       186    509.3621    538.0256 300.1543692 +22.6708870     2885.832     72.82054      1.510     2.57     4.231905     20.53966     364.8094        30     1.580     1.014 -80.18   0
       187    353.6845    540.2283 300.1052287 +22.6248534     411.3081     72.80199      1.249     5.67     3.920661     20.53966      50.4939        10     1.258     0.719 -48.55   0
       188    958.8160    537.6223 300.2944921 +22.8054167     250.4739     72.78345      1.445     4.86      4.09529     20.53966     34.12964         5     1.074     0.622  64.15   0
       189    921.0728    534.4448 300.2837577 +22.7932014     411.8918     72.78345      1.345     2.54     3.985557     20.53966      53.4422         6     0.763     0.494  -5.32   0
       190    740.0299    533.5115 300.2276474 +22.7387083     171.7269     72.78345      0.975     1.97      3.87754     20.53966     52.78578         6     0.718     0.499  -2.65   0
       191    906.4595    523.9716 300.2826041 +22.7858158     1742.023     72.80199      1.455     2.99      3.96164     20.53966     195.5873        22     1.164     1.045 -75.67   0
       192    826.6423    526.4886 300.2569114 +22.7626347     290.4456     72.80199      1.172     3.20     3.893442     20.53966     52.10859         7     0.928     0.487   8.16   0
       193    777.5494    521.6265 300.2431949 +22.7465333     2435.026     72.82054      1.343     2.33      3.88764     20.53966     338.9677        25     1.112     1.026 -17.55   0
       194     36.4793    522.4614 300.0124307 +22.5246278     895.7016     72.87614      1.812     3.41     3.357776     20.53966     82.14622        15     1.123     0.921 -67.82   0
       195    137.0094    522.0801 300.0437783 +22.5546727     245.3276     72.74635      1.221     3.66     4.020226     20.53966     30.87735         5     0.649     0.592 -89.39   0
       196   1021.6851    519.5087 300.3199790 +22.8190345      491.713     66.74598      1.550     3.45     4.280992     20.53966     52.61887         8     0.879     0.719  47.51  17
       197    986.7469    518.7166 300.3093412 +22.8083464     195.3506     72.83907      1.192     4.82      4.17003     20.53966     38.31055         7     1.026     0.643  70.29   0
       198    682.4683    517.9590 300.2147714 +22.7169966      515.153     72.78345      1.535     3.89     4.181957     20.53966     52.27412        10     1.005     0.837 -56.40   0
       199    564.9279    517.5052 300.1783258 +22.6816476     697.3138     72.91317      1.339     3.08     4.324988     20.53966     93.25472        11     0.945     0.806 -10.24   0
       200    906.5601    514.1144 300.2858368 +22.7830133     2252.729     72.78345      1.589     3.05     3.961386     20.53966     252.5421        28     1.610     0.992  83.89   0
       201   1020.4178    515.1085 300.3210129 +22.8173904     734.7178     71.03752      1.595     3.54     4.270905     20.53966     80.55447        12     1.108     0.867  25.74  16
       202    659.9754    512.1357 300.2096586 +22.7085853     553.9232     72.78345      1.444     2.57     4.235853     20.53966     63.27346         8     0.796     0.648  39.85   0
       203    498.6991    510.9782 300.1598352 +22.6599258     266.8453     72.72778      1.140     2.31     4.240191     20.53966     55.54686         7     0.691     0.659  41.68   0
       204    445.8376    511.5616 300.1431997 +22.6442498     178.0711     72.87614      0.995     2.38     3.979456     20.53966     37.50491         5     0.700     0.464  19.63   0
       205    944.8079    509.1103 300.2993850 +22.7930283     4085.591     72.70922      1.390     2.69     4.030838     20.53966     468.4766        29     1.169     1.063 -62.07   0
       206    659.3515    507.8998 300.2108399 +22.7071817     444.6924     72.83907      1.412     2.65     4.232771     20.53966     61.93156         7     0.812     0.597  54.13   1
       207    605.4918    504.8001 300.1950781 +22.6901541     304.0536     72.67207      1.172     2.08     4.291934     20.53966      60.5962         5     0.684     0.478 -72.65   0
       208    176.7845    499.4041 300.0634993 +22.5600958     1040.432      72.6535      1.481     2.89     4.065732     20.53966     114.9143        16     1.076     0.891  36.96   0
       209    838.2568    493.2471 300.2713261 +22.7565624     310.5008     72.83907      1.136     3.49     3.925926     20.53966     45.30517         6     0.732     0.654 -39.04   0
       210    442.8381    492.6497 300.1484078 +22.6379215     248.5257     72.82054      1.213     3.52     3.924502     20.53966      40.0329         5     1.154     0.309 -79.64   0
       211    224.3608    491.5193 300.0808438 +22.5721001     203.1356      72.7649      1.032     2.51     4.056917     20.53966     54.02995         5     0.909     0.460 -44.67   0
       212    169.5328    489.3923 300.0644970 +22.5550486     416.3431     72.80199      1.343     3.49     4.059973     20.53966     60.70779         7     1.051     0.681  52.02   0
       213    777.1594    483.9851 300.2552974 +22.7356025     504.4189     72.82054      1.417     2.97     3.921394     20.53966      64.4398         8     0.863     0.688  -9.94   0
       214    385.7682    481.6725 300.1342211 +22.6176643      249.068     72.80199      1.286     4.33     3.636039     20.53966     43.53567         6     0.927     0.596  60.83   0
       215    665.7546    481.4050 300.2214373 +22.7014901     283.2647     72.80199      1.229     2.14     4.193939     20.53966     51.77657         5     0.670     0.473 -16.02   0
       216    718.2186    479.7369 300.2383172 +22.7167274      793.967      72.7649      1.279     2.36     4.002744     20.53966     98.60983        10     0.854     0.688  35.61   0
       217    779.0957    471.8124 300.2598532 +22.7326852     933.3839     72.72778      1.365     2.83     3.924376     20.53966     117.1628        14     1.015     0.807 -22.64   0
       218    936.2354    467.7718 300.3101366 +22.7785807     1006.767     72.82054      1.459     3.25     3.997642     20.53966     112.9127        15     1.088     0.871 -83.76   0
       219    920.4634    464.7093 300.3062143 +22.7729782     569.1645     72.89465      1.312     3.38     3.975685     20.53966     65.80317        10     0.923     0.789  -2.33   0
       220    900.9023    464.4164 300.3002119 +22.7670370     298.5857     72.72778      1.215     2.63     3.967652     20.53966     43.65673         5     0.720     0.452 -20.56   0
       221    664.8107    462.3137 300.2273423 +22.6957235     3304.464     72.74635      1.272     2.26     4.161384     20.53966     448.4912        26     1.085     0.986 -36.25   0
       222    140.4824    453.2232 300.0672143 +22.5359593     424.3209      72.7649      1.650     4.18     4.056706     20.53966     43.95753         9     1.072     0.844 -87.31   0
       223    504.6898    449.4330 300.1816831 +22.6440495     357.0556      72.7649      1.180     3.38     4.266219     20.53966     42.92451         5     0.725     0.457 -19.90   0
       224    948.1479    441.4555 300.3223951 +22.7745834      611.681     72.83907      1.523     2.64     4.061683     20.53966     70.75102         9     0.876     0.763 -43.76   0
       225    684.4064    438.5302 300.2411662 +22.6947615     373.4603      72.7649      1.320     3.30     4.075522     20.53966     56.80678         5     0.741     0.467 -17.73   0
       226    775.5082    436.4768 300.2702084 +22.7214580       1061.9      72.9502      1.194     2.18     3.926382     20.53966     135.5478        13     0.922     0.765  -6.68   0
       227    571.0699    436.9808 300.2063839 +22.6603634     355.0885     72.82054      1.318     2.97     4.256198     20.53966     45.31424         9     0.791     0.745 -51.28   0
       228    279.3135    434.2949 300.1165028 +22.5721533      675.431      72.9872      1.273     2.70     4.058584     20.53966       85.334        11     0.984     0.720  54.53   0
       229    341.6865    430.2179 300.1372182 +22.5896802     3730.052     72.74635      1.348     2.37     3.988998     20.53966     501.2245        28     1.124     1.038  84.44   0
       230    119.1233    432.4326 300.0673282 +22.5235889     241.8027     72.80199      1.330     2.79     4.049141     20.53966     44.03429         5     0.849     0.481   9.65   0
       231    288.9063    424.9896 300.1225056 +22.5723581     7471.909     72.74635      1.400     2.48     4.070784     20.53966     969.6469        38     1.200     1.109  57.95   0
       232    429.6596    419.1723 300.1681638 +22.6128760     4773.401     72.80199      1.297     2.34     4.128785     20.53966     644.4233        28     1.085     1.039  62.25   0
       233    673.8724    415.9175 300.2452268 +22.6851100     18614.17     72.93169      1.327     2.30     4.060424     20.53966     2782.529        62     1.303     1.187  30.06   0
       234    691.7538    415.9166 300.2507955 +22.6904659     917.0246     72.78345      2.084     6.36     4.021913     20.53966     65.36035        16     1.557     0.772 -51.11   0
       235    521.2076    417.2833 300.1972600 +22.6397666     291.4599     72.72778      1.406     4.36     4.249547     20.53966     35.26796         7     0.893     0.607 -28.29   0
       236    300.7137    414.0308 300.1297336 +22.5727519       367.18     72.78345      1.732     3.33     4.071659     20.53966     48.30017         5     0.821     0.391  71.72   0
       237     49.7879    413.5970 300.0519070 +22.4973917     235.2816     72.63491      1.452     3.46     3.903333     20.53966     26.77559         5     0.792     0.435  19.94   0
       238    870.8425    406.1178 300.3097700 +22.7412814     406.1429      72.7649      1.343     3.56     3.962224     20.53966     46.67826         7     0.835     0.671 -34.87   0
       239    293.7236    402.9628 300.1311530 +22.5674795     426.0232      72.7649      1.612     4.33     4.039176     20.53966     41.00903         7     0.762     0.699  67.92   0
       240   1007.6510    398.6621 300.3548411 +22.7800940     689.1865      72.8576      1.509     3.54     4.216936     20.53966     92.08022        13     1.219     0.673 -45.26   0
       241    544.6335    398.1416 300.2107638 +22.6412879     242.2754     72.82054      1.160     3.39     4.137494     20.53966     36.80086         6     0.742     0.623  32.70   0
       242    228.6153    396.0197 300.1131686 +22.5459689     1883.907     72.78345      1.397     2.53     4.071163     20.53966     260.6065        18     1.049     0.925  39.22   0
       243    614.5776    385.4063 300.2366689 +22.6585835     6511.845     72.78345      1.264     2.18     4.009361     20.53966     846.3903        35     1.163     1.029  67.77   0
       244    329.5369    384.8974 300.1481511 +22.5730282     696.2009     72.89465      1.405     2.81     3.952811     20.53966     91.87829        13     1.008     0.815 -84.52   0
       245    186.8710    377.8692 300.1060868 +22.5282447      475.042      72.8576      1.527     4.52     4.065954     20.53966     76.11142         9     0.954     0.686  10.39   0
       246    874.3172    377.0551 300.3202867 +22.7339685     337.6277      72.8576      1.384     4.79     3.950567     20.53966     44.29654         7     0.988     0.657  82.34   0
       247    728.4911    375.4980 300.2753570 +22.6898558      417.716      72.9872      1.238     2.53     3.865387     20.53966     68.41131        11     0.875     0.781  16.98   0
       248     34.2629    375.5943 300.0594199 +22.4818329     1293.835      72.7649      1.599     3.04     3.864064     20.53966     177.9414        20     1.284     0.970  11.66   0
       249    818.8476    374.5085 300.3038272 +22.7166286     1175.751     72.80199      1.408     2.62     3.929639     20.53966     163.6745        16     1.030     0.875 -29.73   0
       250      3.4694    373.3269 300.0505941 +22.4719474     1377.499     67.35003      1.954     5.95     3.774297     20.53966     90.23514        27     1.682     1.098 -56.51  24
       251    521.2420    371.6115 300.2120952 +22.6266599      6247.56     72.80199      1.268     2.24     3.962814     20.53966     901.8069        31     1.072     1.037 -49.28   0
       252    913.3031    366.0133 300.3360223 +22.7424659     1476.868     72.69065      1.394     2.58     4.008619     20.53966     180.7745        20     1.083     0.984 -86.49   0
       253   1010.6578    366.5106 300.3662150 +22.7717499      551.619      72.8576      1.304     3.07     4.165385     20.53966     70.22681         9     1.073     0.498  -2.32   0
       254     12.0447    360.3085 300.0574814 +22.4707843     390.2049     72.78345      1.584     4.68      3.80168     20.53966     61.70869         9     1.220     0.787  61.69   0
       255    505.7587    360.2020 300.2109799 +22.6187441     504.5269     72.80199      1.350     3.09     3.882957     20.53966     62.63046         8     0.983     0.559  31.00   0
       256    588.3739    358.1823 300.2373475 +22.6429137     400.4363     72.82054      1.261     3.20     3.874802     20.53966     60.42502         7     0.900     0.635 -77.84   0
       257     32.5324    356.8547 300.0649639 +22.4759373     1091.184     72.83907      1.618     3.25     3.863922     20.53966     119.3636        19     1.255     1.028  53.09   0
       258    569.7194    355.9550 300.2322638 +22.6366857     271.0516     72.78345      1.407     3.74     3.864507     20.53966      36.2545         5     0.818     0.492  31.61   0
       259    886.0723    353.8904 300.3314690 +22.7308292     556.6436      72.9687      1.345     2.64     3.959396     20.53966     71.07301         9     0.907     0.601  -8.17   0
       260    408.7361    350.7931 300.1838492 +22.5869712     2507.178      72.7649      1.330     2.39     3.838512     20.53966     357.4499        23     1.093     0.966 -75.13   0
       261    127.3001    348.3017 300.0971736 +22.5018991     986.9843     73.04266      1.509     2.88     4.068834     20.53966     106.4184        14     1.049     0.777  31.87   0
       262    756.5300    345.6723 300.2937708 +22.6896815     255.0929     72.87614      1.120     4.08     3.845368     20.53966     38.87136         6     1.006     0.472  34.15   0
       263    378.0933    340.2511 300.1777397 +22.5747616     29569.88     72.87614      1.354     2.39     3.874732     20.53966     3578.413        74     1.330     1.203  61.19   0
       264    912.7958    337.8047 300.3450193 +22.7342048     1316.975     72.63491      1.331     2.27     3.999183     20.53966     206.0135        16     1.011     0.836  62.77   0
       265     74.3648    328.0401 300.0873052 +22.4802131     4921.523      72.8576      1.574     2.95     4.150745     20.53966     545.7366        36     1.359     1.158  54.99   0
       266    828.0903    326.7347 300.3222118 +22.7056649     468.4027     72.93169      1.313     2.78     3.869986     20.53966     59.13351         9     0.855     0.687  65.06   0
       267    476.5110    325.4551 300.2131553 +22.6000017     555.1779     72.83907      1.103     2.56     3.983355     20.53966     81.31731         7     0.881     0.485 -80.51   0
       268    252.1186    326.1259 300.1431559 +22.5329516     433.4988     72.91317      1.374     4.53     4.045858     20.53966     61.01236         7     1.116     0.523  50.56   0
       269    788.5694    320.0874 300.3120548 +22.6919218     1836.445     72.78345      1.291     2.41     3.844267     20.53966       224.63        19     0.983     0.924  68.90   0
       270    596.3926    314.8861 300.2538937 +22.6328773     259.4506     72.72778      1.398     4.29     3.846522     20.53966     53.60545         8     0.912     0.824  17.87   0
       271   1003.7612    313.1009 300.3813976 +22.7543285     488.6947     72.82054      1.133     2.60     4.130844     20.53966     81.52817         7     0.703     0.654  -9.62   0
       272    450.2993    304.6205 300.2117607 +22.5861647     2228.931     72.72778      1.489     2.90     4.070306     20.53966       261.84        20     1.244     0.881  60.48   0
       273    662.6540    303.8059 300.2781189 +22.6495388     288.4294     72.78345      1.194     2.20     3.828635     20.53966     45.25592         5     0.710     0.442  71.50   0
       274    889.3699    297.6230 300.3507562 +22.7156409     650.7083     72.80199      1.319     3.05     3.896196     20.53966     92.48328        13     1.107     0.849 -80.16   0
       275    882.1223    298.5556 300.3481945 +22.7137395     281.9013     72.78345      1.179     3.47     3.873389     20.53966     33.09121         5     0.806     0.432 -21.22   0
       276     23.3549    295.3513 300.0820696 +22.4555379     751.1517     72.83907      2.207     3.06     4.667303     20.53966     54.85386        11     0.922     0.817  40.23   2
       277    771.6799    295.7543 300.3146886 +22.6798713     266.2508     72.78345      1.143     2.15     3.795501     20.53966     57.71498         6     0.671     0.605 -22.47   0
       278    789.2156    295.1507 300.3203477 +22.6849479      322.514     72.83907      1.590     4.90     3.796752     20.53966     36.96837         6     1.041     0.652  -1.40   0
       279    526.0815    283.7979 300.2420962 +22.6028857     1230.599     72.70922      1.296     2.63     3.983444     20.53966     181.0656        16     0.961     0.918  35.21   0
       280     98.8615    283.9206 300.1092282 +22.4748960     205.2236     72.87614      1.440     4.46      4.27896     20.53966     30.99463         6     1.158     0.488  59.62   0
       281    909.6027    277.3852 300.3636292 +22.7158784     167.3934     72.63491      1.093     2.91     3.955861     20.53966      42.4485         5     0.784     0.692  47.18   0
       282    771.0025    275.9671 300.3208976 +22.6739811     2094.518      72.7649      1.313     2.15     3.786411     20.53966     322.4599        20     0.986     0.929 -89.86   0
       283      4.2091    261.2113 300.0871996 +22.4400006     72293.96     69.96519      1.649     3.06     4.811531     20.53966     7088.383       103     1.572     1.410  58.14  24
       284    479.3285    259.8719 300.2353101 +22.5820077      673.089      72.8576      1.249     2.79     4.235933     20.53966     98.63686        11     0.968     0.736  59.80   0
       285    403.8079    261.6129 300.2112516 +22.5598834     326.5141     72.69065      1.021     3.08     3.932101     20.53966     32.39003         5     0.720     0.465  15.44   0
       286    154.1712    253.9147 300.1361445 +22.4828635     1331.733     72.80199      1.581     3.52     4.353071     20.53966     128.7738        19     1.134     1.076 -36.60   0
       287    184.9732    253.6620 300.1457972 +22.4920234     608.0092     72.80199      1.443     4.04     4.296673     20.53966     68.32494        12     1.188     0.792  48.00   0
       288    891.4412    247.0444 300.3678113 +22.7017189     333.0355     72.87614      1.378     2.85     3.911833     20.53966     68.10295         6     0.809     0.605  47.26   0
       289    238.1817    245.8217 300.1648765 +22.5057195     458.5038     72.80199      1.220     3.24     4.182155     20.53966     69.85353         9     0.973     0.598  53.38   0
       290     93.7988    243.3619 300.1208121 +22.4617373     312.7435     72.82054      1.384     3.03     4.516389     20.53966     53.54063         6     0.869     0.664  20.19   0
       291    914.1685    239.5727 300.3773195 +22.7063725     397.8153     72.80199      1.306     2.72     3.935233     20.53966     50.96062         5     0.730     0.436 -23.56   0
       292    842.5334    237.3231 300.3557220 +22.6842853     597.0221     72.89465      1.273     2.62     3.862137     20.53966     84.45294        10     0.885     0.707  10.50   0
       293    433.0686    236.9011 300.2283695 +22.5615515     526.1981     72.89465      1.385     2.84     3.895597     20.53966     54.19369         7     0.850     0.537 -46.80   0
       294    940.8672    226.3435 300.3899342 +22.7105584     2119.531     72.83907      1.473     2.60     3.904481     20.53966     270.6912        24     1.151     1.059  70.95   0
       295    359.3870    223.6078 300.2097641 +22.5356593     2052.421     72.69065      1.347     2.46      3.68876     20.53966     268.0383        17     1.035     0.848  62.34   0
       296    437.3051    218.7779 300.2355657 +22.5576147      995.916     72.70922      1.316     2.87     3.927003     20.53966     115.7898        15     1.059     0.825 -46.43   0
       297    189.0589    219.2310 300.1582346 +22.4833631     270.0507     72.82054      1.078     3.05      4.38205     20.53966     49.01981         5     0.781     0.495 -64.34   0
       298    839.3287    217.7654 300.3610673 +22.6777031     572.0472     72.80199      1.313     3.55     3.947888     20.53966     70.19663        11     0.964     0.883  46.34   0
       299    596.3445    218.1119 300.2852738 +22.6050568      161.918     72.83907      1.179     4.39     4.468267     20.53966     38.95882         5     0.855     0.641  13.61   0
       300    946.3524    215.5321 300.3951512 +22.7090907     328.8328     72.78345      0.962     2.17     3.945493     20.53966      65.6008         5     0.698     0.458 -75.15   0
       301     35.5848    212.3568 300.1127880 +22.4353868     468.2096     72.82054      1.866     4.07     4.742187     20.53966     46.82668         6     1.004     0.472  34.29   0
       302    254.0427    210.9836 300.1811060 +22.5004694     777.0291     72.82054      1.456     2.80     4.160501     20.53966     103.1078        12     0.963     0.814 -10.55   0
       303    791.9694    207.8468 300.3495274 +22.6606757     1655.164     72.82054      1.322     2.57     3.989499     20.53966     239.2633        19     1.009     0.957  45.67   0
       304    856.8648    207.2243 300.3699513 +22.6799209     618.3156     72.78345      1.359     3.39     4.097354     20.53966     71.16407        11     1.070     0.693 -80.94   0
       305    275.5709    204.0951 300.1900322 +22.5049422      579.103     72.72778      1.479     2.73     4.090954     20.53966     69.47887        10     0.970     0.685  17.70   0
       306    796.0585    199.3645 300.3535526 +22.6594611     840.8453     72.80199      1.461     3.12     4.099214     20.53966     101.3287        12     1.052     0.764   3.11   0
       307    716.3329    198.5332 300.3289862 +22.6353563     1260.678      72.8576      1.257     2.20     4.026268     20.53966     173.1689        18     1.000     0.958  41.55   0
       308    565.6135    200.2852 300.2814896 +22.5907313     200.1684     72.74635      0.991     2.96     4.464109     20.53966      39.2909         5     0.728     0.447 -70.45   0
       309    537.7642    194.7791 300.2746075 +22.5808091     389.9546     72.82054      1.520     4.65       4.4674     20.53966     37.93162         8     0.966     0.634  -6.66   0
       310    911.9587    190.0692 300.3926876 +22.6914759     1337.989     72.78345      1.342     2.35     4.219431     20.53966      178.361        18     1.025     0.894  18.16   0
       311    642.5126    190.3556 300.3086497 +22.6109044     1014.731     72.78345      1.409     2.59     4.269868     20.53966     119.6525        16     0.998     0.918 -18.31   0
       312    924.1025    189.0795 300.3967943 +22.6948252     823.7311     72.93169      1.369     2.89      4.21018     20.53966     108.3629        13     1.027     0.845 -60.61   0
       313     14.1405    178.4003 300.1171406 +22.4192121      359.297     72.74635      1.294     4.13     4.980415     20.53966     46.84222         6     0.764     0.636 -35.79   0
       314     64.1617    175.9882 300.1334568 +22.4335142     459.5839     72.80199      1.393     3.80     4.802838     20.53966     60.37743         8     0.958     0.617  55.76   0
       315    274.7804    172.4492 300.2000489 +22.4956173     570.0194     72.80199      1.316     3.14     4.295297     20.53966     78.90447         9     0.873     0.778  28.76   0
       316    136.5802    167.0203 300.1588602 +22.4526453     2152.894     72.80199      1.591     2.93     4.628778     20.53966     239.5212        27     1.440     1.055  74.85   0
       317    959.8808    164.1466 300.4160348 +22.6983601     665.0759     72.82054      1.311     3.70     4.116242     20.53966     85.06992        10     0.871     0.846  18.32   0
       318     86.3032    164.1416 300.1441752 +22.4367502     478.8277     72.87614      1.577     4.71     4.743635     20.53966     47.75468         8     0.967     0.834  34.83   0
       319    294.0589    160.5400 300.2099040 +22.4979732     5641.969     72.87614      1.402     2.46     4.352967     20.53966     710.3273        33     1.207     1.064  67.07   0
       320     78.2800    155.1671 300.1445930 +22.4317690     1393.043     72.78345      1.480     2.55     4.788444     20.53966     155.8723        19     1.078     0.950 -22.71   0
       321     40.0093    156.3032 300.1323386 +22.4206240     313.8488     72.72778      1.447     2.72     4.979721     20.53966     43.38253         5     0.774     0.560  88.70   0
       322    277.4554    151.4154 300.2077008 +22.4903780     561.2434     72.78345      1.188     2.34     4.393561     20.53966     81.78667        10     0.836     0.731   8.66   0
       323    938.2141    142.0523 300.4164442 +22.6855225     3450.038     72.83907      1.457     2.93     4.459048     20.53966      420.985        30     1.225     1.102 -80.06   0
       324    240.5972    138.0356 300.2005817 +22.4754922     263.9496     72.80199      1.133     3.70      4.45597     20.53966     47.29711         7     0.895     0.644  88.36   0
       325    487.3445    137.0081 300.2776510 +22.5491095     681.6183     72.80199      1.507     2.71     4.463694     20.53966     81.50894        10     0.867     0.732 -79.94   0
       326    601.9595    135.6910 300.3137503 +22.5830511     333.1357     72.80199      1.415     4.32     4.434319     20.53966     36.85447         7     0.868     0.611 -26.67   0
       327    411.6443    129.2366 300.2566199 +22.5242048     558.5736      72.8576      1.432     2.90     4.388563     20.53966     69.83653        10     0.946     0.692   0.69   0
       328    177.8945    126.0938 300.1849665 +22.4532749      626.377      72.9687      1.524     2.97     4.581529     20.53966     76.19839        11     1.004     0.705  -0.71   0
       329    538.9744    124.4417 300.2977922 +22.5609591     1667.356      72.8576      1.374     2.31     4.526997     20.53966     247.2708        20     1.035     0.965  56.54   0
       330    467.0417    125.0330 300.2752165 +22.5395883     409.8248      72.8576      1.082     2.14     4.445857     20.53966     90.04224         7     0.832     0.485 -41.78   0
       331    600.5161    123.7455 300.3171740 +22.5791856     257.3928      72.8576      1.186     2.07      4.45847     20.53966     54.99817         5     0.677     0.448  64.19   0
       332     17.3138    123.8576 300.1358101 +22.4045075     321.7112     72.91317      1.815     5.18     5.292329     20.53966     28.23149         6     1.070     0.710   4.61   0
       333    282.5264    119.8117 300.2195239 +22.4828202     430.0256     72.82054      1.792     4.11     4.483345     20.53966     41.94557         6     0.978     0.499  88.47   0
       334    674.9055    110.6284 300.3445888 +22.5976851     201.6513     72.70922      1.330     3.04     4.521745     20.53966     49.14788         5     0.926     0.351 -47.40   0
       335    184.2684    110.9113 300.1918692 +22.4508249     283.6266      72.9687      1.389     4.30     4.590792     20.53966     37.14228         6     0.891     0.590   3.07   0
       336    313.0049    104.3265 300.2340199 +22.4875027     5915.447     72.74635      1.432     2.60     4.470053     20.53966      719.191        39     1.330     1.086  66.10   0
       337    163.9037    103.9070 300.1878118 +22.4427114     703.5212      72.9872      1.401     3.13     4.607096     20.53966     78.07535        11     0.987     0.727   6.61   0
       338    942.0345    102.7058 300.4303928 +22.6753479     232.5892     72.78345      1.157     2.83      4.68603     20.53966     52.76345         6     0.859     0.506 -40.87   0
       339      7.9445    101.2247 300.1402378 +22.3952022     548.1318     72.82054      1.285     2.91     5.525858     20.53966      87.3218        10     0.996     0.666 -39.89   0
       340    284.8049     98.4083 300.2271709 +22.4773550      247.573      72.6535      0.939     2.59       4.5474     20.53966     39.38885         5     0.705     0.465 -17.57   0
       341    328.7870     95.6907 300.2417266 +22.4897495     356.3203     72.74635      1.448     3.76      4.45404     20.53966     42.10182         6     0.744     0.633 -56.90   0
       342    559.0187     89.7705 300.3152711 +22.5569961     6183.606     72.80199      1.374     2.31     4.607581     20.53966     934.2321        36     1.203     1.100  69.49   0
       343    444.5188     89.4593 300.2797420 +22.5226214     683.0096     72.87614      1.351     2.47      4.44953     20.53966     89.70444        13     0.924     0.819  53.26   0
       344    579.2250     83.7010 300.3235283 +22.5613012     222.7671     72.74635      1.206     4.48     4.630291     20.53966     39.67701         6     0.940     0.608 -61.29   0
       345    811.6286     79.9434 300.3971264 +22.6297824     920.0891     72.80199      1.652     4.08     4.683539     20.53966     110.7103        17     1.548     0.748 -57.79   0
       346    904.2326     78.5453 300.4264407 +22.6570886     461.4978     72.82054      1.289     1.81     4.850034     20.53966     66.28966         5     0.658     0.453 -25.64   0
       347    251.9616     73.5525 300.2250182 +22.4603766     430.0556     72.82054      1.307     3.19     4.751819     20.53966     53.17793         8     0.809     0.696 -35.88   0
       348    687.4140     69.8018 300.3617193 +22.5896917     6328.176     72.63491      1.383     2.43      4.67652     20.53966      810.152        35     1.249     1.039  73.33   0
       349    610.4367     71.9561 300.3370519 +22.5672691     458.3439      72.8576      1.421     3.89     4.695984     20.53966     48.76905         9     0.871     0.774 -56.74   0
       350    462.2692     68.7333 300.2919828 +22.5219811     1386.539      72.8576      1.315     2.53     4.427147     20.53966     209.0608        15     1.035     0.839  43.68   0
       351    728.7130     67.4434 300.3753467 +22.6013743     846.5295     72.78345      1.216     2.59     4.629243     20.53966      100.036        14     0.983     0.809  83.03   0
       352    798.4199     64.8677 300.3978977 +22.6214943     498.0028      72.7649      1.576     4.05     4.656775     20.53966     46.15935         7     1.132     0.414 -75.26   0
       353    744.3892     63.4154 300.3815355 +22.6049076     595.6625     72.74635      1.330     2.47      4.62662     20.53966     68.84577         9     0.873     0.655 -34.91   0
       354    211.1456     61.2633 300.2163151 +22.4446190     727.2036     72.83907      1.379     3.23     4.844304     20.53966     84.06179        12     1.036     0.804  43.86   0
       355   1014.2941     61.1097 300.4664095 +22.6849970     508.3276      72.9687      1.354     3.37      4.73309     20.53966     58.61201         6     0.892     0.445  48.92   0
       356     57.8187     61.3656 300.1686457 +22.3987065     277.6141     72.80199      1.214     4.81     5.244082     20.53966     39.91201         6     0.917     0.714  26.86   0
       357    783.1976     58.7728 300.3951305 +22.6151863     450.0105     72.74635      1.344     2.54     4.649825     20.53966     76.34209         9     0.951     0.636 -39.77   0
       358    731.6811     54.6906 300.3804050 +22.5985956     2798.997     72.91318      1.401     2.40     4.642791     20.53966     395.0791        25     1.140     0.989  79.19   0
       359    372.5801     55.8228 300.2682681 +22.4914123     473.5643     72.80199      1.467     2.50     4.580762     20.53966     65.94781         8     0.908     0.566 -20.81   0
       360    746.6890     53.4988 300.3854662 +22.6027443      830.561      72.9687      1.903     5.56     4.638391     20.53966     82.70509        18     1.735     0.899  52.12   0
       361     25.3336     48.8471 300.1626143 +22.3853770     902.6158     72.82054      1.670     3.94     5.652068     20.53966      83.8565        19     1.238     1.113  38.97   0
       362    818.0657     46.4748 300.4099810 +22.6220831     1440.393      72.8576      1.339     2.47      4.69716     20.53966     201.4677        18     1.039     0.963  64.98   0
       363    978.2689     44.7818 300.4604676 +22.6695236     363.0867     72.80199      1.691     3.54     4.967856     20.53966     44.70221         6     0.984     0.747  49.88   0
       364    755.9146     39.6260 300.3928367 +22.6015157     646.2501     72.78345      1.297     2.65     4.652683     20.53966     100.5862        10     0.888     0.733 -88.88   0
       365    561.6611     38.7111 300.3326438 +22.5431109     1095.807     72.87614      1.409     2.43     4.960099     20.53966     152.6294        15     0.994     0.892  62.91   0
       366    134.5776     38.5369 300.1998882 +22.4151519     660.9553     72.78345      1.809     4.69     4.988569     20.53966     65.35465        13     1.272     0.851  50.92   0
       367    465.6086     36.9753 300.3033151 +22.5138543     593.1568     72.80199      1.252     2.67     4.391334     20.53966     102.0923        11     0.872     0.786  54.31   0
       368    847.8415     35.6967 300.4227534 +22.6278921     370.7977     72.80199      1.220     3.60     4.765262     20.53966     53.39805         6     1.073     0.507 -38.10   0
       369    805.0746     27.4562 300.4120971 +22.6127260     684.4639     72.83907      1.515     3.07     4.667649     20.53966     83.03069        13     1.080     0.852 -81.54   0
       370    236.8844     26.8862 300.2354563 +22.4424552     3769.461     72.93169      1.508     2.76     5.081113     20.53966     447.5468        31     1.273     1.120  48.69   0
       371    798.2761     19.3006 300.4126220 +22.6083461      768.457     72.93169      1.297     2.92     4.659353     20.53966     122.4688        15     1.103     0.916  47.95   0
       372    421.1280   1021.4263 299.9697643 +22.7831197     360.0524     67.70987      1.506     4.73     3.948252     20.53966     31.66162         6     1.050     0.604  64.99  16
       373    763.9028     18.3866 300.4022089 +22.5977980     423.3029     72.69065      1.539     3.88     4.668938     20.53966     45.97287         7     0.873     0.591  31.51   0
       374    612.7291   1014.7267 300.0315604 +22.8386802     2391.737     72.87614      1.880     4.23     2.870204     20.53966     144.0358        30     1.372     1.325 -42.68   0
       375    211.3145    977.9746 299.9186782 +22.7076948     1542.518      72.7649      5.355    11.78     44.58267     20.53966     45.18955        27     2.517     1.536 -16.19   2
       376    759.4492     14.5363 300.4020692 +22.5953580     491.0276      72.8576      1.269     2.34     4.672693     20.53966     62.10542         6     0.769     0.499   0.34   0
       377     60.2143   1016.4085 299.8592374 +22.6733448     68.16161     72.70922      1.204     3.77      9.26532     20.53966     30.03573         5     1.021     0.399 -84.28   0
       378     20.6456    983.1561 299.8577710 +22.6519363     540.2324     72.83907      2.375     3.50     1.552622     20.53966     32.65192         5     0.806     0.440 -73.82   0
       379    699.3793   1009.7886 300.0601447 +22.8632517     8600.027     72.78345      1.976     4.50     2.919981     20.53966      482.272        46     1.540     1.436   9.09   3
       380    704.8683   1007.6355 300.0625547 +22.8642800     9270.414     72.80199      1.970     4.66     2.926004     20.53966     491.4981        51     1.559     1.497  40.25   3
