#   1 NUMBER                 Running object number                                     
#   2 X_IMAGE                Object position along x                                    [pixel]
#   3 Y_IMAGE                Object position along y                                    [pixel]
#   4 ALPHA_J2000            Right ascension of barycenter (J2000)                      [deg]
#   5 DELTA_J2000            Declination of barycenter (J2000)                          [deg]
#   6 FLUX_APER              Flux vector within fixed circular aperture(s)              [count]
#   7 FLUXERR_APER           RMS error vector for aperture flux(es)                     [count]
#   8 FLUX_RADIUS            Fraction-of-light radii                                    [pixel]
#   9 FWHM_IMAGE             FWHM assuming a gaussian core                              [pixel]
#  10 BACKGROUND             Background at centroid position                            [count]
#  11 THRESHOLD              Detection threshold above background                       [count]
#  12 FLUX_MAX               Peak flux above background                                 [count]
#  13 ISOAREA_IMAGE          Isophotal area above Analysis threshold                    [pixel**2]
#  14 A_IMAGE                Profile RMS along major axis                               [pixel]
#  15 B_IMAGE                Profile RMS along minor axis                               [pixel]
#  16 THETA_IMAGE            Position angle (CCW/x)                                     [deg]
#  17 FLAGS                  Extraction flags                                          
         1    515.7480     15.9125 300.3721469 +22.5466498      1897.65     72.43102      1.291     2.17     4.924713     20.42459     293.4798        18     1.009     0.876 -70.38   0
         2    238.3330     13.3083 300.2866824 +22.4628092      762.538     72.54151      1.478     2.99     4.949525     20.42459     84.92673        11     0.988     0.800  49.50   0
         3    473.1843      9.6701 300.3609215 +22.5321100     1323.883     72.41258      1.320     2.49     4.929011     20.42459     181.5994        17     1.107     0.807  85.41   0
         4    578.6544      6.3398 300.3948359 +22.5627338     1363.998     72.44945      1.251     2.43      4.93116     20.42459     167.3527        20     1.002     0.990  -1.52  16
         5    173.9930      5.4256 300.2692351 +22.4412676      523.525     72.39415      1.505     3.21     5.400477     20.42459     56.39911         9     0.924     0.763  49.66  16
         6    222.6665      3.4293 300.2850136 +22.4552780     561.8162     66.79309      1.618     3.59     4.702758     20.42459     57.20573         9     0.931     0.709  31.35  16
         7    398.9174      1.2732 300.3405317 +22.5074554     925.9885     56.08102      0.961     2.13     4.957442     20.42459      251.033         8     0.848     0.499  10.91  24
         8    196.3212   1005.7834 299.9512344 +22.7349410      679.494     72.39415      2.166     5.04     11.30364     20.42459      52.0497        14     1.221     0.907  29.44   0
         9    183.4564   1016.9463 299.9436024 +22.7342768     3699.812     72.44945      9.941    36.04     15.22559     20.42459     106.5263       440     7.604     5.604  23.19  24
        10    154.6688   1023.6646 299.9324691 +22.7275574     718.0446     56.38962      7.647     7.96     23.36272     20.42459     41.00328        15     2.710     0.653  -1.96  27
        11    156.7483   1020.5090 299.9341426 +22.7272777     1189.905     70.50715      5.548     6.95     22.17725     20.42459     39.03865        12     1.471     0.921   4.59  19
        12    131.0233   1023.2883 299.9252442 +22.7203489      520.679      58.4129      8.053     7.04     30.77619     20.42459     28.69654         8     1.761     0.788  -9.30  25
        13    118.3033   1022.2203 299.9216396 +22.7162230     1141.732     63.91297      6.579     9.76     34.60041     20.42459     48.38791        21     1.946     1.364 -52.26  27
        14    100.6850   1017.0715 299.9178418 +22.7094569     1036.257      72.5047      5.375     6.04     38.22853     20.42459     54.06887        16     1.276     1.034 -80.12  19
        15     96.9866   1013.4936 299.9178575 +22.7073212     1703.625     72.32035      9.611    10.53     38.01536     20.42459     54.07661        36     2.193     1.425  -5.01  19
        16     60.5443   1023.2962 299.9033460 +22.6991846     488.3451     58.50424      3.572     4.91     61.65345     20.42459     34.67574         5     1.058     0.645 -26.37  24
        17     35.2983    989.8020 299.9064065 +22.6820075     1419.853     72.30189      8.643    12.65     51.90805     20.42459     47.71466        33     2.948     1.511 -12.92   3
        18     43.3806   1020.6874 299.8988640 +22.6932822     2121.948     69.86045     10.758    23.62     70.33572     20.42459     58.77796       118     5.865     2.642 -25.72  27
        19     31.8512   1001.2738 299.9016021 +22.6842583     2480.521     72.41258      6.913    25.26      61.2661     20.42459      61.8702       166     5.204     3.404  57.86  19
        20     34.9532   1014.6555 299.8982099 +22.6890232     2824.267     72.43102      4.798    18.05     70.29321     20.42459     59.85966        83     3.608     2.509   5.34  19
        21     37.0010   1010.7937 299.9001030 +22.6885321     1872.918     72.20952      4.415     9.26     66.38248     20.42459     62.04318        35     2.254     1.299  15.13  19
        22    109.0513   1020.7816 299.9192334 +22.7130323      1409.63     69.66911     21.165    29.82      37.1065     20.42459      44.2402        75     8.122     3.039  32.69  27
        23    149.2553   1022.8749 299.9310440 +22.7257055     1118.401     60.74315      6.583     8.85     25.07523     20.42459     42.84618        19     2.004     1.091 -11.15  27
        24    513.5960   1002.3408 300.0510360 +22.8291870     1488.362     72.35726      1.609     3.30     2.825042     20.42459     128.8652        20     1.142     1.029  73.83   0
        25    407.3177    998.8564 300.0190994 +22.7962945     1040.306     72.43102      1.595     3.33     2.940529     20.42459     112.7881        15     1.096     0.904  50.51   0
        26     53.1696    999.4780 299.9088081 +22.6901467     752.4734      72.3757      5.520     5.83     51.13731     20.42459     31.82937         8     1.069     0.895  14.60   1
        27    690.6739    998.8240 300.1073169 +22.8813031     269.9463     72.44945      1.419     4.53     2.830066     20.42459     28.20163         6     1.228     0.475  42.39   0
        28    337.9739    996.9750 299.9981423 +22.7749420     6563.673     72.35725      1.646     3.34     3.397052     20.42459     562.3192        40     1.331     1.272 -86.66   0
        29     63.0309    997.0000 299.9126777 +22.6923985     1234.284     72.33881      4.899     6.83     45.90673     20.42459     47.79782        11     2.196     0.595  -7.98   3
        30     64.7740    994.5068 299.9140306 +22.6922078     1031.766     72.35726      5.289     7.55     44.00969     20.42459     36.77609        13     1.832     0.872   7.63   3
        31     45.9044    984.6086 299.9113910 +22.6837052     860.8458     72.28342      4.997     7.09      44.6653     20.42459     64.12042        13     1.566     1.097   1.62   3
        32    655.8115    983.8099 300.1013458 +22.8665390     246.7626     72.28342      1.290     3.77     2.935925     20.42459     28.04033         5     0.960     0.425  45.04   0
        33    370.9476    983.6826 300.0127246 +22.7810287     387.2354     72.43102      1.507     3.28     3.276157     20.42459     55.05086        10     0.889     0.846  49.32   0
        34     31.3195    978.8841 299.9087241 +22.6776850      2083.27     72.54151      6.767    23.74     44.96716     20.42459     61.06717       117     5.503     2.844  -9.27  19
        35     31.9598    966.7104 299.9128848 +22.6743899     2078.675     72.39415      6.046    20.48     35.63306     20.42459      52.0197        98     5.132     2.270 -18.68   2
        36    533.7396    972.8849 300.0668938 +22.8267841      473.104      72.5047      1.862     4.84     3.019885     20.42459     61.81604         8     1.343     0.684   9.51   0
        37    382.7019    971.4853 300.0203508 +22.7810598     358.5674     72.55991      1.484     2.96     3.277317     20.42459     41.69002         5     0.720     0.483 -13.93   0
        38    566.4808    970.0665 300.0780034 +22.8357988     304.0633      72.5047      1.227     2.86     3.032511     20.42459     45.52674         6     0.767     0.500 -89.27   0
        39    673.2326    964.4260 300.1130810 +22.8662039     701.4932     72.39415      1.782     6.27     3.094588     20.42459     67.60006        15     1.472     0.835  56.98   0
        40   1000.1102    963.7609 300.2151820 +22.9640244     338.1874      72.3757      1.554     6.13     3.274758     20.42459     41.64743        11     1.172     0.902  33.33   0
        41    884.2798    975.4611 300.1752537 +22.9326593     2164.183     72.44945      1.664     3.40     3.138399     20.42459     157.8706        25     1.207     1.145   4.04   0
        42    707.8334    958.7758 300.1256978 +22.8749607     931.9439     72.41258      1.463     3.44      3.14255     20.42459     85.14469        17     1.075     0.987 -25.96   0
        43    485.4292    959.4345 300.0562353 +22.8084317     516.3588     72.41258      1.729     4.65     3.162889     20.42459     43.37949         7     0.891     0.689  12.11   0
        44    730.1255    952.3718 300.1347268 +22.8798089     11462.53     72.41258      1.558     2.93     3.199697     20.42459     952.6588        52     1.327     1.299 -47.05   0
        45    775.9426    952.6542 300.1489104 +22.8936299     429.3286     72.44945      1.590     4.92     3.189267     20.42459     48.41861        11     1.257     0.717 -23.15   0
        46    921.2238    951.6832 300.1945116 +22.9369104     443.6176     72.35726      1.633     4.57     3.361063     20.42459     44.93154         7     1.000     0.594  52.52   0
        47     41.6516    944.3837 299.9231606 +22.6709042     266.3337     72.39415      1.537     5.57     17.58077     20.42459     51.29571        10     1.241     0.801 -14.50   0
        48    435.0472    940.5040 300.0467185 +22.7878856      493.035     72.43102      1.678     5.56      3.31498     20.42459     43.49227         7     1.318     0.661  34.32   0
        49     31.4335    935.7933 299.9227822 +22.6653746     205.7084     72.39415      1.454     5.44     12.28364     20.42459     31.53251         6     1.267     0.660  -7.16   0
        50    738.6319    934.4556 300.1432079 +22.8772193     1458.149     72.41258      1.544     3.13     3.332565     20.42459     134.5612        19     1.094     1.013 -18.65   0
        51    921.5430    933.2685 300.2006045 +22.9317202        497.5     72.41258      1.677     3.56     3.518955     20.42459     50.94655         7     0.938     0.717  44.73   0
        52    590.6350    931.6948 300.0980117 +22.8320388     572.5562     72.39415      1.806     6.42     3.306331     20.42459     47.70349        13     1.238     0.936  14.27   0
        53    776.9819    927.9576 300.1572718 +22.8868546     1004.554     72.41258      1.875     4.04     3.363897     20.42459     81.94689        17     1.179     1.030  85.57   0
        54    885.9030    924.8347 300.1922373 +22.9186152     422.5739     72.39415      1.677     5.20     3.447702     20.42459      39.0849         7     1.035     0.738  58.25   0
        55    825.4771    918.9810 300.1753064 +22.8988192     660.2644     72.39415      1.586     3.37     3.389595     20.42459     70.82038        10     0.998     0.725  68.64   0
        56    676.5490    918.1683 300.1291685 +22.8539276     817.2961     72.43102      1.661     4.25      3.42007     20.42459     70.77678        15     1.179     1.008 -16.17   0
        57    389.1710    914.5567 300.0408895 +22.7666791     4120.486     72.43102      1.528     3.04     3.651388     20.42459     435.4137        31     1.243     1.123 -66.12   0
        58    687.7622    915.2019 300.1336265 +22.8564394     545.7169     72.41258      1.387     3.27     3.425989     20.42459     75.42512         9     0.974     0.666  24.44   0
        59    167.6809    903.3280 299.9756754 +22.6969810     415.2815     72.52311      1.704     5.51      4.74455     20.42459      34.3027         9     1.221     0.702 -34.36   0
        60    114.3234    900.4293 299.9600382 +22.6801312      867.288      72.3757      1.788     4.43     6.045402     20.42459     71.33201        19     1.367     1.055  58.33   0
        61     31.4115    902.2072 299.9337034 +22.6557454     529.7971     72.26495      2.558     3.41     5.728909     20.42459     28.26616         5     0.746     0.451  70.67   0
        62     91.3998    897.5610 299.9538493 +22.6724266     1682.152     72.39415      1.730     3.74     6.302143     20.42459     136.3941        26     1.288     1.204 -17.66   0
        63     23.3771    898.7545 299.9323314 +22.6523435     426.9474     72.43102      1.531     2.38     5.488724     20.42459     41.07413         5     0.703     0.454 -71.59   1
        64    963.2490    886.2279 300.2289180 +22.9307167     2179.109     72.41258      1.609     3.25     3.713484     20.42459     175.7413        25     1.235     1.039  48.96   0
        65    917.4567    884.7608 300.2151157 +22.9165703      2055.89     72.39415      1.549     3.00     3.672006     20.42459     190.2779        27     1.207     1.131  46.63   0
        66    623.0018    885.3721 300.1231634 +22.8284585     535.9864     72.33881      1.813     4.02     3.570522     20.42459     58.16454         8     1.190     0.631 -55.24   0
        67    701.1116    878.6418 300.1496810 +22.8499523     567.5462     72.39415      1.367     3.48     3.537972     20.42459     73.99445        11     1.026     0.762 -75.72   0
        68    123.5629    878.6357 299.9699993 +22.6766595     256.6431     72.46786      1.260     5.19     4.855358     20.42459     47.52138         7     0.908     0.838   5.54   0
        69    569.1796    872.6974 300.1105289 +22.8086791     4806.959     72.32035      1.387     2.57     3.636835     20.42459     523.7208        30     1.138     1.084 -40.84   0
        70    371.3395    869.3089 300.0500645 +22.7483539     627.6035     72.48629      1.634     6.02     4.147354     20.42459      75.7543        11     1.454     0.702  73.02   0
        71    119.2131    866.5134 299.9725913 +22.6718795     1283.195     72.33881      1.649     3.38     4.340626     20.42459     135.7917        25     1.306     1.201 -81.92   0
        72    589.7585    865.3366 300.1193308 +22.8127398     659.3406      72.3757      1.174     2.03     3.678697     20.42459     109.0409        10     0.784     0.751  53.13   0
        73    138.5448    863.9538 299.9794308 +22.6769494     518.3196     72.43102      1.506     4.27     4.231812     20.42459     55.79227        11     1.060     0.803  28.70   0
        74    506.2691    855.8293 300.0964334 +22.7849696     275.3683      72.3757      1.447     6.43     3.729487     20.42459     30.00657         9     1.284     0.906 -12.30   0
        75    745.0934    852.4680 300.1718988 +22.8556290     4217.776     72.54151      1.411     2.63     3.534551     20.42459     444.1378        31     1.148     1.091 -33.83   0
        76    962.2302    852.4388 300.2395941 +22.9207098     1219.545     72.39415      1.727     3.64     3.798657     20.42459     89.11887        18     1.090     1.034  82.84   0
        77    999.9399    851.7828 300.2515690 +22.9318224     386.8566     72.33881      2.031     4.75     3.826162     20.42459     39.86376         5     1.122     0.571  58.57   0
        78    153.8036    846.8278 299.9897435 +22.6766213     497.2354     72.35726      1.709     5.56     4.183771     20.42459      37.7218        10     0.988     0.882 -40.25   0
        79    462.1412    844.8694 300.0862655 +22.7685882     632.6249     72.41258      1.294     2.56     3.927189     20.42459     86.03353        10     0.861     0.740  60.57   0
        80    108.4722    842.8687 299.9769455 +22.6618784     941.7485     72.46786      1.490     3.61     4.191383     20.42459     113.4994        14     1.123     0.838  20.36   0
        81    258.2044    835.1136 300.0260053 +22.7045987     53022.59     72.32035      1.514     2.74     4.102125     20.42459     5628.797       103     1.424     1.384  33.52   0
        82    523.7154    838.0833 300.1076366 +22.7851123      550.644     72.52311      1.360     3.75      3.77701     20.42459     61.05086        11     1.152     0.655  50.56   0
        83    516.2390    834.0034 300.1066366 +22.7816993     1643.583     72.43102      1.405     2.60     3.813488     20.42459     185.4692        21     1.110     1.002 -84.14   0
        84    186.0862    833.3966 300.0041453 +22.6824614     436.6209     72.32035      1.528     7.40     4.135923     20.42459     45.62851        14     1.333     1.151 -26.80   0
        85    929.0144    833.2764 300.2354700 +22.9052531     814.9098     72.41258      1.425     2.87       3.8277     20.42459     89.94785        13     0.930     0.874 -28.63   0
        86    545.0747    830.0337 300.1169039 +22.7892097     842.8387     72.39415      1.262     2.68     3.737626     20.42459     110.5343        11     0.928     0.737  87.67   0
        87    555.6046    828.2379 300.1207661 +22.7918527     560.7885     72.43102      1.211     2.62     3.741315     20.42459     88.52826         8     0.823     0.649 -28.72   0
        88    876.1360    825.5546 300.2214952 +22.8871875     301.5505     72.41258      1.230     2.81      3.79469     20.42459     46.52088         5     0.732     0.440 -23.30   0
        89    661.2863    824.6646 300.1548363 +22.8225209     507.2548     72.48629      1.414     3.59     3.749683     20.42459     60.74021        12     1.012     0.842  -1.77   0
        90    455.7785    822.0114 300.0917210 +22.7601230     291.3677      72.3757      1.622     4.56     4.064595     20.42459     41.24852         5     1.114     0.529 -34.43   0
        91    698.9847    814.9319 300.1697447 +22.8310316     780.3076     72.39415      1.342     3.74     3.749353     20.42459     88.39932        13     1.015     0.914  51.84   0
        92    307.8951    812.3583 300.0488576 +22.7129857      31167.3     72.41258      1.456     2.67     4.124895     20.42459     3224.475        72     1.312     1.283 -84.39   0
        93    322.1736    812.7999 300.0531544 +22.7173968     2020.946     72.35726      1.424     2.75      4.15195     20.42459     221.0509        21     1.111     0.997  59.64   0
        94    831.0388    807.9746 300.2131560 +22.8686231     2803.821     72.41258      1.386     2.66      3.80043     20.42459     334.6279        25     1.099     1.042 -81.09   0
        95    319.0780    806.9197 300.0541042 +22.7147817     836.7198      72.5047      2.152     3.48     4.146692     20.42459     62.73505        13     1.029     0.877   0.61   0
        96    860.2206    806.3843 300.2227696 +22.8769134     399.2522      72.3757      1.576     2.99      3.81683     20.42459     41.67214         6     0.716     0.630 -63.22   0
        97    589.0950    804.1508 300.1390278 +22.7949859     934.9777     72.44945      1.313     2.78     3.784829     20.42459     118.0459        11     0.907     0.780 -51.88   0
        98    190.1865    804.0328 300.0149703 +22.6752744     798.4141     72.39415      1.426     3.54     4.086479     20.42459     93.00661        14     1.043     0.938  10.73   0
        99    425.3957    804.1613 300.0880730 +22.7458886     388.6844     72.41258      1.233     3.17     4.166213     20.42459     51.69521         7     0.844     0.555 -59.36   0
       100    435.9892    799.1124 300.0930113 +22.7476183     893.1434     72.33881      1.351     2.99     4.167521     20.42459     104.7381        12     0.921     0.799  55.00   0
       101    837.2603    795.8652 300.2190340 +22.8670115     545.7193     72.43102      1.358     2.75     3.847369     20.42459     78.95162        10     0.998     0.632  67.97   0
       102    381.7591    794.1689 300.0777472 +22.7299315     422.1173     72.43102      1.310     4.37     4.194407     20.42459      46.2748        10     1.043     0.793 -66.30   0
       103    338.1448    795.2584 300.0638268 +22.7171586     212.8445     72.44945      1.054     3.37     4.180601     20.42459      49.0284         6     0.738     0.584  35.16   0
       104    294.0917    794.5500 300.0503571 +22.7037372     291.1567     72.41258      1.093     2.14     4.085085     20.42459     54.63617         6     0.742     0.496  -4.58   0
       105     24.0252    793.5315 299.9667589 +22.6223865     512.7238      72.3757      1.816     4.59     4.052316     20.42459     47.92791        10     1.130     0.782  41.16   0
       106    590.4658    793.3850 300.1429561 +22.7923079     349.0134      72.3757      1.637     4.33     3.834876     20.42459     38.03511         5     0.978     0.545 -47.96   0
       107    814.5339    790.5234 300.2136879 +22.8586659     438.7449     72.48629      1.634     5.22     3.880897     20.42459     50.74175         9     1.238     0.621 -11.86   0
       108    188.0027    788.2385 300.0194281 +22.6700909     376.0448     72.43102      1.317     3.69     4.042717     20.42459     52.17886         8     0.848     0.659  45.68   0
       109    511.2887    778.6403 300.1231029 +22.7643318     493.3047      72.3757      1.388     2.54     4.043731     20.42459     57.81468         8     0.890     0.572  65.66   0
       110    480.9116    777.0286 300.1141726 +22.7547583     520.7784      72.3757      1.327     2.34     4.164228     20.42459      93.7897        10     0.858     0.724 -29.95   0
       111    897.4082    773.4056 300.2450895 +22.8785899     1873.284     72.24648      1.384     2.49     3.930386     20.42459     477.1038        32     1.158     1.082  71.11   0
       112    389.9860    776.3347 300.0861065 +22.7272844     316.5541     72.35726      1.191     3.17     4.187797     20.42459     42.21333         7     0.750     0.647 -11.12   0
       113    502.8826    774.4328 300.1218548 +22.7606035     1215.567     72.35726      1.309     2.45     4.086583     20.42459     177.2656        17     1.023     0.908 -50.06   0
       114    422.6942    774.2719 300.0969533 +22.7365047     274.2208      72.5047      1.389     3.34     4.171371     20.42459      54.3069         6     0.875     0.670 -88.86   0
       115    584.2569    769.2053 300.1488868 +22.7835078     283.8873     72.35726      1.358     5.76     3.968336     20.42459     41.20678         8     1.238     0.755  58.31   0
       116    885.8856    764.8198 300.2442894 +22.8726714     1747.714     72.32035      1.379     2.60     3.935537     20.42459     212.0582        22     1.088     1.000  68.22   0
       117    248.9169    758.8348 300.0479255 +22.6799404     813.1415     72.35726      1.324     2.28     3.991378     20.42459      151.616        13     0.939     0.817   6.16   0
       118    712.2304    756.1021 300.1930047 +22.8181176     2606.834     72.33881      1.367     2.18     3.904949     20.42459     372.6477        29     1.385     0.992  14.47   0
       119    917.0533    754.9253 300.2572251 +22.8791703     1621.518     72.41258      1.388     2.29     3.987016     20.42459     231.3511        19     1.083     0.917 -70.98   0
       120     97.5030    742.8311 300.0060704 +22.6299115       545.21     72.33881      1.221     2.74     4.056576     20.42459     85.96918        11     0.925     0.796 -77.49   0
       121    794.5334    741.9441 300.2232535 +22.8387243     582.5681     72.44945      1.359     2.85     4.166183     20.42459     71.09278         8     0.823     0.646   3.12   0
       122    830.6414    733.0169 300.2374102 +22.8469832     146119.5     72.41258      1.354     2.33     4.117003     20.42459      19062.7       155     1.369     1.332 -89.12   0
       123    592.9579    736.9618 300.1620811 +22.7768641     366.9005     72.48628      1.279     3.62     4.147493     20.42459     46.45382         8     0.927     0.683  60.68   0
       124    977.5834    734.5728 300.2827202 +22.8914621     1237.477     72.41258      1.421     2.95     4.030372     20.42459     142.6752        20     1.107     1.035 -15.93   0
       125    683.0490    733.1730 300.1913704 +22.8027878     621.0583     72.41258      1.253     2.61     4.024009     20.42459     81.95568         9     0.764     0.745 -62.68   0
       126    863.3791    725.6014 300.2500264 +22.8546651     414.9261     72.32035      1.105     2.77     3.989404     20.42459     68.76387         9     0.824     0.762 -28.95   0
       127    516.9354    721.9969 300.1432797 +22.7497731     1512.049     72.39415      1.216     2.33     4.209304     20.42459     235.1241        17     0.998     0.835 -79.56   0
       128    698.1323    719.1976 300.2006131 +22.8032979     9170.849      72.3757      1.273     2.22     4.050313     20.42459     1299.641        42     1.144     1.074  72.93   0
       129    199.6145    714.4502 300.0470302 +22.6524191     4897.854     72.41258      1.432     2.55     3.921646     20.42459     554.1578        34     1.192     1.106  67.76   0
       130    281.6280    712.6980 300.0730971 +22.6765244     1018.303     72.33881      1.239     2.40     3.940745     20.42459     133.2817        15     0.968     0.869 -48.94   0
       131    157.2322    710.0958 300.0352732 +22.6384524     511.6103     72.35726      1.358     4.17     3.908076     20.42459     52.86647         9     1.129     0.662  56.29   0
       132    490.0429    707.6731 300.1395665 +22.7375983     713.9491      72.3757      1.236     2.93     4.325896     20.42459     121.6878        12     1.065     0.695  45.20   0
       133    616.5546    703.8283 300.1802020 +22.7744299     297.7387     72.43102      1.652     4.16     4.178964     20.42459     33.46074         5     0.918     0.538 -39.96   0
       134    481.6328    700.0832 300.1394166 +22.7328984     3365.945     72.35726      1.319     2.22     4.393854     20.42459     469.4075        22     1.046     0.953 -75.60   0
       135    471.8228    693.8533 300.1383890 +22.7281689     1353.497     72.41258      1.235     2.03     4.416446     20.42459     249.8345        16     0.910     0.839 -79.18   0
       136    400.1407    693.1589 300.1163102 +22.7064710     351.4863     72.39415      1.281     4.79      4.28358     20.42459     41.41306         8     0.869     0.749  -5.08   0
       137    865.4395    691.4467 300.2617739 +22.8454744     501.3213     72.43102      1.630     2.60     3.980751     20.42459     57.35381         7     0.852     0.552  58.99   0
       138    382.9145    690.5577 300.1117967 +22.7005579     311.9927     72.35726      1.378     3.34      4.24926     20.42459     47.85542         8     0.975     0.601 -43.12   0
       139    135.0702    690.2192 300.0348476 +22.6261027     646.6035     72.41258      1.499     3.43     3.981492     20.42459     75.23869         9     0.955     0.730 -80.31   0
       140    149.3047    688.6824 300.0397707 +22.6299337     637.5339     72.55991      1.324     3.37     3.954687     20.42459     69.24886         8     0.884     0.641  89.16   0
       141    206.1531    685.2035 300.0585705 +22.6459943     472.2076      72.3757      1.542     2.97     3.939683     20.42459     56.25679         7     0.964     0.531  71.12   0
       142    175.5541    685.3076 300.0490257 +22.6368427      453.504     72.41258      1.302     3.42     3.938005     20.42459     69.17754        11     1.085     0.752  35.32   0
       143    918.7828    684.8981 300.2805344 +22.8595772     533.5015     72.32035      1.246     2.96     4.022618     20.42459     74.00459        10     0.982     0.666 -43.98   0
       144    495.7823    684.3523 300.1489345 +22.7326277     558.2601     72.43102      1.415     2.19     4.425582     20.42459     77.76218         8     0.765     0.646 -65.71   0
       145    396.5922    683.5799 300.1183202 +22.7026586     1695.482     72.35726      1.268     2.24     4.296635     20.42459      237.716        18     1.040     0.861 -77.42   0
       146    430.4326    682.7032 300.1291339 +22.7125566      285.265      72.3757      1.373     3.85     4.383507     20.42459     46.47925         6     1.065     0.400 -36.63   0
       147    972.5038    680.8307 300.2986100 +22.8745036     747.6249     72.33881      1.351     3.13     4.030372     20.42459     97.42889        13     0.994     0.895  36.37   0
       148     50.5134    678.6057 300.0123517 +22.5973965     19820.61     72.32035      1.596     2.84     4.118342     20.42459     2232.203        69     1.440     1.315  46.25   0
       149    481.4388    678.7787 300.1462822 +22.7267271     1090.324     72.43102      1.265     2.26     4.521686     20.42459      144.652        13     0.845     0.809 -75.74   0
       150    516.7050    678.0323 300.1575013 +22.7370881     303.0509      72.3757      1.199     2.32     4.352033     20.42459     60.36107         7     0.727     0.626  75.97   0
       151    852.7924    674.6127 300.2633042 +22.8368502     325.0737     72.28342      1.388     4.24     4.060581     20.42459     41.23824         6     0.748     0.686 -86.32   0
       152    536.2831    670.8777 300.1659215 +22.7409054     249.8248      72.5047      1.254     3.93     4.285225     20.42459     36.61926         5     0.724     0.707  88.31   0
       153    899.5182    664.9285 300.2810197 +22.8480696     1030.802     72.52311      1.333     2.53     4.016483     20.42459     136.3102        15     0.995     0.846  64.92   0
       154    564.7319    666.4556 300.1762156 +22.7481661     351.2969     72.43102      1.152     2.44      4.27992     20.42459     56.54898         5     0.685     0.490 -10.58   0
       155    766.4207    663.3711 300.2400391 +22.8077388     349.0871     72.39415      1.242     2.80     4.310802     20.42459     61.44984        10     0.954     0.690  19.46   0
       156     63.0950    663.5055 300.0211683 +22.5968435     345.0972     72.55991      1.316     4.98     4.134092     20.42459      42.2631         9     1.026     0.685 -30.72   0
       157    444.9518    659.3837 300.1412321 +22.7102199     274.9724     72.43102      1.091     2.78     4.539295     20.42459     59.13615         7     0.807     0.589  19.25   0
       158    839.7550    657.5479 300.2647876 +22.8280429     716.4437     72.41258      1.275     2.34     4.156129     20.42459     97.42872        11     0.851     0.768  84.60   0
       159    237.6656    658.3540 300.0770942 +22.6477489     204.8743     72.39415      1.120     3.47     3.944482     20.42459     53.86779         5     0.771     0.451 -77.07   0
       160    835.2120    656.7909 300.2636176 +22.8264641     402.8977     72.28342      1.452     3.91     4.184159     20.42459     42.60347         8     0.960     0.713  72.11   0
       161    401.7146    651.8890 300.1302152 +22.6951027     818.3616     72.54151      1.333     2.03     4.456974     20.42459     128.4686         9     0.839     0.610 -36.76   0
       162    549.4103    650.1449 300.1767474 +22.7388911     563.1543     72.39415      1.266     2.71     4.425933     20.42459     75.79189        10     0.856     0.780  47.12   0
       163    596.8876    648.9734 300.1919102 +22.7527888     345.8123      72.3757      0.945     2.17     4.397719     20.42459     76.49356         7     0.821     0.507  40.76   0
       164    567.2748    648.2510 300.1829247 +22.7437035     564.3214     72.41258      1.253     2.90     4.429236     20.42459     73.41383        10     0.976     0.650 -65.40   0
       165    445.9077    647.4182 300.1454189 +22.7070732     867.9031     72.32035      1.224     2.29     4.607246     20.42459     126.5495        12     0.926     0.766  79.40   0
       166    879.5881    643.0483 300.2819185 +22.8358138     3325.831     72.41258      1.310     2.39     4.046847     20.42459     424.2024        24     1.118     0.944  84.73   0
       167    411.4526    643.0461 300.1361192 +22.6954859      1610.21     72.43102      1.228     2.24      4.55173     20.42459     227.1971        19     1.005     0.889 -66.88   0
       168    977.3593    641.1487 300.3130243 +22.8645588     681.3419     72.41258      1.399     2.73     3.897104     20.42459     80.01141        11     0.900     0.771  38.82   0
       169    776.5751    640.1601 300.2507484 +22.8041169     362.9773     72.43102      1.383     3.28     4.313804     20.42459     38.33846         5     0.732     0.464 -72.58   0
       170    387.0578    638.3052 300.1300706 +22.6868096     207.2516     72.46786      1.104     4.37     4.460448     20.42459     44.32993         6     1.045     0.521  83.20   0
       171    440.6666    633.4922 300.1483143 +22.7015055     240.6985     72.54151      1.155     3.63     4.677244     20.42459     45.34002         6     0.885     0.470  87.39   0
       172    918.8878    632.9576 300.2974518 +22.8446895     347.8385     72.39415      1.286     2.67     4.037439     20.42459     64.48648         8     0.844     0.615 -43.98   0
       173    274.7597    629.8821 300.0978812 +22.6507102     9103.286     72.35726      1.338     2.33     3.952933     20.42459     1282.694        42     1.178     1.106  65.68   0
       174    531.8165    631.5775 300.1773054 +22.7282871     414.1678      72.3757      1.745     3.99     4.620663     20.42459     38.25009         6     1.425     0.320 -39.62   0
       175    397.2738    626.8941 300.1369575 +22.6865993      9004.47     72.54151      1.274     2.16     4.571181     20.42459     1309.441        44     1.191     1.092 -57.11   0
       176    161.9786    623.7938 300.0648000 +22.6151293     327.5211      72.3757      1.121     3.65     3.958725     20.42459     38.09319         5     0.811     0.491  54.41   0
       177   1001.9238    622.0937 300.3268801 +22.8664423     994.7846     72.52311      1.374     2.67     3.707353     20.42459      123.572        13     0.927     0.831 -83.46   0
       178    643.3414    623.4249 300.2146806 +22.7593802      293.954     72.39415      1.215     2.98     4.445995     20.42459     43.15612         5     0.703     0.481  12.67   0
       179     41.2724    623.1739 300.0274972 +22.5787312     295.6698     72.39415      1.437     3.33     4.420407     20.42459     41.38857         5     0.924     0.348 -48.46   0
       180    808.9511    620.7792 300.2671378 +22.8082530     1821.586     72.39415      1.247     2.20     4.258178     20.42459     276.8936        19     0.972     0.899  43.91   0
       181    893.4969    618.0932 300.2943662 +22.8328130     12318.85     72.57831      1.297     2.22     4.075823     20.42459     1572.094        44     1.165     1.097  85.24   0
       182    457.8218    616.4779 300.1591824 +22.7017672     11350.11     72.39415      1.237     2.16     4.786644     20.42459     1579.399        39     1.105     1.035  52.18   0
       183    185.0883    612.0601 300.0757958 +22.6186976     1483.721     72.46786      1.445     2.77     3.957914     20.42459      166.727        20     1.132     0.986  83.84   0
       184    627.2171    612.2020 300.2133064 +22.7513251     482.1781     72.30189      1.250     2.36     4.565883     20.42459     78.71031         6     0.725     0.541  53.07   0
       185    343.1961    610.9523 300.1253163 +22.6658069     260.3261      72.3757      1.229     3.11     4.311685     20.42459     39.43252         7     0.706     0.689  55.24   0
       186    432.1627    609.3881 300.1535020 +22.6920386     429.1011      72.3757      1.303     3.30     4.807575     20.42459     53.12835         7     0.891     0.551  52.14   0
       187    491.8619    607.6436 300.1726473 +22.7094386     271.4536     72.39415      1.221     3.01     4.829064     20.42459     41.65812         5     0.759     0.421  21.21   0
       188    389.4691    604.6805 300.1417486 +22.6778849     4382.049      72.5047      1.262     2.19     4.617432     20.42459     601.2106        31     1.113     1.040  66.92   0
       189    732.3785    604.5443 300.2485526 +22.7806449     953.4836     72.41258      1.360     2.62     4.348843     20.42459     105.6746        12     0.896     0.826  46.42   0
       190    367.7822    602.9696 300.1355580 +22.6708902     1233.942      72.3757      1.315     2.50     4.481294     20.42459     184.8067        18     1.052     0.916  43.81   0
       191    121.9476    602.5839 300.0592524 +22.5970359     640.0131     72.39415      1.400     3.55     4.057308     20.42459     80.50674        10     0.901     0.800 -56.09   0
       192    809.3616    599.9911 300.2740220 +22.8024057     1553.505     72.41258      1.310     2.52     4.266277     20.42459     199.9041        18     1.048     0.899 -38.99   0
       193     55.7441    600.2723 300.0394347 +22.5765077     450.4771     72.41258      1.572     2.56      4.42076     20.42459     63.09261         5     0.805     0.428 -45.48   0
       194    506.1034    592.1794 300.1821054 +22.7092700     198013.6     72.30189      1.282     2.09     4.821147     20.42459     30616.52       199     1.401     1.360 -30.81   0
       195    909.8672    598.0784 300.3059754 +22.8319677     217.5448      72.5047      1.405     4.61     4.100852     20.42459     36.16909         5     0.950     0.636 -61.54   0
       196    689.8284    596.8836 300.2377862 +22.7656933     768.4738     72.39415      1.174     2.32      4.37587     20.42459     135.7054        11     0.812     0.773  49.41   0
       197    192.1876    592.2245 300.0844481 +22.6151383     3138.108     72.39415      1.340     2.49     4.072207     20.42459     384.8369        26     1.106     1.001  51.70   0
       198    893.8705    593.5533 300.3024582 +22.8258757     249.7977      72.3757      1.219     3.28     4.143816     20.42459     41.69122         6     0.787     0.497   2.24   0
       199    758.1752    587.9548 300.2619818 +22.7836114     524.5604     72.41258      1.206     2.85     4.341983     20.42459     78.60441         8     0.901     0.630  22.35   0
       200    777.2640    585.9928 300.2685678 +22.7887678     250.9812      72.3757      1.345     3.89     4.336922     20.42459     32.85437         5     0.849     0.510 -39.85   0
       201    396.7673    572.6970 300.1544122 +22.6708957     2692.126      72.3757      1.419     2.38      4.67004     20.42459     330.4004        34     1.553     1.038  88.26   0
       202    240.8936    574.8243 300.1052431 +22.6247579     359.7006     72.32035      1.169     2.73     4.174646     20.42459     66.52315         6     0.757     0.541  44.81   0
       203    553.2003    570.3060 300.2038741 +22.7171106     324.7181     72.26495      1.543     4.21     4.782598     20.42459     36.26039         6     0.758     0.667  89.31   0
       204    808.2039    568.8648 300.2837762 +22.7931189     404.2186     72.39415      1.146     1.75     4.375161     20.42459     68.70005         6     0.680     0.529 -43.02   0
       205    713.8675    560.9401 300.2569551 +22.7625761     400.3701     72.43102      1.283     3.04     4.390026     20.42459     63.11195         9     0.918     0.676  11.45   0
       206    793.6651    558.4990 300.2826133 +22.7857856     1632.266     72.48629      1.159     2.12     4.415037     20.42459     240.1092        16     0.907     0.854 -75.51   0
       207    680.3289    558.5568 300.2472815 +22.7518411      329.781     72.35726      1.287     3.43     4.434852     20.42459     45.64403         5     0.952     0.408 -74.32   0
       208    664.9030    556.2583 300.2432233 +22.7465581     2484.767     72.46786      1.202     1.98     4.475716     20.42459     413.5296        21     0.993     0.905  59.08   0
       209     24.6001    556.7039 300.0439165 +22.5546695     305.4604     72.26495      1.342     3.90     4.787911     20.42459      37.7201         7     0.923     0.574  28.79   0
       210    874.6849    553.3389 300.3095446 +22.8085759     291.9773      72.5047      1.167     3.70     4.344063     20.42459     39.58255         6     0.858     0.510  43.56   0
       211    569.8018    553.0856 300.2146382 +22.7171435     388.9807     72.32035      1.023     2.15     4.747545     20.42459      78.5117         8     0.768     0.643  53.33   0
       212    452.3064    552.2759 300.1783284 +22.6816880     686.4845     72.54151      1.148     2.39     4.818885     20.42459     120.0006         9     0.799     0.716  67.14   0
       213    922.2421    550.3108 300.3253568 +22.8219515     1321.433     72.39415      1.199     2.16     4.248596     20.42459     197.9515        15     0.900     0.847  41.51   0
       214    794.0181    548.5862 300.2859442 +22.7830441     2198.791     72.35726      1.441     3.00     4.442367     20.42459      322.124        22     1.487     0.858  78.77   0
       215    966.0967    549.2709 300.3393712 +22.8347879     1039.388      72.5047      0.590     1.06     3.911662     20.42459     600.9961         7     0.528     0.356 -84.71   2
       216    963.7717    547.0409 300.3393706 +22.8334508      1152.65     72.41258      0.510     0.87     3.932299     20.42459     787.6545         7     0.456     0.344  -1.68   2
       217    907.9777    548.9992 300.3213350 +22.8173020      986.954     72.32035      2.113     2.69     4.284338     20.42459     94.34863        12     0.923     0.831 -30.25   0
       218    547.0088    545.4218 300.2100320 +22.7081111     864.8738     72.39415      2.214     5.89     4.794969     20.42459     100.5623        16     2.080     0.715  82.44   0
       219    333.2935    546.7224 300.1431067 +22.6444080     337.8958     72.54151      1.091     2.23     4.382452     20.42459     70.15732         7     0.752     0.613  63.87   0
       220    385.7623    545.8661 300.1597061 +22.6598961     353.6035      72.3757      1.206     2.70     4.599984     20.42459     68.57632         7     0.854     0.549 -57.47   0
       221    832.1007    543.7008 300.2994012 +22.7930502      4191.15     72.63347      1.230     2.08     4.432714     20.42459     706.7571        29     1.085     0.970  89.07   0
       222    492.8793    539.7356 300.1950298 +22.6902524     307.5086      72.5047      1.157     2.53     4.823708     20.42459     57.90952         7     0.744     0.617  15.88   0
       223     64.0819    534.4853 300.0633991 +22.5601448     970.6454     72.54151      1.355     2.75     4.605172     20.42459     125.3476        14     0.925     0.912  37.65   0
       224    923.8375    534.1516 300.3311047 +22.8177866     690.0611     72.41258      1.175     2.28     4.279594     20.42459     115.3111        10     0.893     0.644 -16.53   0
       225    724.8834    527.9156 300.2711171 +22.7563929     379.0987     72.52311      1.287     1.97     4.346766     20.42459     68.59605         8     0.758     0.634 -49.97   0
       226    330.5063    527.6938 300.1484218 +22.6381120     262.8634     72.55991      1.195     3.24     4.387849     20.42459     39.77736         5     0.731     0.462 -70.27   0
       227     56.8598    524.6823 300.0643400 +22.5551665       432.59      72.5047      1.374     3.95     4.641261     20.42459     45.72192         9     0.938     0.663 -68.77   0
       228    920.4578    523.2451 300.3335943 +22.8136407     328.2473     72.43102      1.163     2.64      4.30468     20.42459     51.66337         5     0.717     0.438  65.29   0
       229    664.3654    518.1584 300.2554344 +22.7354564     538.7701     72.44945      1.328     3.32     4.440797     20.42459     79.27095         9     1.081     0.650 -57.22   0
       230    553.3631    515.7623 300.2216460 +22.7015009     266.0727     72.46786      1.223     2.93     4.735408     20.42459      62.0218         6     0.833     0.505  51.87   0
       231    605.4550    514.2034 300.2383721 +22.7166662     705.4083     72.33881      1.143     2.04     4.600431     20.42459     119.3793        12     0.825     0.766  20.55   0
       232   1013.1425    511.8419 300.3662067 +22.8381213     1130.739      72.3757      1.343     2.59     3.502304     20.42459     152.3091        14     1.047     0.810  75.90   0
       233    920.1670    506.5506 300.3389273 +22.8087567     473.3877     72.43102      1.139     2.42      4.32929     20.42459     83.35805         9     0.807     0.698   9.82   0
       234    666.2288    506.4367 300.2598227 +22.7326487     1005.367     72.41258      1.326     2.15     4.411737     20.42459     134.5118        13     0.900     0.773 -75.89   0
       235    823.4641    502.6165 300.3100569 +22.7786607     1038.423      72.3757      1.248     2.29     4.391244     20.42459     139.2765        13     0.893     0.808 -59.29   0
       236    781.4758    500.4682 300.2976683 +22.7654650     202.1713     72.46786      1.143     4.29     4.343355     20.42459     42.64672         6     1.057     0.681 -47.79   0
       237    807.6111    498.8543 300.3063379 +22.7728310     668.4248     72.39415      1.264     2.34     4.381426     20.42459     103.2831         9     0.819     0.672  57.92   0
       238    552.0996    496.9873 300.2273517 +22.6957318     3174.273     72.30189      1.264     2.08     4.707282     20.42459     512.8172        23     1.005     0.941  89.41   0
       239    912.6978    495.9988 300.3400261 +22.8034878     512.5002     72.30189      1.195     2.31     4.353063     20.42459      84.9953         7     0.778     0.551  66.26   0
       240     28.1680    488.8488 300.0670667 +22.5362816     361.4696     72.43102      1.627     3.36     4.813008     20.42459     50.09566         8     1.043     0.607 -23.49   0
       241   1023.1052    484.9099 300.3780639 +22.8333641     467.9154      59.6342      1.218     3.49     3.406871     20.42459     67.17841         9     0.889     0.755 -13.72  24
       242    392.0759    484.1170 300.1817295 +22.6440673     473.2465     72.48629      1.286     3.68     4.639795     20.42459     56.59559         8     0.909     0.688 -58.16   0
       243    323.8171    484.5260 300.1603637 +22.6237186     215.0493     72.39415      1.131     2.19      4.39111     20.42459     51.79638         5     0.691     0.465  20.90   0
       244    963.4802    475.9107 300.3623883 +22.8129235     1356.645     72.52311      1.328     2.43     4.024894     20.42459     182.5731        14     0.914     0.832 -25.67   0
       245    921.6355    474.7365 300.3497200 +22.8000548     958.8035     72.39415      1.264     2.31      4.37168     20.42459     137.8853        14     0.923     0.854 -73.86   0
       246    835.3588    475.8348 300.3224644 +22.7745297     505.0776     72.44945      1.059     2.35     4.380472     20.42459     80.19173         9     0.891     0.599 -57.88   0
       247    571.5819    472.5786 300.2413459 +22.6945624     407.4891     72.39415      1.788     3.28      4.59211     20.42459      49.9083         6     0.865     0.730 -64.95   0
       248    662.7375    470.9166 300.2702733 +22.7214016     1059.279     72.48629      1.162     1.97     4.349782     20.42459     191.2401        13     0.882     0.752  87.64   0
       249    458.4010    471.5778 300.2064399 +22.6603514     388.0439     72.32035      1.050     2.95     4.762668     20.42459     63.29182         7     0.907     0.482  83.19   0
       250    166.6185    469.2492 300.1164504 +22.5721923     680.3408     72.41258      1.279     3.05     4.390445     20.42459     93.21532        11     1.015     0.709  36.14   0
       251    228.9937    464.9597 300.1372328 +22.5896689     3609.488     72.43102      1.301     2.28     4.376725     20.42459     520.4419        24     1.049     0.964  69.05   0
       252    962.1061    463.3072 300.3660536 +22.8088899     4340.057     72.55991      1.251     2.05     4.052589     20.42459     657.4054        29     1.110     0.950  74.14   0
       253    176.2331    459.8857 300.1224797 +22.5723897     7616.255     72.35726      1.351     2.34      4.37694     20.42459     943.4277        37     1.179     1.076  72.54   0
       254    680.8660    459.8741 300.2795068 +22.7236619     154.2933     72.44945      1.103     3.96     4.297944     20.42459     31.15627         6     0.797     0.563  43.28   0
       255    317.0235    454.0425 300.1681513 +22.6129333     4744.004     72.44945      1.295     2.08     4.463307     20.42459     761.5146        32     1.182     1.003  62.84   0
       256    942.0909    454.3442 300.3627226 +22.8003205     1827.106     72.44945      1.238     2.13     4.255437     20.42459     269.5626        18     0.925     0.873 -49.93   0
       257    561.2301    450.6411 300.2452478 +22.6851609     18071.68     72.43102      1.212     2.07     4.553342     20.42459     2787.032        54     1.140     1.079  76.16   0
       258    408.4067    451.9389 300.1972615 +22.6397270     355.6046     72.35726      1.361     3.78     4.753059     20.42459     39.18629         6     0.767     0.607  39.32   0
       259    579.0721    450.3076 300.2509114 +22.6904121      859.745     72.54151      2.025     4.96     4.483973     20.42459      90.1321        13     1.565     0.723 -49.70   0
       260    188.2168    448.8493 300.1297887 +22.5728174     397.0987     72.43102      1.558     2.02     4.369833     20.42459     63.80841         6     0.703     0.574   9.82   0
       261    805.1772    446.9858 300.3224271 +22.7572008     232.4846      72.3757      1.298     3.24      4.40337     20.42459     55.27933         6     0.973     0.641  67.24   0
       262    698.5740    446.8669 300.2892478 +22.7252314     525.0172      72.3757      0.712     0.95     4.258333     20.42459     234.6406         5     0.643     0.403 -29.54   0
       263    419.6826    447.1953 300.2023105 +22.6417455     373.6067     72.32035      1.696     4.29      4.78285     20.42459      42.8934         5     1.251     0.419  29.20   0
       264    758.3650    440.8796 300.3098215 +22.7414239     338.6233     72.33881      1.137     2.34     4.279922     20.42459     78.21709         9     0.862     0.689 -35.10   0
       265    181.1956    437.8000 300.1311945 +22.5675415     381.2877     72.20951      1.321     2.27     4.355896     20.42459     49.49208         6     0.719     0.545 -39.38   0
       266    894.9149    433.0379 300.3549316 +22.7800700      841.512      72.3757      1.389     2.34     4.416348     20.42459     118.3826        12     0.883     0.828  12.76   0
       267    431.9744    432.1659 300.2110160 +22.6411157     350.2898     72.39415      1.170     3.53      4.73602     20.42459     50.15601         7     0.965     0.626 -28.68   0
       268    115.8927    430.9835 300.1131129 +22.5459999      2012.19     72.32035      1.405     2.62     4.316998     20.42459     265.0288        25     1.131     1.096 -38.34   0
       269    501.8255    420.0618 300.2366856 +22.6585770     6452.278     72.39415      1.269     2.05     4.520111     20.42459     1058.531        33     1.120     0.979  76.55   0
       270    915.4460    420.2312 300.3654926 +22.7825379     1207.937     72.44945      1.289     2.31     4.409467     20.42459     152.9344        16     0.951     0.891  47.98   0
       271    216.8633    419.5402 300.1482112 +22.5729985     697.0908     72.43102      1.360     3.14      4.39806     20.42459     84.37125        10     0.981     0.688 -51.55   0
       272     74.4966    412.7678 300.1061654 +22.5283577     460.8373     72.35726      1.201     3.19     4.364133     20.42459     70.26776         8     0.915     0.607 -74.63   0
       273    762.1801    412.1302 300.3203467 +22.7343073     211.7799     72.39415      1.014     2.32     4.300515     20.42459     72.32926         7     0.868     0.533 -14.93   0
       274    706.0832    408.9869 300.3038886 +22.7166000     1271.957      72.3757      1.332     2.32     4.225734     20.42459     191.5047        15     1.102     0.769  81.08   0
       275    615.6033    410.1816 300.2753178 +22.6898352     610.5887     72.32035      1.287     2.71     4.231934     20.42459     85.20353         8     0.897     0.578  70.06   0
       276    408.5106    406.3819 300.2120878 +22.6266803     5995.894     72.32035      1.202     2.19     4.751966     20.42459     758.8887        32     1.110     0.986  85.84   0
       277    189.2515    407.6569 300.1434864 +22.5613084     192.5345     72.44945      1.652     4.98     4.378544     20.42459     33.48637         5     1.143     0.615  65.78   0
       278    986.5935    404.8280 300.3926838 +22.7994142     251.5693     72.39415      1.275     4.14     3.987774     20.42459     36.85883         6     0.721     0.678 -30.17   0
       279    800.4290    400.7086 300.3359757 +22.7424823     1390.442     72.35726      1.136     2.07     4.389732     20.42459      205.352        15     0.989     0.806  74.86   0
       280    897.8054    400.7307 300.3663245 +22.7716511     588.5676     72.35726      1.244     2.47     4.424373     20.42459     101.5318        10     0.844     0.748 -87.76   0
       281    393.0385    394.9433 300.2109880 +22.6187587     461.7355     72.39415      1.181     2.19     4.717621     20.42459     77.26839         9     0.764     0.700 -49.72   0
       282    475.7713    393.0985 300.2373314 +22.6430264     426.7602     72.32035      1.349     2.09     4.430649     20.42459     71.49887         7     0.703     0.638 -80.95   0
       283    456.2689    390.7979 300.2320089 +22.6365208     191.5242     72.35726      1.152     2.71     4.529259     20.42459     42.62102         6     0.711     0.635  20.66   0
       284    773.3708    388.2675 300.3315826 +22.7308033     534.7844      72.3757      1.151     2.43     4.288132     20.42459     83.46637         5     0.694     0.464  74.81   0
       285    296.0240    385.6730 300.1838212 +22.5870146     2411.512     72.43102      1.219     2.23     4.735108     20.42459     370.4524        22     1.015     0.897  64.66   0
       286     14.5834    383.2473 300.0971381 +22.5019179     1083.167     72.43102      1.489     2.74      4.51026     20.42459     123.2029        14     0.982     0.860   9.43   0
       287    643.4637    380.2263 300.2937212 +22.6895786     314.5618      72.3757      1.288     3.46      4.23541     20.42459      47.1983         5     0.849     0.552 -37.02   0
       288    265.3727    375.0755 300.1777303 +22.5747833     29469.54      72.3757      1.314     2.25     4.737959     20.42459     3726.083        71     1.256     1.186  73.03   0
       289    800.0580    372.2920 300.3450869 +22.7342060       1266.9     72.44945      1.218     2.16     4.284503     20.42459     216.2546        16     1.016     0.797 -87.10   0
       290    755.6713    370.3298 300.3318912 +22.7203481     290.8305     72.46786      0.973     1.89     4.234163     20.42459     59.34496         5     0.663     0.457 -13.08   0
       291    139.7256    361.5681 300.1430565 +22.5332317     389.7465     72.39415      1.332     5.13     4.418684     20.42459      56.7206        12     1.414     0.736  21.55   0
       292    715.2531    361.1477 300.3222785 +22.7056035     428.6257     72.43102      1.094     1.89      4.22278     20.42459     88.64043         7     0.651     0.636  63.63   0
       293    363.9513    360.0622 300.2132636 +22.6000261     458.1992     72.44945      1.198     2.79     4.674876     20.42459     74.13928         8     0.865     0.637 -84.76   0
       294    675.7711    354.7723 300.3120484 +22.6919451     1876.183      72.3757      1.196     1.98      4.23558     20.42459     304.7328        20     1.028     0.853  80.12   0
       295    484.0099    349.2363 300.2541359 +22.6329005     236.0492     72.39415      1.011     2.31     4.244637     20.42459     60.70922         6     0.831     0.453 -36.30   0
       296    890.8084    347.3840 300.3814637 +22.7542238     562.0383     72.32035      1.182     2.45      4.42406     20.42459     95.49006         9     0.840     0.680  47.98   0
       297    337.5111    339.3064 300.2117769 +22.5861420     2131.725     72.55991      1.448     3.01     4.793679     20.42459     271.2135        23     1.318     0.899  73.61   0
       298    549.6668    337.9183 300.2782484 +22.6493240       321.71      72.5047      1.214     1.78     4.353947     20.42459     60.77804         5     0.692     0.420  67.01   0
       299    776.6660    331.8531 300.3509251 +22.7155801     560.9776     72.43102      1.166     2.61     4.273407     20.42459      106.032         9     0.934     0.581  81.75   0
       300    659.0621    329.8153 300.3149455 +22.6797701     490.5176     72.35726      1.400     2.53     4.269931     20.42459     77.47421        10     0.878     0.721 -88.07   0
       301    627.6602    328.8085 300.3054918 +22.6700740     336.6623     72.35726      1.295     2.95     4.278823     20.42459     54.89511         7     0.875     0.583 -32.48   0
       302    196.0005    328.1780 300.1713862 +22.5405242     158.8902     72.32035      0.949     2.35     4.683905     20.42459     40.70611         5     0.767     0.474 -57.70   0
       303    737.2015    322.9090 300.3415307 +22.7011907     279.3111     72.30189      1.311     3.13     4.298199     20.42459     36.06261         6     0.749     0.563 -44.67   0
       304    413.4682    318.7095 300.2420927 +22.6029945     1144.994     72.54151      1.237     2.22     4.699316     20.42459     146.9769        14     0.864     0.834  43.62   0
       305    265.6851    316.9706 300.1966891 +22.5581992     204.8175     72.39415      1.029     5.10     4.946958     20.42459     39.24092         7     1.006     0.729   7.61   0
       306    498.6165    316.2132 300.2694019 +22.6277939     440.8304     72.33881      1.974     2.57     4.321787     20.42459     38.46996         5     0.723     0.443 -69.52   0
       307    924.8359    314.3422 300.4028005 +22.7549140     308.3907     72.39415      1.270     2.42     4.480335     20.42459     66.30438         6     0.699     0.622  74.45   0
       308    797.2509    311.7291 300.3638729 +22.7159615     177.2447     72.39415      1.147     2.75       4.3285     20.42459     57.43285         6     0.833     0.666 -80.40   0
       309    658.1793    310.5659 300.3209189 +22.6739754     2155.585     72.41258      1.241     2.20     4.297915     20.42459     319.9789        20     1.041     0.869  50.29   0
       310    919.5795    304.8449 300.4042441 +22.7506102     3085.019     72.44945      1.258     2.27     4.486691     20.42459     430.8127        24     1.053     0.967  78.39   0
       311    465.9264    303.7075 300.2632864 +22.6144069     198.7713     72.52311      1.180     3.48     4.417584     20.42459     32.95998         5     1.034     0.339 -43.12   0
       312    980.9482    299.4167 300.4251457 +22.7674208     440.7719     72.39415      1.112     2.43     4.304099     20.42459     78.22369         9     0.905     0.603  53.74   0
       313    290.6419    296.3618 300.2111387 +22.5597644     66.91816     72.48629      1.261     5.23     4.972859     20.42459      36.4865         7     1.064     0.726  48.38   0
       314    366.5491    294.6307 300.2353105 +22.5820190     588.8642     72.43102      1.220     2.49     4.852405     20.42459     87.32819        12     0.972     0.704  39.78   0
       315    988.9565    292.8001 300.4297913 +22.7679156     1583.135      72.3757      1.275     2.03     4.264442     20.42459     262.3052        17     0.949     0.857  -8.48   0
       316     41.4189    288.8882 300.1361015 +22.4828964     1341.867     72.33881      1.488     3.06      4.83641     20.42459     134.6099        18     1.108     0.967 -55.99   0
       317     72.0767    288.6283 300.1457102 +22.4920157       624.85      72.3757      1.449     3.30     4.735807     20.42459     64.03703        12     0.940     0.861  74.59   0
       318    935.1917    285.2360 300.4154774 +22.7496468     442.7281     72.39415      1.226     2.75     4.481422     20.42459     65.99084         6     0.746     0.543  43.87   0
       319    779.1254    281.8399 300.3679253 +22.7019439     453.2488      72.3757      1.430     3.92     4.439018     20.42459     59.59293         8     1.108     0.502 -47.07   0
       320    125.1780    280.3995 300.1648806 +22.5055772     552.7476     72.32035      1.510     4.79     4.693575     20.42459     60.23581         8     1.105     0.625  75.36   0
       321    920.4960    278.0107 300.4132396 +22.7431703     311.2231     72.32035      1.109     2.50     4.509283     20.42459      47.5921         6     0.755     0.499  86.47   0
       322    801.5415    274.2463 300.3773760 +22.7064738     314.2576     72.44945      1.058     2.23     4.487906     20.42459     60.88576         5     0.700     0.450  66.58   0
       323    729.8389    271.9507 300.3557763 +22.6843425     727.2996     72.41258      1.173     1.90     4.511282     20.42459     153.3123         8     0.765     0.609 -49.13   0
       324    320.1638    271.7978 300.2282920 +22.5615610     230.0945     72.39415      1.085     2.16     4.952014     20.42459     57.03907         6     0.730     0.526 -48.18   0
       325    866.2137    264.8036 300.4006004 +22.7231230     314.3893     72.24648      1.082     2.66     4.518807     20.42459     46.97781         5     0.884     0.348  45.72   0
       326    820.4490    264.9124 300.3862985 +22.7094523     330.9523     72.39415      1.062     2.51     4.537167     20.42459     58.94712         6     0.728     0.587  41.18   0
       327    827.9999    260.8969 300.3899554 +22.7105589     2135.319     72.26495      1.262     2.03     4.549887     20.42459     358.4578        21     1.083     0.859 -82.67   0
       328    246.6492    258.3676 300.2097887 +22.5356702     2094.104     72.43102      1.267     2.44      5.01363     20.42459     263.8333        17     1.009     0.857  73.98   0
       329    324.3776    253.5839 300.2355131 +22.5575943     1076.448      72.3757      1.344     2.56      4.95619     20.42459     125.5748        15     0.977     0.899  76.80   0
       330    726.3844    252.7896 300.3609182 +22.6778016     625.2827     72.32035      1.304     3.80      4.65027     20.42459     70.46609         9     1.036     0.659  64.28   0
       331     76.3997    253.8377 300.1583430 +22.4833286     409.9886     72.39415      1.623     5.17     4.822739     20.42459     37.38627         8     1.249     0.604  48.14   0
       332    141.1406    245.6662 300.1811121 +22.5003947     636.3982     72.43102      1.266     2.85      4.84233     20.42459     100.9997        12     0.989     0.753  61.98   0
       333    679.1897    242.4491 300.3495703 +22.6606964     1636.067     72.41258      1.196     2.20     4.699664     20.42459     236.4902        14     0.878     0.795  78.23   0
       334    744.1085    241.8953 300.3699761 +22.6799783     624.4002     72.57831      1.312     2.56     4.735398     20.42459     95.73476        10     0.894     0.708 -62.92   0
       335    111.3497    241.7873 300.1731126 +22.4903497     309.1455     72.44945      1.225     2.52     4.856092     20.42459     37.99039         5     0.733     0.434 -70.40   0
       336    162.8015    239.0510 300.1899907 +22.5049900     530.7815      72.3757      1.268     2.56     4.880115     20.42459     74.54189        10     0.874     0.707   3.87   0
       337    950.7118    234.8218 300.4366786 +22.7397979     887.1754     72.32035      1.361     2.79     4.532964     20.42459     110.1561        17     1.062     0.906 -73.28   0
       338    452.4480    234.9719 300.2813978 +22.5906273     368.2775     72.41258      1.148     1.93     4.870323     20.42459     73.01935         7     0.684     0.644 -58.54   0
       339    683.3176    233.7813 300.3536688 +22.6594419     829.9611     72.35726      1.337     2.23      4.76563     20.42459     133.0159        10     0.829     0.694  70.37   0
       340    603.6675    233.2435 300.3290349 +22.6354319     1207.079      72.3757      1.212     2.12     4.772333     20.42459     182.7211        15     0.945     0.828  48.43   0
       341    424.5373    229.6158 300.2744501 +22.5807262     320.9722     72.35726      1.140     3.67     4.906922     20.42459     41.21259         6     0.911     0.432  71.86   0
       342    529.8645    224.9865 300.3087345 +22.6109524     910.8924     72.35726      1.209     1.98     4.857497     20.42459     161.3924        13     1.004     0.690  85.66   0
       343    811.1339    223.7158 300.3967635 +22.6948217     805.3032      72.5047      1.271     2.46     4.762744     20.42459     141.1966        15     1.154     0.816  47.21   0
       344    799.0879    224.5951 300.3927236 +22.6914680     1399.567     72.30189      1.196     2.23     4.802112     20.42459     239.1901        13     0.913     0.763  87.74   0
       345    857.6603    222.8043 300.4115628 +22.7084888     362.8578     72.35726      1.127     1.97     4.584877     20.42459     71.23111         7     0.739     0.586 -62.05   0
       346    982.1511    220.7753 300.4510427 +22.7451687      312.201     72.39415      1.243     3.66     4.577325     20.42459     52.21002         5     0.894     0.430 -47.15   0
       347    972.0320    214.5382 300.4499101 +22.7403466     1563.909     72.41258      1.266     2.22     4.593624     20.42459     258.9749        19     1.039     0.891  46.99   0
       348    927.9285    213.6754 300.4364349 +22.7268982     1155.321     72.46786      1.348     2.56     4.592645     20.42459     181.4444        16     1.138     0.872 -85.88   0
       349    162.0338    207.1559 300.2001002 +22.4956045     641.6267     72.44945      1.275     3.13     4.953649     20.42459     86.13751         9     0.863     0.741  89.10   0
       350     23.8012    202.1338 300.1587774 +22.4527195     2315.336      72.3757      1.498     2.48     4.818935     20.42459     269.5397        30     1.351     1.069  59.72   0
       351    847.0263    198.7010 300.4160682 +22.6983760     645.8223     72.33881      1.271     2.26     4.723361     20.42459     120.2532        13     0.888     0.867  86.46   0
       352    181.1623    195.3753 300.2098676 +22.4979568     5562.591     72.41258      1.387     2.47     4.977177     20.42459     639.5915        33     1.212     1.060  73.63   0
       353    163.2620    196.0081 300.2040984 +22.4927726     258.9341     72.33881      1.192     3.32     4.963535     20.42459     52.08598         5     0.800     0.398 -74.43   0
       354    980.0547    182.6123 300.4627708 +22.7335666     18335.97     72.39415      1.324     2.21     4.689279     20.42459      2884.25        53     1.246     1.107  84.55   0
       355    164.5319    186.2758 300.2076502 +22.4903595     661.2009     72.46786      1.302     2.76     4.972695     20.42459     74.71893        11     0.871     0.792  27.48   0
       356    825.2675    176.7469 300.4164078 +22.6855507     3525.482     72.41258      1.265     2.12     4.841646     20.42459     548.9014        24     1.022     0.965  78.02   0
       357    928.9019    175.3696 300.4491664 +22.7161749     2792.694     72.33881      1.294     2.30     4.749782     20.42459     416.3809        21     1.053     0.922  64.17   0
       358    127.5027    172.9714 300.2004574 +22.4754403     361.6987     72.33881      1.491     4.20     4.957778     20.42459      39.3928         5     0.740     0.680  -9.65   0
       359    374.6770    171.8644 300.2776726 +22.5492001     642.5251     72.48629      1.275     2.62     4.962839     20.42459     85.52567         9     0.815     0.717  25.39   0
       360    489.1656    169.8102 300.3139660 +22.5829096     292.9967      72.3757      1.002     2.33     4.970738     20.42459     55.92846         6     0.689     0.577 -50.78   0
       361    299.1458    163.9235 300.2567540 +22.5242870     951.5499     72.43102      2.152     3.05     4.991599     20.42459     95.64491         9     0.961     0.639  49.49   0
       362     65.1847    160.9468 300.1849937 +22.4533068     609.0434      72.3757      1.431     4.10     4.858546     20.42459     61.89673        12     1.052     0.888  -8.64   0
       363    426.1015    159.2395 300.2977681 +22.5609808     1596.522     72.39415      1.224     2.21     4.952487     20.42459     240.6801        17     1.030     0.804  88.31   0
       364    354.0210    159.9522 300.2751107 +22.5395897     524.3053     72.43102      1.346     3.01     4.985326     20.42459     60.78629         7     0.842     0.550 -42.36   0
       365    487.7709    158.4316 300.3172229 +22.5792229     354.2022     72.39415      1.144     1.81     4.978369     20.42459     60.83112         5     0.633     0.486 -13.68   0
       366    169.4496    155.2020 300.2192582 +22.4829129     439.9565      72.3757      1.216     3.46     4.988673     20.42459     55.54626         7     0.960     0.463 -77.43   0
       367    714.5446    148.6849 300.3910050 +22.6443356     409.6194     72.48629      1.297     3.96     4.926053     20.42459     61.32627         6     0.819     0.549 -54.60   0
       368    562.4012    145.1840 300.3447532 +22.5977700     280.6774     72.26495      1.213     3.11     4.927589     20.42459     39.02962         5     0.736     0.446  69.75   0
       369     71.4510    144.8695 300.1921551 +22.4505707     256.5123     72.39415      1.490     3.73     4.873318     20.42459     38.74404         5     1.235     0.324 -42.01   0
       370    604.3537    143.1839 300.3584655 +22.6097593     206.4242     72.41258      1.207     3.37     4.927738     20.42459     45.68803         5     1.500     0.220  61.86   0
       371    860.5524    143.0414 300.4383413 +22.6864220     279.1414     72.44945      1.277     3.45     4.885052     20.42459      47.6964         5     0.772     0.446 -69.63   0
       372    990.7164    139.8765 300.4799600 +22.7244662     3730.186      72.5047      1.383     2.53     4.744143     20.42459     442.6259        27     1.081     1.071 -20.31   0
       373    200.1482    139.2309 300.2339809 +22.4875285     6013.987     72.43102      1.361     2.46     4.980002     20.42459     716.9783        33     1.220     1.012  71.14   0
       374    706.6287    139.7292 300.3914435 +22.6393913     219.2027     72.39415      1.235     3.10     4.926703     20.42459     46.42695         5     0.739     0.442  70.69   0
       375     51.0743    138.3306 300.1879451 +22.4425851     756.9216     72.46786      1.797     4.67     4.824079     20.42459     87.00185        12     1.460     0.731  51.97   0
       376    172.0798    133.4436 300.2271328 +22.4774544     441.0059      72.3757      1.495     3.13     4.976751     20.42459      61.1423         7     0.829     0.755 -86.95   0
       377    675.5192    130.1873 300.3848467 +22.6273341     313.0099      72.3757      1.092     3.35      4.90467     20.42459     53.01015         6     0.722     0.672 -45.55   0
       378    215.4782    130.2908 300.2416462 +22.4895560     247.8127     72.54151      1.097     3.04     4.975125     20.42459     50.28782         6     0.821     0.532 -46.97   0
       379    446.2295    124.4837 300.3153047 +22.5570263     6178.685     72.41258      1.285     2.30     4.995546     20.42459     860.8668        33     1.155     0.986  82.23   0
       380    331.5626    124.2461 300.2797056 +22.5226055     556.2234     72.43102      1.204     3.38     5.031341     20.42459     81.76732         9     1.054     0.644  67.55   0
       381    640.2110    115.6643 300.3785587 +22.6125878     351.2195     72.32035      1.213     2.86     4.923637     20.42459     42.29854         6     0.719     0.616  66.25   0
       382    698.8524    114.1159 300.3973282 +22.6297007     817.9564     72.43102      1.357     2.31     4.945643     20.42459     110.0377        11     0.929     0.704  78.45   0
       383    791.1829    112.9522 300.4264767 +22.6570066     446.8863     72.43102      1.253     3.08     4.929751     20.42459     65.87474         9     0.803     0.745 -53.51   0
       384    139.2076    108.3393 300.2250570 +22.4603944     521.7652      72.3757      1.499     3.64     4.954309     20.42459     52.60379         8     0.970     0.615  -1.11   0
       385    497.4242    106.6423 300.3370247 +22.5672348     415.5442     72.44945      1.148     3.47     4.971147     20.42459     64.56277         8     0.998     0.585  73.12   0
       386    574.5901    104.5121 300.3617395 +22.5897328     6403.542     72.33881      1.289     2.30     4.930565     20.42459     853.8489        33     1.180     0.990  76.00   0
       387    349.2838    103.6220 300.2919065 +22.5219911     1503.062     72.35726      1.287     2.29     5.055054     20.42459      192.904        20     1.024     0.942  57.42   0
       388    615.8207    101.7838 300.3754639 +22.6012952     899.0613      72.3757      1.244     2.43     4.931001     20.42459     138.2086        13     0.939     0.806  54.36   0
       389    685.4218     99.7993 300.3977870 +22.6215643     430.0294     72.32035      1.645     4.10     4.946725     20.42459     34.18178         7     1.185     0.406 -75.35   0
       390    631.7289     97.7626 300.3817225 +22.6049028     701.7078      72.3757      1.429     3.64     4.933281     20.42459     82.46738         8     1.055     0.517  46.54   0
       391     98.2048     96.1810 300.2162575 +22.4446140     731.0326     72.33881      1.562     3.14     4.944761     20.42459     79.71606        10     0.971     0.709 -74.33   0
       392    901.4610     95.2903 300.4665837 +22.6849338     659.9005     72.48629      1.466     2.95     4.912218     20.42459     74.10966        11     1.017     0.690  82.72   0
       393    156.6646     94.7411 300.2348922 +22.4617223      190.915     72.43102      1.114     3.48     4.969665     20.42459     36.83121         5     1.152     0.303 -36.25   0
       394    670.3114     93.3558 300.3951695 +22.6151881     433.2253     72.39415      1.078     2.99     4.952197     20.42459     90.77833         8     0.923     0.574  76.44   0
       395    618.8336     89.3500 300.3804344 +22.5986237     2819.537     72.43102      1.306     2.31      4.93694     20.42459     376.4464        23     1.077     0.959  75.75   0
       396    259.4931     90.3409 300.2682869 +22.4912736     412.5335     72.44945      1.300     3.10     5.041458     20.42459     63.07278         9     0.935     0.725  53.22   0
       397    633.8563     88.2379 300.3854738 +22.6028022     973.6167     72.39415      1.869     5.98     4.947068     20.42459     76.78413        15     1.548     0.720  55.27   0
       398    705.2590     80.9302 300.4100862 +22.6220790     1476.873     72.41258      1.280     2.18     5.021356     20.42459     218.8209        18     0.964     0.889  68.24   0
       399    865.5891     79.2393 300.4606041 +22.6695827     280.3933     72.39415      1.372     3.38     4.932664     20.42459     33.10562         5     0.748     0.441 -68.84   0
       400    643.1397     74.0076 300.3929798 +22.6014914     728.8245     72.35726      1.334     2.59      4.98054     20.42459     94.74654        11     0.877     0.752  44.37   0
       401    448.7953     73.6820 300.3325776 +22.5431994     1103.396     72.32035      1.374     2.16     5.007096     20.42459     150.1517        13     0.913     0.806 -36.44   0
       402     21.4587     73.4796 300.1997745 +22.4150922     616.6201     72.43102      1.563     3.20     5.135011     20.42459     73.53001        10     0.941     0.872 -31.10   0
       403    352.6669     71.6772 300.3033175 +22.5138285     771.0541     72.48629      1.323     3.09     4.975235     20.42459     99.23153        12     1.007     0.777 -88.97   0
       404    995.7462     68.4014 300.5047097 +22.7054118     2471.071     72.33881      1.377     2.39     4.707625     20.42459     290.4377        28     1.220     1.063  78.94   0
       405    734.9462     70.3181 300.4227773 +22.6279152     460.3763     72.43102      1.409     2.38     5.073917     20.42459     66.60984         7     0.696     0.662 -52.50   0
       406    692.0479     62.1365 300.4120644 +22.6127212      706.474     72.41258      1.317     3.01     5.077255     20.42459     98.92094        10     0.946     0.757  82.36   0
       407    124.0255     61.6854 300.2354663 +22.4424492     3725.805     72.35726      1.479     2.84     5.190523     20.42459     430.6427        29     1.304     1.016  68.69   0
       408    546.6902     58.9847 300.3678157 +22.5682941     387.4396     72.32035      1.390     2.85      4.93116     20.42459     43.54299         7     0.736     0.644 -73.28   0
       409    449.7441     58.8796 300.3376724 +22.5392305     317.0723     72.43102      1.427     3.54     4.999322     20.42459     45.50138         7     0.890     0.663  79.33   0
       410    685.7742     53.9792 300.4127549 +22.6084980     944.0504      72.3757      1.428     3.17     5.102871     20.42459     111.9772        13     0.985     0.845 -83.56   0
       411    239.9956     53.8407 300.2740592 +22.4749488     1226.791     72.41258      1.332     2.61     4.984797     20.42459     168.8371        14     0.978     0.822  86.73   0
       412    651.3328     53.2700 300.4022560 +22.5979833     270.9771     72.44945      1.170     2.80     5.043569     20.42459     42.40158         5     0.738     0.438  72.96   0
       413    723.2424     49.0876 300.4260145 +22.6183078     732.3955     72.39415      1.500     3.86     5.129537     20.42459     75.28099        15     1.143     0.876  89.83   0
       414    466.4836     50.5301 300.3455893 +22.5418448     297.7902      72.5047      1.849     3.94     4.970247     20.42459     33.92293         5     1.090     0.408  16.54   0
       415    646.6802     48.9261 300.4022152 +22.5953417     482.9607      72.5047      1.233     2.76     5.041723     20.42459     59.95344         7     0.718     0.658 -61.17   0
       416    743.1979     45.2635 300.4334724 +22.6231816     2203.298     72.39415      1.264     2.21     5.132727     20.42459     303.8625        20     1.129     0.828  85.42   0
       417    449.0114     43.6033 300.3423973 +22.5346216     584.2056     72.20951      1.366     2.98     4.994542     20.42459      58.3386         8     0.801     0.671 -75.04   0
       418    126.5776     40.7967 300.2430316 +22.4372163     1041.939     72.35726      1.504     2.78     5.337515     20.42459     121.8308        16     1.093     0.878  10.42   0
       419    918.2330     38.5526 300.4902118 +22.6736340     713.2241     72.43102      1.324     2.62     4.945617     20.42459     95.38219        13     0.940     0.834 -73.50   0
       420    691.5511     37.9041 300.4197666 +22.6056060      923.624     72.44945      1.285     2.71     5.159851     20.42459     131.5146        14     1.083     0.842 -57.90   0
       421    398.9125     35.8079 300.3293348 +22.5173766     408.4865     72.30189      1.740     3.68     4.992249     20.42459       48.462         7     0.950     0.552 -18.08   0
       422    449.3592     30.0996 300.3468835 +22.5308456     332.8536      72.3757      1.570     4.17     4.988684     20.42459     37.60057         6     0.773     0.641 -36.60   0
       423    276.4610     28.0635 300.2937553 +22.4784705     534.0854     72.43102      1.633     3.48       5.5555     20.42459     56.35279         8     0.831     0.762 -43.17   0
       424    544.2589     22.5829 300.3788607 +22.5571041     949.5304     72.33881      1.359     2.68     4.931029     20.42459     134.4465        14     0.969     0.822  48.17   0
       425    776.5256     21.7799 300.4514721 +22.6264043     285.3399     72.39415      1.314     2.79     5.119793     20.42459     37.59006         5     0.722     0.447  66.86   0
       426    679.5677     20.4857 300.4216804 +22.5970110     300.1466     72.35726      1.007     3.01     5.224171     20.42459     55.70347         6     0.905     0.404 -69.28   0
       427    153.4304     20.0946 300.2580886 +22.4393187     429.4853     72.30189      1.246     3.51     5.482442     20.42459     75.68304        10     1.058     0.744 -19.70   0
       428    707.1980     17.4725 300.4312654 +22.6044155     734.0219     72.30189      1.238     2.55     5.228473     20.42459     105.8947        11     0.905     0.741  68.53   0
       429     83.7867   1017.5220 299.9124455 +22.7045110     1390.943     72.41258      7.867    11.54     46.64054     20.42459     42.99274        27     2.847     1.302  39.89  19
       430     79.2602   1011.8157 299.9128968 +22.7015169     1428.387     72.35726      7.199    10.40     46.49537     20.42459     44.01741        21     2.299     1.311  73.20  19
       431    412.2325     12.9698 300.3408831 +22.5148042     298.4257     72.39415      1.032     4.06     5.026679     20.42459     41.13239         6     0.915     0.517   0.71   0
       432    605.0201   1011.6547 300.0764651 +22.8592887     6751.173      72.3757      1.648     3.20     2.729869     20.42459     574.0295        48     1.385     1.358   9.71   0
       433    119.2626   1009.7011 299.9260128 +22.7129244     940.9113     72.48629      7.042     7.08     30.80297     20.42459     34.24117        13     1.529     0.920  86.01   1
       434    756.5922   1006.4111 300.1253827 +22.9032510     317.6193     72.28342      1.649     4.36     2.806152     20.42459     28.77795         5     0.996     0.542  43.82   0
       435    485.0719   1005.7698 300.0410424 +22.8216109     435.3078     72.39415      1.648     3.20     2.817251     20.42459     51.16759         8     0.884     0.737  78.58   0
