#   1 NUMBER                 Running object number                                     
#   2 X_IMAGE                Object position along x                                    [pixel]
#   3 Y_IMAGE                Object position along y                                    [pixel]
#   4 ALPHA_J2000            Right ascension of barycenter (J2000)                      [deg]
#   5 DELTA_J2000            Declination of barycenter (J2000)                          [deg]
#   6 FLUX_APER              Flux vector within fixed circular aperture(s)              [count]
#   7 FLUXERR_APER           RMS error vector for aperture flux(es)                     [count]
#   8 FLUX_RADIUS            Fraction-of-light radii                                    [pixel]
#   9 FWHM_IMAGE             FWHM assuming a gaussian core                              [pixel]
#  10 BACKGROUND             Background at centroid position                            [count]
#  11 THRESHOLD              Detection threshold above background                       [count]
#  12 FLUX_MAX               Peak flux above background                                 [count]
#  13 ISOAREA_IMAGE          Isophotal area above Analysis threshold                    [pixel**2]
#  14 A_IMAGE                Profile RMS along major axis                               [pixel]
#  15 B_IMAGE                Profile RMS along minor axis                               [pixel]
#  16 THETA_IMAGE            Position angle (CCW/x)                                     [deg]
#  17 FLAGS                  Extraction flags                                          
         1    404.7706     12.8223 300.3408515 +22.5071490     2129.992     72.36607      1.296     2.27     5.113142     20.41666     337.8015        21     1.066     0.907  80.23   0
         2     51.8846     10.6503 300.2318485 +22.4007926     1461.167     72.34763      1.562     2.93     4.781675     20.41666     167.1776        21     1.199     1.027  58.44   0
         3    895.5480      9.8293 300.4946768 +22.6532132     286.2795     72.38449      1.178     4.16     4.891587     20.41666      47.3682         6     1.020     0.485  82.74   0
         4    535.8339      7.0429 300.3835133 +22.5447390      436.373     72.42134      1.275     2.97     5.069911     20.41666     65.54596        10     1.002     0.657 -82.00   0
         5    442.4319      2.2659 300.3559915 +22.5153958      201.512     61.41854      1.029     3.47     5.116591     20.41666       31.874         5     0.771     0.451  70.95  24
         6    879.2833      1.4232 300.4923306 +22.6459288      313.415     56.83906      1.036     2.57     4.896601     20.41666     49.68749         5     0.690     0.473  16.42  24
         7    519.4646   1014.9584 300.0510243 +22.8291612      1553.12     72.32919      1.593     3.46     4.053053     20.41666     154.3598        19     1.114     1.079 -34.65   0
         8    611.0398   1023.3181 300.0768088 +22.8590359     3915.344      58.2759      1.306     3.32     2.682996     20.41666     505.4236        24     1.343     0.801   1.88  24
         9    176.5243   1023.1216 299.9417181 +22.7285551     899.1682     59.45423      8.508    10.91     15.79126     20.41666     42.76927        18     2.867     1.157  -3.34  27
        10    110.8161   1020.3487 299.9222049 +22.7080280     957.8207      70.8573      8.704    11.48     28.47926     20.41666     44.81766        18     3.273     1.122  26.56  19
        11    110.5825   1023.6959 299.9210429 +22.7089166     439.9144     56.05927      1.654     3.37     29.45435     20.41666     48.65402         5     1.009     0.326 -21.54  27
        12    105.9784   1023.1985 299.9197745 +22.7073914     858.7697     58.91331      6.139     7.53     30.23417     20.41666     46.94038        16     1.894     0.839 -12.66  27
        13    100.7349   1023.4717 299.9180567 +22.7058949     855.1968      57.4924      6.129     6.71     31.25776     20.41666     51.67906        14     1.662     0.972 -13.06  27
        14     84.8448   1023.0189 299.9132681 +22.7009928     1308.504     59.94578      8.916    11.48     36.72497     20.41666     48.18325        35     2.685     1.366 -12.46  27
        15     83.0436   1020.0000 299.9136912 +22.6995870     1400.962     71.71803      4.245     4.16     36.50246     20.41666     41.16174         5     1.062     0.465 -18.10  19
        16     68.6916   1009.9621 299.9125004 +22.6924012      2055.37     72.34763     13.975    18.60     37.81573     20.41666     54.08389        85     3.255     2.954 -17.82  19
        17     57.8064   1011.6301 299.9085766 +22.6896096     1762.907     72.36607     16.971    21.99     42.34005     20.41666     43.94208        62     5.363     2.503  14.10  19
        18     35.9707    981.4435 299.9116192 +22.6744048     2269.759     72.40292      6.173    31.67     33.22287     20.41666     78.90567       168     7.789     3.574 -45.91  19
        19    696.4106   1011.7913 300.1071458 +22.8813413     338.5048     72.25539      1.304     4.76     3.122145     20.41666     40.05345         8     1.028     0.626   9.00   0
        20    413.2897   1011.4768 300.0191215 +22.7962988     908.1723     72.51337      1.619     3.88     3.812878     20.41666     86.27103        17     1.187     0.924  48.90   0
        21    343.9297   1009.6400 299.9981466 +22.7749531     6645.856     72.32919      1.731     3.37     3.618863     20.41666     515.7277        43     1.385     1.320 -20.24   0
        22    188.7601   1011.7427 299.9492241 +22.7289692     881.8178     72.34763      3.581     3.79     12.40423     20.41666     33.73483         5     0.977     0.421 -85.43   1
        23     42.5142   1022.4506 299.9003054 +22.6881157     2608.302     62.81435      6.830    18.81     52.48904     20.41666     87.18224        94     4.463     2.203 -10.12  27
        24     52.5223    997.2642 299.9116110 +22.6839077     1286.942     72.45817      8.777    10.17     37.11067     20.41666     57.18007        19     1.942     1.484 -71.05   3
        25     39.1588    991.6845 299.9092765 +22.6782958     2432.635     72.32919      9.641    30.41     38.35061     20.41666     56.72664       174     5.342     4.804 -12.46  19
        26    376.7115    996.5529 300.0126013 +22.7810420     362.3704     72.34763      1.359     3.16     3.666193     20.41666     58.30605         8     0.882     0.729 -65.39   0
        27    890.2442    988.0023 300.1752871 +22.9326476     2107.704     72.34763      1.695     3.52     3.437303     20.41666     145.4037        27     1.288     1.173 -20.99   0
        28    539.9097    985.5774 300.0669507 +22.8268715     438.2884      72.2923      1.699     6.70     3.867826     20.41666     42.55051        10     1.463     0.862 -24.53   0
        29    679.0242    976.6227 300.1131778 +22.8660383     773.3193     72.32919      1.820     4.20     3.169426     20.41666     56.46909        13     1.093     0.861 -87.55   0
        30     57.2746    975.5824 299.9201429 +22.6791243     997.2064     72.36607      5.527     9.74     26.67254     20.41666     36.95643        18     1.877     1.409 -10.62   0
        31   1005.9996    975.7658 300.2153636 +22.9638387      513.986     72.32919      1.744     5.65     2.961807     20.41666     55.40879         9     1.305     0.690 -26.31   0
        32    713.7211    971.2057 300.1257478 +22.8748917     1024.338      72.2923      1.541     3.89     3.512245     20.41666     90.27416        19     1.160     1.071  56.28   0
        33    491.3340    972.0743 300.0562277 +22.8084240     371.7387     72.42134      1.521     4.87     3.742189     20.41666     37.62477         8     0.987     0.682 -16.47   0
        34    736.0773    964.9358 300.1347524 +22.8797981     11342.68     72.45817      1.543     3.03     3.693285     20.41666     967.4968        50     1.309     1.286 -34.92   0
        35    781.7620    965.0358 300.1489530 +22.8935278      429.848     72.43976      1.305     3.77     3.711478     20.41666     49.49227         7     0.834     0.691 -18.55   0
        36    926.9461    964.2343 300.1944651 +22.9368304     494.1422     72.38449      1.782     6.32     3.209259     20.41666     31.43404        11     1.408     0.797   8.64   0
        37     36.4177   1008.6301 299.9029103 +22.6823261     2877.178     72.34763      6.426    22.24     48.21139     20.41666     70.64082       144     4.722     2.909 -12.43  19
        38    441.8114    953.5562 300.0468451 +22.7882538     537.2137     72.36607      1.937     5.64     3.634371     20.41666     44.29516        10     1.250     0.716  48.58   0
        39    787.7053    952.4113 300.1549135 +22.8916879     331.8596     72.31075      1.380     4.46     3.711469     20.41666     39.77452         8     0.965     0.658  -2.26   0
        40    744.5450    946.9298 300.1432502 +22.8771719     1289.104     72.38449      1.556     3.37     3.693968     20.41666     119.4507        21     1.138     1.081 -33.47   0
        41    927.7518    945.6655 300.2007596 +22.9317424     326.4586     72.40292      1.436     3.74     3.338615     20.41666     42.62832         8     0.985     0.559 -68.19   0
        42    460.2139    944.6407 300.0554719 +22.7912198     266.7927     72.38449      1.637     4.56     3.552013     20.41666     25.76721         5     0.835     0.708  61.49   0
        43    597.0569    943.7939 300.0983382 +22.8320340     419.4182     72.32919      1.511     3.84     3.460707     20.41666     37.00645         6     0.958     0.441 -39.88   0
        44    782.9523    940.4068 300.1573391 +22.8868181     747.3837     72.36607      1.594     4.27     3.707863     20.41666     69.82525        16     1.240     0.981 -55.00   0
        45    891.0826    936.7552 300.1922273 +22.9181919     283.3535     72.32919      1.301     3.23     3.567971     20.41666     43.46991         7     0.746     0.666 -38.49   0
        46    831.1819    931.6237 300.1752266 +22.8987597     524.2141     72.38449      1.603     3.47     3.698107     20.41666     58.49696        11     1.000     0.796 -20.61   0
        47    682.6350    930.8162 300.1292095 +22.8539813      635.876     72.36607      1.425     3.57     3.569237     20.41666     62.60105        13     0.968     0.917 -41.19   0
        48    395.1334    927.2802 300.0408744 +22.7667125     4020.644     72.47658      1.485     2.88     3.599275     20.41666     399.8305        31     1.184     1.168   6.35   0
        49    693.9446    927.7227 300.1337385 +22.8564859     490.6717     72.40292      1.488     3.88     3.604029     20.41666     55.97235        11     1.054     0.815   8.42   0
        50    120.5137    913.4387 299.9600075 +22.6803106     908.0651     72.34763      1.930     4.85     5.639552     20.41666     67.15298        19     1.387     1.154 -49.15   0
        51    438.4724    915.0936 300.0583218 +22.7762237     283.8035     72.49498      1.343     3.79     3.542609     20.41666     55.82703         6     0.883     0.603  49.96   0
        52     57.3895    915.1737 299.9398343 +22.6618532     450.3142     72.36607      1.648     4.60     5.341053     20.41666      41.3584         6     0.980     0.612  26.39   0
        53     97.4191    909.8988 299.9539845 +22.6723619     1739.816      72.2923      1.868     3.76     5.767592     20.41666     151.3713        27     1.403     1.249  68.28   0
        54     29.2299    911.2906 299.9323520 +22.6522844     560.9932     72.32919      1.601     3.09     4.804789     20.41666     50.55022         6     0.737     0.562  35.31   0
        55    969.2573    898.8707 300.2289290 +22.9307517     2023.074     72.38449      1.609     3.65     3.531939     20.41666     164.4543        24     1.193     1.168 -19.82   0
        56    628.5707    898.3881 300.1229245 +22.8284629     551.8403     72.36607      1.752     6.17     3.561536     20.41666     43.79354        13     1.646     0.650 -55.88   0
        57    923.5161    897.3372 300.2151653 +22.9166008     2098.359     72.45817      1.607     3.10     3.541676     20.41666     187.8451        27     1.248     1.193  17.14   0
        58    399.0576    896.8829 300.0519851 +22.7591749     144.0815     72.45817      1.342     3.95     3.652007     20.41666     29.45215         5     0.831     0.537  58.93   0
        59    129.8028    892.1333 299.9698247 +22.6769946     582.0637     72.36607      2.055     5.91     4.948118     20.41666      39.4917        11     1.221     0.979 -16.71   0
        60    706.9304    891.1160 300.1496942 +22.8498778      528.418     72.47658      1.362     3.06      3.59552     20.41666     65.30302         8     0.809     0.679  49.40   0
        61    454.7445    889.1844 300.0718140 +22.7736768      263.024     72.34763      1.196     2.29     3.511058     20.41666     49.69104         6     0.699     0.622  13.10   0
        62    575.0937    885.2599 300.1105461 +22.8086564     4808.758     72.45817      1.430     2.63     3.558943     20.41666     512.7107        31     1.166     1.133 -60.34   0
        63     64.9319    885.8806 299.9517066 +22.6557253     531.9996     72.47658      2.054     3.37     4.521055     20.41666     59.59481         7     0.995     0.646  56.39   0
        64    377.4093    882.4270 300.0499543 +22.7485338     636.6138     72.36607      1.477     3.84      3.68986     20.41666     67.73904        12     1.162     0.789   4.86   0
        65    125.3021    879.3457 299.9725862 +22.6719789     1442.565     72.45817      1.707     3.47     4.573651     20.41666     139.7396        19     1.179     1.031  40.70   0
        66    595.3461    877.6529 300.1193259 +22.8125492     749.2592     72.40292      1.511     3.35     3.558943     20.41666      88.3782        14     1.095     0.833 -21.59   0
        67    144.9134    876.2321 299.9796923 +22.6769745     444.0979     72.34763      1.597     3.86     4.516109     20.41666     45.69205         9     0.999     0.775  36.97   0
        68    512.1965    868.6815 300.0963619 +22.7850334     259.3464     72.27384      1.212     4.75     3.491521     20.41666     48.01906         6     1.023     0.625 -59.54   0
        69    968.1534    865.1307 300.2395622 +22.9207346     1145.144     72.34763      1.605     3.94     3.607883     20.41666     99.07929        20     1.378     0.897 -29.58   0
        70    751.1511    864.9713 300.1719755 +22.8556361     4155.702     72.38449      1.409     2.56     3.603069     20.41666     477.1339        30     1.165     1.103 -21.24   0
        71    159.4553    859.0738 299.9897922 +22.6764227     415.8779     72.40292      1.502     4.03     4.296449     20.41666     50.23825         9     0.999     0.782  -5.75   0
        72    467.8738    857.4567 300.0862205 +22.7685172     575.0918     72.40292      1.501     4.10     3.518326     20.41666     65.77025        10     0.929     0.821 -44.20   0
        73    114.3040    855.6948 299.9768624 +22.6618995     1001.908     72.55016      1.676     3.54     4.047287     20.41666     105.9245        17     1.119     1.013 -34.52   0
        74    264.1562    847.7084 300.0260310 +22.7045923     53040.63     72.36607      1.529     2.79     3.916113     20.41666     5595.897       106     1.438     1.398 -39.89   0
        75    529.8412    851.0486 300.1075894 +22.7852690     516.2116     72.38449      1.356     2.89     3.551962     20.41666       70.152         9     0.925     0.629 -54.16   0
        76    934.7835    845.8126 300.2354413 +22.9051869     828.2573     72.31075      1.485     3.34     3.626184     20.41666     98.69185        14     1.119     0.808 -89.18   0
        77    521.9601    846.5541 300.1065985 +22.7816157     1618.436     72.43976      1.358     2.86     3.552523     20.41666     178.3098        16     0.999     0.905  64.00   0
        78    192.5600    845.6702 300.0044395 +22.6825185     332.8315     72.34763      1.186     2.54     4.123137     20.41666     55.55307         5     0.715     0.457 -69.38   0
        79    551.0290    842.5002 300.1169650 +22.7891725     864.3707     72.27384      1.358     2.80     3.571088     20.41666     105.7649        14     0.955     0.888  40.42   0
        80    562.0115    841.1992 300.1208068 +22.7920934      651.744      72.1815      1.486     2.87      3.57027     20.41666     69.40357        10     0.863     0.767  58.24   0
        81    666.9495    837.0605 300.1548267 +22.8223784     444.0536     72.42134      1.417     4.96     3.566803     20.41666     52.99656         8     1.002     0.696  53.18   0
        82    462.1564    834.4044 300.0919399 +22.7601906     179.1454     72.38449      1.019     3.84     3.625886     20.41666     44.50239         6     0.751     0.637 -55.29   0
        83    313.8744    824.9354 300.0488961 +22.7129842     31281.02     72.40292      1.471     2.67     3.822762     20.41666      3685.94        74     1.358     1.298  -4.19   0
        84    704.7783    827.3961 300.1697524 +22.8309487     808.4955     72.32919      1.439     3.29     3.573168     20.41666     97.21879        16     1.085     0.987  30.00   0
        85    328.1810    825.5424 300.0531475 +22.7174514     1956.688     72.34763      1.438     2.67     3.793518     20.41666     192.6898        22     1.136     0.996 -23.04   0
        86    836.9520    820.6732 300.2131214 +22.8686459      2733.88     72.36607      1.397     2.70     3.656172     20.41666      318.044        23     1.081     1.027 -13.27   0
        87    866.0150    818.9514 300.2227400 +22.8768634     251.4114     72.40292      1.195     4.63     3.635715     20.41666      35.5564         6     1.218     0.499  12.49   0
        88    324.9993    819.2300 300.0542111 +22.7146867     618.2734     72.32919      1.490     3.46     3.801882     20.41666     70.84245        11     1.125     0.648   8.66   0
        89    594.6630    816.7837 300.1389130 +22.7948822     920.4181     72.34763      1.329     2.62      3.57006     20.41666     130.2217        16     1.108     0.860 -24.84   0
        90    431.2840    816.6710 300.0881021 +22.7458427     347.2509     72.47658      1.295     3.12     3.717584     20.41666     56.02768         8     0.963     0.578  56.32   0
        91    489.1049    815.1340 300.1065931 +22.7627477     69.90745     72.49498      1.107     4.31     3.670655     20.41666     35.11178         5     1.044     0.507 -34.55   0
        92    441.8446    811.5547 300.0930517 +22.7475436      826.176     72.40292      1.333     3.54      3.71967     20.41666      111.493        13     0.969     0.926 -69.71   0
        93    843.1404    808.4805 300.2190159 +22.8670010     525.3483     72.42134      1.260     2.98     3.669959     20.41666     66.36439         9     0.866     0.716 -17.20   0
        94    299.7986    807.6277 300.0501482 +22.7037978     279.2801     72.31075      1.271     2.41     3.861797     20.41666     47.66751         6     0.682     0.628 -75.29   0
        95    196.3580    816.7393 300.0150292 +22.6753658     616.3219     72.34763      1.347     3.56      4.04423     20.41666     86.81428        15     1.176     0.836  88.09   0
        96    387.9857    806.5401 300.0779275 +22.7299470     297.9377     72.32919      1.231     3.75      3.73965     20.41666     51.92332         8     1.007     0.801  18.63   0
        97     29.3965    806.5149 299.9664831 +22.6223145     633.2153      72.2923      1.720     3.99       3.6656     20.41666     55.20475        12     1.142     0.794 -33.43   0
        98    820.8692    803.3241 300.2137519 +22.8588449     374.5355     72.43976      1.340     3.15      3.68329     20.41666     51.11518         7     0.812     0.625  31.42   0
        99    194.0912    801.2134 300.0193738 +22.6702349     264.0678     72.31075      1.201     2.92     4.006717     20.41666     55.84972         8     0.814     0.642 -30.08   0
       100    516.9843    791.4906 300.1229588 +22.7643282     389.1486      72.2923      1.300     3.06     3.733471     20.41666     52.74356         8     0.924     0.610  43.57   0
       101    487.0604    789.8458 300.1141810 +22.7548807     557.8473     72.38449      1.221     2.16     3.802028     20.41666     97.52985         9     0.762     0.691 -37.08   0
       102    903.2748    785.9184 300.2450988 +22.8785477     4624.317     72.47658      1.429     2.60     3.770931     20.41666     520.9068        34     1.207     1.139  63.84   0
       103    396.0632    788.6895 300.0862452 +22.7272512      243.558     72.45817      1.239     2.29      3.81238     20.41666     45.04007         7     0.695     0.650  -5.80   0
       104    508.8278    787.0151 300.1218757 +22.7605979     1244.715     72.38449      1.314     2.59     3.776472     20.41666     171.8022        19     0.981     0.966 -13.32   0
       105    428.3662    786.7325 300.0969307 +22.7363809     377.7466     72.36607      1.145     3.98     3.838546     20.41666      48.9879         9     0.963     0.735  46.48   0
       106    634.1930    781.5883 300.1626675 +22.7966385     388.4638     72.23692      2.042     5.75     3.624552     20.41666      24.5637         6     1.068     0.873  41.69   2
       107    590.4595    782.1281 300.1488750 +22.7836786     286.0068     72.40292      1.172     2.83     3.669885     20.41666     48.28774         7     0.840     0.586  17.02   0
       108    891.6594    777.2889 300.2442841 +22.8725889    -1043.387     72.43976      1.312     2.62     3.815618     20.41666     186.4399        19     1.027     0.954  85.74   0
       109    254.8048    771.3439 300.0479584 +22.6798927     893.1215     72.32919      1.470     3.26     3.929738     20.41666     91.30529        14     1.073     0.866 -28.87   0
       110    718.3419    768.7186 300.1930609 +22.8181759     2490.923     72.42134      1.411     2.52     3.705064     20.41666      344.479        26     1.422     0.919   0.98   0
       111    922.9219    767.5096 300.2572109 +22.8791501     1717.435     72.51337      1.396     2.71     3.915779     20.41666     183.7589        18     1.039     0.971 -42.99   0
       112    103.5555    755.2340 300.0061925 +22.6298807     682.5578     72.42134      1.691     3.96     3.544727     20.41666     73.16752        14     1.112     0.927  44.65   0
       113    800.4446    754.1270 300.2233860 +22.8386000      632.465     72.34763      1.511     4.54     3.890464     20.41666     68.63154        11     1.137     0.809  14.10   0
       114    836.5817    745.5695 300.2374306 +22.8469748     146976.6     72.34763      1.358     2.34      3.92653     20.41666     17699.54       161     1.400     1.350 -84.86   0
       115    983.6047    747.1672 300.2827486 +22.8914924     1159.709     72.34763      1.404     2.83     4.141181     20.41666     127.5359        17     1.002     0.951  23.91   0
       116    688.9476    745.9350 300.1913134 +22.8028243     737.7946     72.40292      1.282     2.73     3.716599     20.41666     114.7321        11     0.969     0.715 -70.59   0
       117    869.3636    738.3354 300.2500007 +22.8547227     469.2077     72.36607      1.288     3.67     3.974987     20.41666     56.04832         7     1.018     0.462  31.92   0
       118    598.7660    749.4597 300.1620841 +22.7767960     271.4545     72.38449      1.245     3.48     3.798959     20.41666     47.17039         7     0.840     0.612 -86.62   0
       119    522.9164    734.5577 300.1433177 +22.7497741     1529.761     72.32919      1.203     2.05     4.103396     20.41666     237.3752        18     1.073     0.835  39.39   0
       120    883.6998    734.2416 300.2558008 +22.8578437     4334.833     72.34763      0.714     1.12     4.023427     20.41666     1972.787         8     0.530     0.461  20.68   0
       121    704.0500    731.7274 300.2006370 +22.8032742     9140.243     72.36607      1.307     2.29     3.800142     20.41666     1317.347        36     1.091     1.069 -26.73   0
       122    185.3496    733.3541 300.0387214 +22.6481577      263.488      72.3845      1.340     4.29     3.639656     20.41666     37.12444         5     1.124     0.466   6.04   0
       123    205.5603    727.0731 300.0470448 +22.6524220     4940.893     72.34763      1.440     2.60     3.763305     20.41666     601.2171        36     1.214     1.169  39.30   0
       124    287.5655    725.1548 300.0731610 +22.6764786     1296.149     72.40292      1.395     2.51     3.943482     20.41666     165.0656        18     1.072     0.934  36.47   0
       125    922.4005    724.7209 300.2709618 +22.8667071     1022.407     72.23692      0.772     1.06     4.125506     20.41666     398.4939         6     0.634     0.433  34.07   0
       126    163.2212    722.8879 300.0352471 +22.6385162     619.5404      72.2923      1.600     3.44     3.605433     20.41666     58.69267         9     0.944     0.678 -62.45   0
       127    495.9111    720.5406 300.1394702 +22.7376534     731.9184     72.43976      1.283     2.97     4.143023     20.41666     95.66489        10     0.941     0.723  84.84   0
       128    487.4750    712.6276 300.1394173 +22.7328531     3117.224     72.36607      1.234     2.16     4.171144     20.41666     452.5984        22     1.024     0.948  59.45   0
       129    477.7515    706.3292 300.1384390 +22.7281299     1359.178     72.34763      1.265     2.47     4.199461     20.41666     173.7881        18     1.020     0.895 -74.60   0
       130    406.3983    705.6830 300.1164486 +22.7065433     314.3706     72.27384      1.376     5.14     4.181208     20.41666      41.3961         8     0.999     0.748  22.38   0
       131    871.2450    703.8720 300.2617923 +22.8453909     451.9584     72.34763      1.217     3.34     3.980842     20.41666     67.65247         8     0.909     0.619  82.27   0
       132    388.2902    703.2479 300.1116073 +22.7004131     253.2057     72.34763      1.330     3.78     4.088814     20.41666     38.65687         5     0.977     0.420  44.28   0
       133    141.2837    702.6888 300.0349965 +22.6261417     625.5859     72.47658      1.425     2.97     3.745027     20.41666     71.54145        11     0.973     0.789 -58.37   0
       134    155.2546    701.2715 300.0397984 +22.6299281     754.2957     72.36607      1.662     4.08     3.773538     20.41666     70.38215        14     1.178     0.857  12.99   0
       135    212.4702    698.3510 300.0585294 +22.6462601     314.3942     72.36607      1.860     4.07      3.83839     20.41666     47.97792         6     1.048     0.672 -46.78   0
       136    501.6880    696.9863 300.1489253 +22.7326280     373.5355     72.31075      1.202     4.74     4.184144     20.41666     55.05427         8     0.947     0.672 -77.43   0
       137    181.0620    697.9847 300.0488867 +22.6367303     455.8656     72.31075      1.284     3.12     3.817413     20.41666      76.8827        10     0.924     0.714   5.01   0
       138    924.6465    697.5683 300.2804899 +22.8595826     481.7128     72.40292      1.365     3.37     4.104008     20.41666     63.78072         5     0.741     0.444  21.77   0
       139    402.5153    696.1188 300.1183498 +22.7026350     1737.305     72.49498      1.302     2.35     4.173702     20.41666     238.4695        20     1.068     0.900 -88.30   0
       140    978.1792    693.3502 300.2985543 +22.8744104     689.9319     72.36607      1.238     2.68     4.217413     20.41666     95.76302        11     0.924     0.752 -21.39   0
       141     56.4693    691.2451 300.0123673 +22.5974057     19935.18     72.34763      1.591     2.91     3.815272     20.41666     2086.233        65     1.406     1.327  43.56   0
       142    487.4065    691.4220 300.1462896 +22.7267485     1075.517     72.34763      1.368     2.55     4.226529     20.41666     114.1298        17     1.038     0.942 -30.18   0
       143    523.1049    690.8637 300.1575812 +22.7372938     423.8649     72.45817      1.433     3.67     4.152671     20.41666     66.17059         7     0.909     0.747   1.27   0
       144    859.5399    686.7858 300.2636982 +22.8369770     282.1528     72.32919      1.238     2.48     3.965674     20.41666       41.883         5     0.700     0.475  72.81   0
       145    542.3979    683.2549 300.1660596 +22.7408958     277.0119     72.31075      1.170     3.41     4.116749     20.41666     29.96007         5     0.744     0.453  71.76   0
       146    570.6410    679.0084 300.1762319 +22.7481459     283.1006     72.38449      1.577     2.27      4.09641     20.41666     47.08622         5     0.829     0.479 -88.78   0
       147    905.5200    677.5347 300.2810393 +22.8480983     1118.101     72.47658      1.306     2.39     4.045002     20.41666     133.7402        15     0.926     0.873 -43.17   0
       148      2.6519    675.4128 300.0007990 +22.5767136     1433.978     63.30088      1.958     5.67      3.89851     20.41666     82.98637        27     1.750     1.070 -85.28  24
       149    854.0085    675.7911 300.2655482 +22.8321623     189.7015     72.21845      1.177     3.33     3.965245     20.41666     30.80531         5     0.798     0.495  55.59   0
       150    772.2799    675.4615 300.2401852 +22.8075745     424.9419     72.45817      1.047     2.12     3.964165     20.41666     76.75316         7     0.799     0.536  59.32   0
       151    450.7587    672.0831 300.1411719 +22.7102092     502.7239     72.32919      1.001     1.74     4.290538     20.41666     90.77037         7     0.652     0.623 -67.94   0
       152    243.1733    671.3049 300.0768643 +22.6477169     369.0502     72.31075      1.323     2.16     3.850847     20.41666       53.353         5     0.702     0.442  13.51   0
       153    845.7705    670.2202 300.2647913 +22.8280939     794.2492     72.36607      1.257     2.54      3.96375     20.41666      106.825        10     0.876     0.710 -24.22   2
       154    841.7039    669.6537 300.2637080 +22.8267126     488.3265     72.43976      1.531     3.13     3.963874     20.41666     56.22324         8     0.865     0.728  16.08   2
       155    590.2405    668.9170 300.1856139 +22.7511263     219.0517     72.32919      1.209     3.80     4.109276     20.41666     42.57988         6     0.886     0.509 -54.36   0
       156    407.7757    664.2336 300.1303503 +22.6950659     734.1824     72.38449      1.374     2.94     4.226307     20.41666     86.42863        13     1.001     0.825 -58.52   0
       157    555.5997    662.9633 300.1767648 +22.7390314     545.4818     72.36607      1.380     1.84     4.133554     20.41666     71.80613         7     0.663     0.627  77.79   0
       158    602.7921    661.3752 300.1919731 +22.7527250     433.0067     72.36607      1.249     2.70     4.107281     20.41666     66.23571         9     0.839     0.725  86.35   0
       159    573.2986    661.1201 300.1828737 +22.7438091     617.3285     72.49498      1.262     2.12     4.126959     20.41666     87.57758         9     0.811     0.643 -16.03   0
       160    452.2961    660.2623 300.1454924 +22.7072789     927.4742     72.45817      1.528     5.07     4.317689     20.41666     109.2936        17     1.531     0.913   7.26   0
       161    638.8068    659.5759 300.2037723 +22.7630056     211.8882     72.34763      1.129     3.49      4.02148     20.41666     32.41419         5     0.757     0.465  16.28   0
       162    885.5550    655.5475 300.2819622 +22.8358017     3303.924      72.3845      1.276     2.31     3.983841     20.41666     410.8111        22     1.002     0.978 -35.93   0
       163    417.2939    655.6266 300.1361088 +22.6954514     1759.238      72.2923      1.261     2.26     4.288345     20.41666     231.7982        18     1.003     0.902 -19.48   0
       164    983.5465    653.6431 300.3131358 +22.8646131     573.9188     72.38449      1.286     3.23     4.221504     20.41666     78.51307        12     0.993     0.806 -44.89   0
       165    782.3279    652.6530 300.2507299 +22.8040372     344.2851     72.36607      1.268     3.00     3.970534     20.41666     39.70801         6     0.822     0.519  45.35   0
       166    392.6528    650.9794 300.1299537 +22.6867277     234.0543     72.36607      1.213     3.84     4.122911     20.41666     41.62616         6     0.902     0.539  -0.79   0
       167    446.3546    646.2593 300.1481948 +22.7014793     324.3682     72.40292      1.383     2.50     4.338843     20.41666     43.95211         5     0.694     0.467  78.16   0
       168    924.9459    645.2665 300.2975847 +22.8446512     341.0635     72.40292      1.321     4.31     4.015468     20.41666     45.02252         9     1.001     0.688 -30.40   0
       169    280.7498    642.4634 300.0979202 +22.6507186     9114.321     72.42134      1.344     2.31     3.857053     20.41666     1208.861        42     1.175     1.116  15.45   0
       170    403.1522    639.4499 300.1369669 +22.6865690     9043.642     72.40292      1.279     2.24     4.191842     20.41666     1159.407        41     1.150     1.077 -33.03   0
       171    168.4140    636.8412 300.0648285 +22.6154031     296.5492     72.38449      1.445     3.47     4.030545     20.41666     34.28149         5     0.762     0.456 -72.30   0
       172   1007.8931    634.4017 300.3269834 +22.8663789     871.2374     72.27384      1.390     2.84      4.31114     20.41666     111.2858        15     1.041     0.856 -69.09   0
       173    814.7950    633.3742 300.2671134 +22.8082312     1734.537     72.32919      1.196     2.16     3.959368     20.41666     248.6858        17     0.952     0.850 -69.21   0
       174    899.5044    630.6382 300.2944070 +22.8328273     12208.54     72.34763      1.308     2.24     3.965181     20.41666     1599.377        46     1.190     1.107 -31.49   0
       175    463.7000    629.0477 300.1591856 +22.7017424     11535.94     72.38449      1.271     2.10     4.421715     20.41666     1814.939        44     1.114     1.091  89.31   0
       176    191.2093    624.6158 300.0758857 +22.6187369     1227.212      72.2923      1.374     2.95     4.013472     20.41666     145.0627        15     1.018     0.896 -87.36   0
       177    633.3478    624.7226 300.2134000 +22.7513649     470.5231     72.38449      1.115     2.45     4.070728     20.41666     77.56309        10     0.880     0.682  47.60   0
       178    349.0327    623.8419 300.1252053 +22.6658595     303.6777     72.42134      1.085     3.05     3.847187     20.41666     53.44245         5     0.630     0.595  83.19   0
       179    438.1548    622.0430 300.1535135 +22.6920721       324.85     72.42134      1.206     3.52     4.357417     20.41666     57.81413         8     1.043     0.558  19.24   0
       180    497.8273    620.4060 300.1726141 +22.7094960      136.853     72.36607      1.084     3.51     4.440959     20.41666     29.60802         5     0.780     0.457 -16.59   0
       181    395.4176    617.2154 300.1417865 +22.6778703     4489.894     72.34763      1.282     2.27     4.136697     20.41666     545.5972        28     1.054     1.024  10.88   0
       182    738.2687    617.1683 300.2485349 +22.7806444     726.5218     72.34763      1.135     2.44     4.015201     20.41666      126.485         9     0.907     0.578  56.61   0
       183    373.7049    615.7665 300.1355033 +22.6709427     1416.996     72.34763      1.371     2.46     3.991942     20.41666     171.5797        18     1.038     0.967 -84.11   0
       184    127.7637    614.8661 300.0593378 +22.5969044     858.2654     72.36607      1.587     2.99     3.966756     20.41666     95.69309        14     0.993     0.892  17.92   0
       185    815.2253    612.4742 300.2740399 +22.8023584     1543.539     72.38449      1.295     2.48     3.956337     20.41666     203.5562        18     1.069     0.855 -55.12   0
       186    335.5565    611.1989 300.1251226 +22.6581906     430.6489     72.36607      1.252     2.74     3.847187     20.41666     62.61044         9     0.856     0.724 -56.94   0
       187    915.8929    611.4895 300.3057398 +22.8322372     236.6582     72.53177      1.368     3.82     3.938901     20.41666     34.29564         6     0.840     0.499   1.87   0
       188    512.0307    604.7386 300.1821258 +22.7092585     198507.6     72.38449      1.292     2.09     4.427752     20.41666     32372.11       206     1.430     1.396 -15.19   0
       189    695.7530    609.4890 300.2377863 +22.7656972     752.0376     72.34763      1.244     2.42     4.044517     20.41666     124.0486        11     0.839     0.822 -21.23   0
       190    198.0719    604.7728 300.0844665 +22.6151052     3480.398     72.34763      1.400     2.37     4.038495     20.41666      440.965        32     1.219     1.122  73.43   0
       191    763.9197    600.7012 300.2618782 +22.7836034     484.5184     72.49498      1.297     2.43     4.002561     20.41666     91.12503        10     0.853     0.759  27.83   0
       192    543.7473    591.5183 300.1962937 +22.7149734     229.3146     72.40292      1.065     2.64     4.320098     20.41666     42.11256         5     0.708     0.478  16.24   0
       193    402.6165    585.3298 300.1543868 +22.6708806     2775.931     72.38449      1.356     2.41     4.255075     20.41666     404.5678        27     1.335     0.921 -85.63   0
       194    246.9134    587.3321 300.1053153 +22.6247552     449.1924     72.47658      1.365     2.87     3.995363     20.41666     64.26992         9     0.865     0.726 -87.59   0
       195    852.5305    584.9200 300.2946210 +22.8056227     337.6036     72.47658      1.912     3.77     3.913367     20.41666     39.06387         6     1.225     0.333 -71.64   0
       196    558.8444    582.5217 300.2039166 +22.7169171     281.2541     72.36607      1.314     3.42     4.307238     20.41666     38.39466         5     0.958     0.353 -84.59   0
       197    814.1087    581.1527 300.2838700 +22.7930288     441.2545     72.36607      1.047     2.54     3.921236     20.41666     73.00835         7     0.846     0.510  45.98   0
       198    831.8658    576.4125 300.2909444 +22.7969879     214.6852     72.31075      1.016     3.42     3.911185     20.41666     41.59397         5     0.758     0.447 -19.73   0
       199    719.5364    573.3739 300.2569302 +22.7624558     430.7365     72.34763      1.377     2.30     4.102146     20.41666     75.77618         6     0.659     0.640  38.92   0
       200    799.6290    571.0505 300.2826401 +22.7857890     1761.663     72.38449      1.248     2.12     3.913308     20.41666     251.2625        19     0.946     0.914  69.30   0
       201    685.9636    571.4729 300.2470900 +22.7518485     335.1049     72.31075      1.500     4.09     4.128998     20.41666     44.21241         7     0.982     0.653  48.88   0
       202    670.7674    568.8302 300.2432156 +22.7465354     2476.956     72.38449      1.205     1.95     4.146524     20.41666     434.8042        20     0.934     0.898 -32.88   0
       203     30.2953    569.3053 300.0438625 +22.5545931     349.1453     72.53177      1.339     3.65     3.835785     20.41666     37.95089         5     0.899     0.426  45.18   0
       204    915.2393    566.2640 300.3202320 +22.8190504     527.1927     72.34763      1.412     2.55     3.921502     20.41666     66.31284         8     0.839     0.634  -7.74   0
       205    575.7024    565.6513 300.2146461 +22.7171282     360.5252     72.43976      0.990     2.16     4.329926     20.41666     65.38528         6     0.683     0.549  42.02   0
       206    880.0961    565.3382 300.3095765 +22.8082567     390.0872     72.45817      1.318     4.18      3.90505     20.41666     47.14986         6     0.848     0.621  39.19   0
       207    457.9432    564.8110 300.1782671 +22.6815828     658.8911     72.32919      1.238     2.70     4.475391     20.41666     116.7814        12     0.917     0.827 -69.95   0
       208    928.0724    562.6926 300.3253937 +22.8218687     1182.053     72.49498      1.177     2.17     3.926706     20.41666     201.0984        13     0.914     0.758 -36.93   0
       209    799.8145    561.0435 300.2859493 +22.7829706     2245.888     72.38449      1.556     4.20     3.899428     20.41666     317.2679        28     1.669     0.892  75.20   0
       210    913.8255    561.7995 300.3212418 +22.8173444     862.3959     72.31075      1.460     2.64     3.919792     20.41666     96.66515         9     0.830     0.695 -74.13   0
       211    553.1117    559.4414 300.2096309 +22.7085737     636.5922     72.36607      1.502     2.20     4.365827     20.41666     79.48811         8     0.758     0.642  83.62   0
       212    339.3788    559.3797 300.1431480 +22.6444705     378.7745     72.36607      1.209     3.14     4.188312     20.41666     53.88344         6     0.903     0.417  71.95   0
       213    838.0144    556.3060 300.2993938 +22.7930551       4162.3      72.2923      1.259     2.08     3.891279     20.41666      624.964        30     1.082     1.016  68.94   0
       214    391.7595    558.0012 300.1598884 +22.6597833      286.255     72.38449      1.240     5.31     4.310811     20.41666     54.55451         9     1.224     0.650  41.98   0
       215    479.2798    555.8175 300.1878285 +22.6853991     146.1416     72.36607      1.125     3.08     4.546117     20.41666     48.19482         6     0.757     0.560 -35.03   0
       216    575.6320    553.2393 300.2186568 +22.7135442       273.73     72.40292      1.266     3.39     4.369589     20.41666     34.83903         5     0.775     0.430 -70.23   0
       217    635.2207    551.4835 300.2377811 +22.7309012     192.8905     72.31075      1.522     4.24     4.291119     20.41666     31.81777         5     1.106     0.463  59.04   0
       218    498.3059    552.5332 300.1948166 +22.6901607     374.2927     72.51337      1.144     2.88     4.506894     20.41666     48.69122         5     0.704     0.482 -14.57   0
       219    929.8608    546.6962 300.3311487 +22.8178089     739.9456     72.45817      1.318     2.41     3.923765     20.41666     105.5288        13     0.906     0.850 -10.44   0
       220     69.9749    546.7366 300.0635190 +22.5600288     967.4675     72.34763      1.468     2.94      3.99404     20.41666     110.8642        16     1.059     0.971  29.12   0
       221    699.8143    544.2120 300.2602613 +22.7481719     112.2358      72.2923      1.187     3.86     4.174577     20.41666     24.18871         5     0.946     0.451 -45.65   0
       222    730.9018    540.3003 300.2712164 +22.7563645     341.2753     72.60529      1.131     2.42     4.159839     20.41666     60.03028         6     0.718     0.556 -38.73   0
       223     62.3439    536.8908 300.0643468 +22.5549158     447.6935     72.42134      1.489     3.12     4.057158     20.41666     50.60484         8     0.940     0.605 -80.17   0
       224    926.2920    535.6035 300.3336398 +22.8135531     287.4547     72.25539      1.015     3.80      4.01163     20.41666     43.17018         7     0.859     0.651  72.53   0
       225    670.4449    530.8633 300.2554500 +22.7355376     480.5918     72.38449      1.206     2.89       4.2332     20.41666     66.89303        10     0.972     0.637 -23.87   0
       226    278.9471    529.0540 300.1342074 +22.6176459     360.4477     72.40292      1.521     4.37     4.120476     20.41666      35.7323         6     1.188     0.458  34.56   0
       227    611.2515    527.0253 300.2382630 +22.7166952     903.6854     72.38449      1.370     2.40     4.412745     20.41666     129.7933        14     0.980     0.887 -59.01   0
       228    559.0974    528.5070 300.2215439 +22.7014881     444.4628     72.55016      1.337     2.73     4.420094     20.41666     44.87746         6     0.761     0.496   6.31   0
       229    890.6475    526.7828 300.3253922 +22.8003421     93.78976     72.40292      0.991     3.88     4.044505     20.41666      41.8843         5     0.889     0.486  41.99   0
       230   1019.0077    524.4833 300.3661674 +22.8381263     1018.133      72.2923      1.335     2.47      4.11666     20.41666     119.8916        17     1.030     0.902  15.40  16
       231    672.2421    519.0087 300.2598607 +22.7326722     792.6608     72.38449      1.178     2.10     4.253652     20.41666     142.1865        12     0.835     0.767 -37.17   0
       232    926.0285    519.2233 300.3388790 +22.8087682     538.2693     72.36607      1.198     2.68     4.182407     20.41666     81.42792         9     0.860     0.666  -5.23   0
       233    829.3681    515.1517 300.3100689 +22.7786439     875.2134     72.40292      1.194     2.19     4.008267     20.41666     134.3233        12     0.843     0.770 -89.35   0
       234    788.0024    513.1166 300.2978385 +22.7656665     387.2478     72.27384      1.380     3.53     4.011993     20.41666     43.47997         5     0.770     0.538 -31.66   0
       235    814.0131    511.6130 300.3064328 +22.7730273     639.4076      72.2923      1.233     3.66     3.989387     20.41666     91.93353        11     0.985     0.906 -11.99   0
       236    794.3983    511.7085 300.3002890 +22.7671783     307.5181     72.27384      1.165     3.21     3.990254     20.41666     43.45564         5     0.740     0.439 -68.60   0
       237    558.0690    509.6517 300.2273487 +22.6957670     3213.389     72.34763      1.223     1.95     4.451274     20.41666     533.7012        26     1.006     0.957  79.46   0
       238    918.3819    508.4292 300.3400013 +22.8033767     470.2383     72.34763      1.131     2.48     4.270633     20.41666     72.96473         8     0.857     0.588  19.46   0
       239     34.1338    500.9671 300.0672526 +22.5361502     397.6125     72.36607      1.537     3.82      4.41335     20.41666     43.56046         7     0.975     0.614  88.90   0
       240    563.2602    497.2287 300.2329999 +22.6937565     457.8709     72.38449      1.424     3.58     4.471263     20.41666     44.87936         7     0.859     0.587 -34.86   0
       241    397.7895    496.4063 300.1817725 +22.6439158     371.5599     72.23692      1.152     4.08     4.364511     20.41666     53.95958         9     0.985     0.763 -88.07   0
       242    329.7743    496.7212 300.1605147 +22.6236119     264.4554     72.36607      1.060     3.18      4.34234     20.41666     58.44302         5     1.032     0.319 -53.98   0
       243    969.3517    488.5160 300.3623636 +22.8129204     1227.164     72.34763      1.155     2.12     4.454866     20.41666     193.7729        15     0.903     0.835 -30.49   0
       244    841.1274    488.3813 300.3224298 +22.7744765     562.9433     72.36607      1.301     2.23     4.166601     20.41666     82.66217         8     0.746     0.658  77.36   0
       245    927.6584    487.2467 300.3497744 +22.8000691     891.5388     72.42134      1.267     2.56     4.511962     20.41666     122.5099        14     0.919     0.887  50.80   0
       246    577.3157    485.3725 300.2412266 +22.6945654     409.4699     72.36607      1.081     2.42     4.486081     20.41666      54.1464         5     0.682     0.473  11.75   0
       247    668.5571    483.5221 300.2702397 +22.7213778     1052.984     72.34763      1.100     2.09     4.337488     20.41666     163.2656        12     0.803     0.764  39.67   0
       248    464.0985    484.2649 300.2063468 +22.6603109     422.5282     72.45817      1.074     1.96     4.466975     20.41666     82.36019         7     0.673     0.638  -1.81   0
       249    172.5935    481.9869 300.1164344 +22.5722444      618.169     72.23692      1.374     2.80     4.527116     20.41666     89.98558        12     1.013     0.742  62.65   0
       250     12.2587    480.2236 300.0671954 +22.5236384     191.7237     72.36607      1.132     3.61     4.674519     20.41666      42.5327         5     0.911     0.413  44.21   0
       251    234.9159    477.6045 300.1372289 +22.5896798     3712.422      72.2923      1.287     2.28     4.527085     20.41666      551.946        25     1.095     0.976  60.17   0
       252    968.0170    475.8098 300.3660744 +22.8088695     4109.518     72.31075      1.289     2.20     4.530729     20.41666     664.1287        29     1.083     1.006  47.64   0
       253    784.5994    473.4219 300.3096714 +22.7532454     254.1641      72.2923      1.275     4.07     4.136176     20.41666     35.26378         6     1.048     0.452  55.11   0
       254    182.1277    472.3896 300.1225143 +22.5723511     7509.012     72.36607      1.369     2.44     4.537386     20.41666     861.0482        38     1.174     1.140  76.00   0
       255    948.0001    466.9786 300.3627004 +22.8003373     1681.291      72.2923      1.263     2.07     4.554772     20.41666     289.0013        19     0.991     0.908 -76.90   0
       256    322.9294    466.6171 300.1681630 +22.6129210     4796.995     72.38449      1.306     2.24     4.395069     20.41666     724.8078        29     1.081     0.990  55.67   0
       257    567.1591    463.1940 300.2452676 +22.6851536     18231.38     72.40292      1.241     2.02     4.495647     20.41666     2909.581        55     1.160     1.079  87.64   0
       258    584.9459    462.9737 300.2508767 +22.6904211     821.9178     72.40292      1.783     5.97     4.489478     20.41666     83.55776        16     1.601     0.694 -41.56   0
       259    194.2025    461.3856 300.1298407 +22.5728159     147.8858     72.19998      1.205     2.65     4.542202     20.41666     39.92791         5     0.695     0.475  12.05   0
       260    764.0782    453.2754 300.3098201 +22.7413107     375.8366     72.47658      1.132     2.21     4.253278     20.41666     60.82037         7     0.695     0.639  11.50   0
       261    187.1443    450.9129 300.1310477 +22.5676946      326.789     72.43976      1.425     3.96     4.539393     20.41666     38.45297         6     0.764     0.586 -57.63   0
       262    900.5744    445.5827 300.3548615 +22.7799862     811.6813      72.3845      1.241     2.31     4.521968     20.41666     126.5142        14     1.103     0.783  65.75   0
       263    437.2119    445.5939 300.2105394 +22.6411507     311.6158     72.23692      1.065     3.72     4.411758     20.41666     56.57343         5     0.864     0.459 -48.41   0
       264    121.8760    443.5344 300.1131609 +22.5460013     1937.848     72.45817      1.342     2.43      4.57099     20.41666     261.6726        21     1.043     1.004  48.02   0
       265    610.8469    443.9471 300.2651202 +22.6927199     346.2491     72.40292      1.347     3.51     4.476714     20.41666     51.26373         7     0.938     0.559 -77.03   0
       266    507.7662    432.6964 300.2366835 +22.6585967     6609.093     72.36607      1.236     2.02     4.503188     20.41666     1074.732        35     1.096     1.006  81.03   0
       267    921.3253    432.9992 300.3654179 +22.7825849     1223.032     72.25539      1.255     1.98     4.569243     20.41666     205.9159        18     1.022     0.900 -47.98   0
       268    222.6302    432.3590 300.1481023 +22.5730140     659.7442     72.40292      1.261     2.37     4.553842     20.41666     91.22285        10     0.816     0.757 -57.22   0
       269    133.5866    427.9636 300.1218554 +22.5450473     207.2321     72.36607      1.598     4.17     4.565954     20.41666     27.77218         5     0.785     0.631   5.63   0
       270     80.4158    425.3160 300.1061951 +22.5283389     614.9934     72.32919      1.439     3.58     4.628592     20.41666     71.86725        14     1.064     0.937 -39.72   0
       271    767.6676    424.4495 300.3202993 +22.7341056     272.0146     72.36607      1.292     2.81     4.317241     20.41666     54.19817         5     0.734     0.417 -26.71   0
       272    621.4175    422.6300 300.2753339 +22.6897659     571.8363     72.34763      1.254     2.27     4.454158     20.41666     92.19379        11     0.834     0.788  89.57   0
       273    711.8033    421.5378 300.3038399 +22.7165336     1127.158     72.36607      1.243     2.08     4.333703     20.41666     177.7104        14     0.978     0.794  77.22   0
       274    414.4490    418.9957 300.2120939 +22.6266921     6143.999     72.34763      1.248     2.13     4.384302     20.41666      868.895        34     1.094     1.023  51.86   0
       275    853.3178    416.3545 300.3496210 +22.7574348      135.274     72.32919      1.044     3.32     4.532917     20.41666     37.89449         5     0.735     0.459  13.42   0
       276    120.3655    415.8322 300.1216861 +22.5376017      205.844     72.40292      1.761     4.82     4.592604     20.41666     33.98132         6     1.343     0.490  20.80   0
       277    903.6553    413.3470 300.3662900 +22.7716460     657.1329     72.40292      1.264     2.30     4.579915     20.41666     83.37994        10     0.822     0.724  48.28   0
       278    806.2806    413.1558 300.3359992 +22.7424274     1372.217     72.34763      1.234     1.94     4.359414     20.41666     225.6542        16     0.992     0.806  -7.27   0
       279    398.9762    407.3578 300.2110589 +22.6187132     528.2132     72.42134      1.433     2.84     4.405638     20.41666     88.06776         8     1.035     0.520  85.35   0
       280    481.2113    405.1333 300.2373686 +22.6427243     1637.373     72.34763      0.509     2.47     4.457571     20.41666     1118.232         8     0.632     0.290  38.20   0
       281    463.6815    403.0407 300.2325929 +22.6368694     480.8651     72.32919      1.490     1.98     4.424044     20.41666     191.5157         8     1.317     0.566  -3.35   0
       282    779.0522    400.7177 300.3315526 +22.7306983      640.603     72.40292      1.359     2.40     4.350901     20.41666     105.6536         9     0.926     0.593  50.46   0
       283     60.4220    400.1872 300.1081424 +22.5151336     270.8771     72.34763      1.432     3.43     4.636159     20.41666     29.91173         5     0.790     0.431  68.58   0
       284    301.9406    398.2072 300.1838489 +22.5869958     2463.181     72.32919      1.275     2.17     4.352696     20.41666     355.8987        22     1.038     0.945  88.54   0
       285     20.3160    395.5521 300.0971900 +22.5017733     1085.644     72.34763      1.533     2.71     4.661702     20.41666       127.95        18     1.152     0.924  39.70   0
       286    649.8615    392.8274 300.2938684 +22.6897294     294.1231     72.36607      1.379     2.92     4.364233     20.41666      61.4829         5     0.910     0.377  -2.00   0
       287    271.2858    387.6758 300.1777360 +22.5747823     29222.61     72.47658      1.312     2.27     4.345239     20.41666     3908.602        74     1.326     1.161  50.60   0
       288    805.9037    385.0413 300.3450101 +22.7342371     1345.298     72.38449      1.181     2.08     4.398531     20.41666      227.458        13     0.905     0.723  61.35   0
       289    721.1765    373.8763 300.3222346 +22.7056508     534.5759     72.38449      1.179     1.93     4.336427     20.41666     101.7202         8     0.724     0.640  52.42   0
       290    145.6951    374.0032 300.1431363 +22.5331984      404.288     72.27384      1.197     2.06     4.527843     20.41666      65.4304         7     0.686     0.637  39.67   0
       291    369.8683    372.9557 300.2131728 +22.6001125     482.3415     72.32919      1.323     2.21     4.462832     20.41666     83.33979         9     0.759     0.725  -6.88   0
       292    681.6517    367.1849 300.3120946 +22.6918883     1909.134     72.36607      1.235     2.32     4.336891     20.41666       264.54        19     1.068     0.843  77.92   0
       293    490.0860    361.9605 300.2541465 +22.6329885     349.8918     72.34763      1.112     2.59     4.298818     20.41666     51.20758         5     0.616     0.589   6.04   0
       294    896.7297    359.9716 300.3814604 +22.7542335     557.2101     72.36607      1.221     2.20      4.59734     20.41666     100.9329         9     0.840     0.639 -23.19   0
       295    750.1006    353.4726 300.3378698 +22.7084530     247.2406     72.53177      1.278     4.71     4.356221     20.41666     51.77329         8     1.230     0.514 -78.70   0
       296    343.4648    351.9889 300.2117663 +22.5861791      2100.85      72.2923      1.429     2.90     4.469172     20.41666     252.6519        22     1.267     0.861  62.87   0
       297    555.6536    350.8826 300.2781514 +22.6494558     337.2037     72.40292      1.276     3.09     4.296876     20.41666     46.70461         7     0.736     0.655  74.72   0
       298    782.7198    344.4230 300.3509714 +22.7156228      567.431     72.31075      1.140     2.68     4.404604     20.41666     104.4014         9     0.941     0.674  89.79   0
       299    664.8955    342.1651 300.3149975 +22.6796816     465.9577     72.36607      1.301     2.18     4.324902     20.41666     72.15804         8     0.801     0.599  54.43   0
       300    419.3369    331.2991 300.2420838 +22.6029815     1197.792     72.47658      1.213     2.35     4.259533     20.41666     161.7756        14     0.912     0.802  78.59   0
       301    227.1479    331.8222 300.1821440 +22.5455194     315.5143     72.36607      1.685     3.10     4.490413     20.41666     56.02045         5     0.924     0.381   2.13   0
       302    504.2173    329.0166 300.2692381 +22.6277636     332.2366     72.32919      1.117     3.11     4.257509     20.41666     41.67646         5     0.796     0.480  26.07   0
       303    664.2160    323.1151 300.3209692 +22.6740057     2149.254     72.32919      1.233     2.09     4.311457     20.41666     350.6881        19     0.990     0.861  65.53   0
       304    925.4533    317.3969 300.4042363 +22.7505973     3114.193     72.32919      1.235     2.21     4.628566     20.41666     410.9759        22     1.059     0.899  82.12   0
       305    986.7557    312.0421 300.4250918 +22.7674105     488.2876     72.45817      1.198     2.29      4.88757     20.41666     65.50074         7     0.704     0.634 -83.74   0
       306    372.4969    306.9462 300.2354159 +22.5819510      573.604     72.45817      1.263     2.81     4.628045     20.41666     89.55424        11     1.007     0.697 -87.86   0
       307    994.8960    305.2062 300.4298495 +22.7678821     1631.371     72.25539      1.267     2.22     4.950879     20.41666     232.9801        18     0.983     0.894  56.52   0
       308     78.1149    301.5051 300.1456688 +22.4921309     582.0157     72.55016      1.371     2.97     4.659277     20.41666     76.78231        11     0.952     0.803  42.82   0
       309     47.4025    301.3734 300.1361709 +22.4828824     1386.793     72.31075      1.695     3.24     4.655269     20.41666     135.9769        20     1.117     1.075 -46.11   0
       310    941.2137    297.7093 300.4155407 +22.7496566     461.6313     72.31075      1.216     2.61     4.706754     20.41666     73.74419        10     0.851     0.744  53.69   0
       311    785.1133    294.6870 300.3678604 +22.7020483     356.8715     72.49498      1.376     4.80     4.404616     20.41666     43.47056         7     0.972     0.671 -10.77   0
       312    131.3911    293.2537 300.1648994 +22.5057396     568.0872     72.36607      1.481     3.33     4.583533     20.41666     61.37631         8     0.861     0.687   4.54   0
       313    926.4864    290.4550 300.4133027 +22.7431623     323.3797     72.42134      1.041     2.92     4.639559     20.41666     52.69527         6     0.865     0.423  69.34   0
       314    807.1172    286.7585 300.3772908 +22.7063591     372.1246     72.32919      1.290     4.10     4.427334     20.41666     59.12158         6     1.069     0.450 -26.92   0
       315    735.7466    284.3373 300.3558370 +22.6842900     581.8862     72.42134      1.154     2.30     4.343812     20.41666     95.23277        11     0.820     0.786  62.06   0
       316    326.0544    284.1976 300.2283531 +22.5614999     443.1621     72.32919      1.102     2.60     4.663962     20.41666     67.05772         6     0.721     0.552 -39.29   0
       317    826.7185    277.3465 300.3864543 +22.7095236     414.6015     72.40292      1.260     3.10     4.429874     20.41666     69.15013         7     0.830     0.611  41.16   0
       318    833.8790    273.4922 300.3899369 +22.7105600     2028.379     72.49498      1.256     2.04     4.430858     20.41666     336.8486        21     1.027     0.939  58.17   0
       319    252.5061    271.0389 300.2097529 +22.5356761     2032.026     72.38449      1.295     2.41      4.54346     20.41666      263.752        17     0.982     0.879  64.58   0
       320    330.6129    266.1941 300.2356128 +22.5576977      1033.73     72.23692      1.484     2.39     4.760047     20.41666     143.3641        16     1.037     0.891   6.93   0
       321    732.6584    265.3424 300.3610389 +22.6779071     572.9243     72.43976      1.323     2.94     4.370913     20.41666     81.97636         9     0.916     0.700  79.71   0
       322    839.3959    262.0209 300.3953790 +22.7089148     314.4987     72.32919      1.108     2.45     4.432379     20.41666     59.26498         6     0.780     0.487  86.00   0
       323    147.3704    258.4339 300.1811633 +22.5005387      695.174      72.3845      1.356     2.84     4.694917     20.41666      87.7673        13     1.045     0.736 -43.97   0
       324    685.0150    254.9036 300.3495842 +22.6606388     1766.413     72.27384      1.290     2.43     4.370625     20.41666     287.5019        17     1.005     0.847  76.42   0
       325    750.0839    254.5178 300.3699806 +22.6800150     736.3563     72.49498      1.548     2.77     4.395883     20.41666      95.7291        11     0.988     0.726  39.53   0
       326    168.6979    251.6544 300.1899910 +22.5049874     533.8443     72.45817      1.311     3.38     4.697316     20.41666     71.02776        12     1.145     0.733  65.88   0
       327    956.3943    247.2594 300.4366467 +22.7396977     913.8828     72.32919      1.260     2.41      4.76523     20.41666     118.8117        15     0.939     0.882 -53.06   0
       328    458.5703    247.4196 300.2815118 +22.5906530     312.8953     72.36607      1.117     2.86     4.283899     20.41666     49.90298         7     0.827     0.635 -70.91   0
       329    688.9345    246.4182 300.3535584 +22.6593746     797.5421     72.34763      1.332     2.81     4.388728     20.41666     104.8957        13     1.023     0.792 -45.38   0
       330    609.6155    245.6839 300.3290933 +22.6354060     1334.624     72.32919      1.324     3.86     4.276706     20.41666     174.4973        15     1.086     0.730  66.84   0
       331    805.0549    237.1861 300.3927342 +22.6914947     1329.435     72.36607      1.247     2.10     4.431258     20.41666     217.1538        14     0.918     0.785  62.08   0
       332    535.7253    237.5055 300.3087420 +22.6109219     1048.278     72.51337      1.182     2.19     4.281694     20.41666     163.1674        13     0.855     0.821 -72.65   0
       333    817.0281    236.2867 300.3967576 +22.6948212     907.8391     72.36607      1.383     2.45      4.43261     20.41666     114.9867        13     0.891     0.842 -24.35   0
       334    863.1741    235.2492 300.4114780 +22.7083389     228.0546     72.38449      1.140     2.80     4.437592     20.41666     41.34686         6     0.758     0.532  48.08   0
       335    977.8737    227.0586 300.4499001 +22.7403189     1750.153     72.40292      1.361     2.27     4.752584     20.41666      247.867        20     1.073     0.934 -86.97   0
       336    933.8415    226.4882 300.4363533 +22.7269752     1245.192     72.36607      1.385     2.33     4.745471     20.41666     161.3058        15     0.963     0.851  75.10   0
       337    167.6626    219.8757 300.1999792 +22.4955562     586.9043     72.42134      1.257     2.84     4.852509     20.41666     95.88639        10     0.941     0.710  55.77   0
       338     29.6632    214.7520 300.1587652 +22.4527096     2179.528     72.38449      1.484     2.46     5.006524     20.41666     291.0656        28     1.230     1.099  -8.19   0
       339    852.9518    211.2997 300.4160618 +22.6983942     797.4402     72.40292      1.179     2.59      4.53337     20.41666     123.2027        10     0.912     0.687  87.32   0
       340    187.1412    207.9947 300.2098874 +22.4979853      5688.46     72.32919      1.368     2.46     4.866447     20.41666     716.1447        32     1.190     1.054  67.34   0
       341    168.3336    209.2458 300.2036360 +22.4927063      283.511     72.36607      1.585     3.96     4.876717     20.41666     37.03052         6     0.924     0.486 -45.71   0
       342    732.6780    198.4549 300.3827469 +22.6586916     170.8359     72.40292      1.117     3.84     4.648781     20.41666     35.77376         6     0.907     0.467 -89.10   0
       343    170.6898    198.6522 300.2078047 +22.4903720     630.8916     72.38449      1.429     3.77     4.895713     20.41666     63.93756        11     1.132     0.683 -65.10   0
       344    985.9474    195.1423 300.4627730 +22.7335582     18169.38     72.42134      1.324     2.31     4.857149     20.41666     2401.247        53     1.220     1.134  87.42   0
       345    831.2309    189.2684 300.4164385 +22.6855585     3688.215     72.34763      1.264     2.17      4.69106     20.41666     515.2696        26     1.118     0.937  72.03   0
       346    133.4138    185.1305 300.2006064 +22.4753162     513.3391     72.38449      1.811     3.80     4.965642     20.41666     51.22719         8     1.175     0.482  66.38   0
       347    380.6111    184.6293 300.2776262 +22.5492611     736.6134     72.36607      1.351     2.49     4.802638     20.41666     82.67228        11     0.852     0.767 -80.63   0
       348    494.4987    182.2098 300.3138482 +22.5826878     335.2306     72.25539      1.414     3.42     4.356674     20.41666     47.18443         5     0.761     0.445  68.30   0
       349    304.9075    176.4112 300.2567457 +22.5242158      805.559     72.31075      1.412     2.07     4.885472     20.41666     92.95341         7     0.695     0.624 -24.81   0
       350    934.8217    187.9604 300.4491585 +22.7161914      2808.96     72.40292      1.317     2.27     4.823423     20.41666     400.2762        24     1.038     0.971  67.38   0
       351     70.9827    173.5012 300.1849807 +22.4532615      666.784     72.27384      1.674     3.75     5.024843     20.41666     79.07891         8     1.024     0.648  79.25   0
       352    431.9959    171.8765 300.2977494 +22.5609946     1632.052     72.27384      1.320     2.01     4.694769     20.41666     273.9972        17     0.956     0.894 -66.97   0
       353    360.0082    172.2921 300.2752190 +22.5395447      527.205     72.27384      1.407     2.57     4.875288     20.41666     67.69483         8     0.865     0.614 -63.36   0
       354    493.6795    171.0807 300.3172031 +22.5792456     406.4657     72.49498      1.326     2.76     4.379406     20.41666     61.71816         7     0.836     0.567  53.63   0
       355    256.2364    167.4766 300.2445094 +22.5070640     215.2283     72.32919      1.143     4.03     4.862801     20.41666     40.38824         6     0.904     0.513 -40.44   0
       356    175.4178    167.2816 300.2194495 +22.4827844     418.0486     72.34763      1.217     3.26     4.953474     20.41666     59.67165         6     0.720     0.628 -53.02   0
       357    720.3962    161.1066 300.3910356 +22.6442802      337.799     72.27384      1.317     3.46     4.918695     20.41666     58.04665         5     0.731     0.472  76.80   0
       358    568.1969    157.6271 300.3447631 +22.5977015     223.2373     72.32919      1.220     2.62     4.571792     20.41666     40.34236         5     0.710     0.459 -16.29   0
       359    866.4429    155.9330 300.4382279 +22.6865160      398.331     72.34763      1.362     2.49     4.870206     20.41666     54.79879         6     0.759     0.492  83.33   0
       360    996.3211    152.5533 300.4798239 +22.7244154     3561.889     72.36607      1.315     2.20     4.976079     20.41666     513.1526        29     1.267     1.034 -25.71   0
       361    206.0155    151.8280 300.2339720 +22.4875194     5865.899     72.38449      1.374     2.50     4.916133     20.41666     780.0266        32     1.170     1.040  57.97   0
       362    712.7715    152.2286 300.3915397 +22.6394456     329.3003     72.32919      1.027     2.11     4.912446     20.41666     53.42387         6     0.667     0.570 -34.21   0
       363     56.7656    150.8878 300.1878982 +22.4425092     779.2371     72.34763      1.716     5.26     5.043195     20.41666     82.43771        13     1.381     0.778  47.34   0
       364    835.2369    149.0708 300.4307262 +22.6752020     273.8046     72.34763      1.142     4.23     4.894913     20.41666     52.31355         6     1.077     0.474 -60.62   0
       365    177.9592    145.5219 300.2272965 +22.4772997     406.8242     72.34763      1.503     2.99     4.987558     20.41666     49.62264         5     0.726     0.612 -82.57   0
       366    221.2979    143.1430 300.2415394 +22.4896064     185.5791     72.45817      1.142     3.83      4.91717     20.41666     55.10706         6     0.898     0.505  51.59   0
       367    452.0666    137.0822 300.3152798 +22.5570134     6138.013     72.47658      1.299     2.18     4.759798     20.41666     901.2808        37     1.181     1.018  67.95   0
       368    337.5450    136.9093 300.2797077 +22.5226526     640.8696     72.42134      1.305     2.61     4.910167     20.41666     87.84691        13     0.911     0.840  22.43   0
       369    509.0848    131.7187 300.3347644 +22.5725525     243.6301     72.49498      1.237     3.69     4.684952     20.41666     53.45203         8     1.092     0.569  86.25   0
       370    704.2534    127.1887 300.3970072 +22.6296983     936.3578     72.36607      1.801     3.44     4.926441     20.41666     113.4692        20     1.735     0.971 -74.79   0
       371    646.0101    128.0641 300.3785815 +22.6125101     144.6354     72.31075      0.989     2.69     4.900641     20.41666     40.70932         5     0.654     0.547 -89.71   0
       372    797.0825    125.3072 300.4265416 +22.6569489     455.7495     72.51337      1.348     2.63     4.937273     20.41666     75.06303         8     0.914     0.587   4.55   0
       373    144.9283    120.7294 300.2250708 +22.4602818     442.1032     72.43976      1.467     3.39     5.050674     20.41666     51.89339         9     0.826     0.800 -80.52   0
       374    580.4651    117.0996 300.3617266 +22.5897310     6078.208     72.45817      1.288     2.21     4.890916     20.41666     797.5937        33     1.149     0.989  78.16   0
       375    503.4583    119.5549 300.3369578 +22.5673726       416.88     72.40292      1.102     2.58     4.804821     20.41666     59.66756         7     0.782     0.635 -11.08   0
       376    355.3812    116.1807 300.2919775 +22.5220437     1431.097     72.36607      1.267     2.57     4.931667     20.41666     176.1362        16     0.954     0.896  89.30   0
       377    621.7151    114.5690 300.3753918 +22.6013568     884.7964     72.38449      1.135     2.17     4.948059     20.41666     133.7082        14     0.917     0.781 -56.17   0
       378    691.4483    111.5330 300.3980953 +22.6213646     373.1531     72.36607      1.514     3.35     4.935764     20.41666     43.00513         6     0.897     0.427 -71.18   0
       379    637.3336    110.5638 300.3815545 +22.6048827     605.5165     72.36607      1.134     2.32     4.949303     20.41666     77.14195         9     0.833     0.633  69.20   0
       380    907.4628    108.1355 300.4665185 +22.6850502     522.3265     72.40292      1.511     2.86     4.885155     20.41666     81.70633         8     0.910     0.632 -55.63   0
       381    104.2004    108.6697 300.2163256 +22.4446118     677.1732      72.2923      1.359     2.61     5.046041     20.41666     73.63799        11     0.932     0.710  52.41   0
       382    676.2420    105.7599 300.3952308 +22.6151523     449.0034     72.45817      1.161     2.54     4.937453     20.41666     70.61205         9     0.810     0.728  10.74   0
       383    639.8267    100.8176 300.3854915 +22.6028283     1145.822     72.38449      1.999     4.59     4.973164     20.41666     94.01094        18     1.558     0.784  51.99   0
       384    624.6174    101.9646 300.3803829 +22.5986037     2548.511     72.36607      1.255     2.23     4.982463     20.41666      397.781        20     1.046     0.876  74.37   0
       385    265.3879    103.0322 300.2682540 +22.4913024     284.5143     72.34763      1.189     2.77     4.989129     20.41666     54.73161         7     0.815     0.597 -59.58   0
       386    711.1223     93.4736 300.4100804 +22.6220641     1460.996     72.47658      1.209     2.38     4.956893     20.41666     234.2898        13     0.939     0.749 -85.21   0
       387    789.1833     88.0870 300.4361498 +22.6438840     244.0185     72.31075      1.166     4.09     4.950386     20.41666     48.93302         7     1.014     0.633 -72.96   0
       388    454.7853     86.2055 300.3326238 +22.5432124     1035.631     72.23692      1.294     2.29     5.017674     20.41666     151.3886        18     1.114     0.836  78.07   0
       389    649.0751     86.6991 300.3929499 +22.6015398     762.2806     72.49498      1.298     2.72     4.936159     20.41666      102.313        12     0.938     0.797  36.60   0
       390     27.5526     85.8745 300.1999051 +22.4150919     460.2514     72.36607      1.435     4.41     4.993437     20.41666     54.46985        10     1.046     0.786  46.66   0
       391    358.5900     84.1502 300.3033617 +22.5138054     781.5491     72.38449      1.213     2.39     4.976552     20.41666     116.1462        11     0.869     0.766 -49.44   0
       392    740.7795     82.7958 300.4227825 +22.6278733     449.6654     72.32919      1.227     2.30     4.956094     20.41666     61.24493         6     0.693     0.571  42.01   0
       393   1001.5555     80.9046 300.5046927 +22.7053748     2140.169     72.38449      1.332     2.29      4.78824     20.41666     296.8618        19     0.982     0.940 -65.30   0
       394    129.9245     74.3648 300.2354415 +22.4424744     3802.961     72.32919      1.445     2.57     5.061984     20.41666     444.8185        29     1.244     1.043  54.21   0
       395    698.0482     74.6268 300.4121185 +22.6127324     509.5011     72.38449      1.164     2.39     4.903584     20.41666     96.58814        10     0.918     0.652  70.41   0
       396    455.5973     71.4756 300.3376524 +22.5392239     299.4487     72.27384      1.185     4.02     5.034576     20.41666     41.94902         6     1.009     0.458  54.74   0
       397    552.6292     70.8715 300.3680499 +22.5681111     279.3944     72.36607      0.992     4.39     5.009934     20.41666     45.27499         7     1.019     0.539 -63.95   0
       398    245.8971     66.5704 300.2740159 +22.4749915     1176.405     72.31075      1.326     2.31     5.272974     20.41666     166.9359        14     0.972     0.783  80.12   0
       399    691.1058     66.7082 300.4125234 +22.6083778     898.2103     72.53177      1.295     2.32     4.872176     20.41666     138.8043        13     0.890     0.858   0.78   0
       400    657.1675     65.9627 300.4021938 +22.5980027     332.7015     72.38449      1.361     2.06     4.849412     20.41666     63.92288         7     0.693     0.650  74.12   0
       401    729.1785     61.6508 300.4260240 +22.6183218     890.9277     72.36607      1.757     3.50     4.920384     20.41666     85.30019        13     1.089     0.836  76.56   0
       402    652.5146     61.6065 300.4021570 +22.5953576     622.2972      72.2923      1.065     2.22     4.835552     20.41666      74.6301         5     0.647     0.484  73.35   0
       403    749.0977     57.7621 300.4334911 +22.6231666     2136.344     72.36607      1.339     2.38     4.927903     20.41666     350.4416        23     1.148     0.924  82.97   0
       404    454.5167     56.3092 300.3422332 +22.5345429     455.7171     72.49498      1.193     2.38     5.049772     20.41666     69.07706         7     0.854     0.505  30.42   0
       405    132.3683     53.4119 300.2429937 +22.4371913       1056.5     72.36607      1.562     3.05     5.061002     20.41666     109.5801        16     1.130     0.856  44.02   0
       406    924.0924     51.0934 300.4901998 +22.6736224     761.9953     72.53177      1.497     3.17     4.883171     20.41666     94.01116        16     1.087     0.980  62.87   0
       407    697.4850     50.2377 300.4198505 +22.6055531     801.3481     72.34763      1.329     2.51     4.835162     20.41666     121.8589        15     1.048     0.826 -76.40   0
       408    317.1321     44.3537 300.3033692 +22.4899543     43.46482     72.34763      1.010     4.73      5.05876     20.41666     39.16507         5     0.972     0.652  75.67   0
       409    455.2094     42.8403 300.3468153 +22.5308806     242.7876     72.36607      1.338     2.47     5.063681     20.41666     46.41392         6     0.744     0.530 -33.87   0
       410    282.2429     40.1204 300.2938917 +22.4782856     413.6218     72.34763      1.261     3.77     5.137506     20.41666     47.01902        10     0.935     0.821 -43.45   0
       411    685.5128     32.8701 300.4217515 +22.5969764     232.8028     72.51337      1.148     4.62     4.758612     20.41666     45.66878         8     1.136     0.731 -70.73   0
       412    549.9014     35.1990 300.3787657 +22.5570430     799.0772     72.25539      1.291     2.67     5.024535     20.41666     111.2939        13     0.950     0.825 -64.79   0
       413    159.4105     32.7477 300.2580963 +22.4393625     408.8264     72.36607      1.421     4.20      5.08344     20.41666     46.93898        12     1.162     0.813  41.90   0
       414    713.1754     30.2286 300.4312253 +22.6044980     835.6813     72.36607      1.358     2.80     4.828032     20.41666     98.84265        14     1.035     0.809  86.59   0
       415    343.9709     30.6527 300.3161581 +22.4940592     286.8297     72.38449      1.388     4.27     5.080915     20.41666     42.35902         8     1.191     0.676 -39.26   0
       416    521.7270     28.3302 300.3722217 +22.5466322     1975.865     72.43976      1.300     2.27     5.062084     20.41666     254.7437        19     1.038     0.866  69.41   0
       417    244.5258     25.8227 300.2867990 +22.4628787       647.08     72.40292      1.528     3.56     5.600949     20.41666     72.23128        16     1.183     0.896  83.69   0
       418    418.3806     25.3681 300.3410193 +22.5148299     224.7106     72.36607      1.345     4.41     5.089582     20.41666     47.94996         5     1.163     0.477  84.99   0
       419    478.9894     22.1675 300.3609172 +22.5320627     1220.428     72.36607      1.282     2.44     5.080224     20.41666     171.8402        13     0.907     0.798  74.40   0
       420    584.5184     18.9546 300.3948093 +22.5627399     1224.436     72.34763      1.245     2.32     4.809335     20.41666     188.3241        17     1.015     0.857 -71.64   0
       421    679.7911     18.7364 300.4245509 +22.5912006     299.7295     72.34763      1.613     3.86     4.694731     20.41666     30.37212         5     0.973     0.440  46.10   0
       422    179.3538     17.8822 300.2691133 +22.4410703     329.2649     72.34763      1.268     2.94      5.31792     20.41666     58.55957         6     0.830     0.623  21.99   0
       423    228.6846     15.8582 300.2851039 +22.4552705     364.9803     72.47658      1.110     2.90     5.882608     20.41666     60.12062         9     0.840     0.753 -16.88   0
       424    201.8486   1018.7326 299.9510166 +22.7349020     729.5212     72.36607      1.998     6.91     10.55071     20.41666     48.44387        14     1.284     1.042 -54.80  16
       425     37.9508   1016.1874 299.9009268 +22.6849511     2805.907     72.42134      5.634    19.13     51.24423     20.41666     66.85559       106     4.368     2.328 -26.67  27
       426    659.2402     11.5607 300.4204757 +22.5829857     293.3112     72.43976      1.190     3.45     4.641833     20.41666      38.2693         5     0.776     0.443 -20.57   0
       427    762.5596   1017.3523 300.1259416 +22.9027780     446.2728     72.42134      1.868     5.61     3.723847     20.41666     46.69687         9     1.221     0.758 -55.81  16
       428    123.8646   1022.0839 299.9256939 +22.7124438     1363.661     64.63544      8.086    14.02     26.33164     20.41666     40.97131        38     2.765     1.977 -32.38  26
       429    192.1078   1021.4626 299.9471008 +22.7327593      1980.97     67.24495      7.755    15.91     12.63631     20.41666      58.4535        54     3.521     1.999  41.99  26
