#   1 NUMBER                 Running object number                                     
#   2 X_IMAGE                Object position along x                                    [pixel]
#   3 Y_IMAGE                Object position along y                                    [pixel]
#   4 ALPHA_J2000            Right ascension of barycenter (J2000)                      [deg]
#   5 DELTA_J2000            Declination of barycenter (J2000)                          [deg]
#   6 FLUX_APER              Flux vector within fixed circular aperture(s)              [count]
#   7 FLUXERR_APER           RMS error vector for aperture flux(es)                     [count]
#   8 FLUX_RADIUS            Fraction-of-light radii                                    [pixel]
#   9 FWHM_IMAGE             FWHM assuming a gaussian core                              [pixel]
#  10 BACKGROUND             Background at centroid position                            [count]
#  11 THRESHOLD              Detection threshold above background                       [count]
#  12 FLUX_MAX               Peak flux above background                                 [count]
#  13 ISOAREA_IMAGE          Isophotal area above Analysis threshold                    [pixel**2]
#  14 A_IMAGE                Profile RMS along major axis                               [pixel]
#  15 B_IMAGE                Profile RMS along minor axis                               [pixel]
#  16 THETA_IMAGE            Position angle (CCW/x)                                     [deg]
#  17 FLAGS                  Extraction flags                                          
         1    223.5192     18.3792 300.2354376 +22.4424791     3844.667     72.10951      1.598     2.68      4.40619     20.35465     431.1474        33     1.290     1.166  21.71   0
         2    784.7211     10.9214 300.4125208 +22.6083829     907.9155      72.2748      1.425     2.99     4.767676     20.35465     121.6794        13     1.077     0.735  36.09   0
         3    339.6897     10.4994 300.2741122 +22.4750170     1274.853     72.31147      1.409     2.58     4.208429     20.35465     159.5145        19     1.099     0.992  78.79   0
         4    877.5328      7.8333 300.4424488 +22.6352678      194.261     72.14627      1.318     3.58     4.655072     20.35465     31.21498         5     1.025     0.361   5.57   0
         5    822.8486      5.8269 300.4260536 +22.6183276     726.4035     72.16464      1.579     4.68       4.7345     20.35465     66.95634        14     1.230     0.897 -68.65  16
         6    746.0438      5.9519 300.4020795 +22.5953783     482.7335     72.16464      1.157     2.58     4.798013     20.35465     61.89071         5     0.653     0.539   0.88   0
         7    842.7691      2.4217 300.4333657 +22.6233091      2104.94     62.00658      1.321     2.48     4.704504     20.35465     283.8149        19     1.029     0.927  -2.27  24
         8    599.3677   1006.1647 300.0316500 +22.8387049     2415.545     72.18301      1.870     4.22     2.433261     20.35465     162.7845        34     1.448     1.327 -14.44   0
         9    251.9736   1018.0115 299.9197311 +22.7378435     2705.901     72.14627      6.347    27.15     71.66749     20.35465     59.41283       182     5.126     3.992 -14.66  27
        10    290.3938    988.3519 299.9413235 +22.7408757      7315.82     72.14627      7.410    29.72     47.40502     20.35465     162.3824       638     9.780     4.684  61.61  18
        11    252.1460   1001.4905 299.9251596 +22.7331599     4225.314     72.20138      8.047    23.99     60.25858     20.35465     81.47964       276     5.387     4.709  50.34  19
        12    226.1278   1012.4746 299.9134992 +22.7284969     3706.424     72.20138      8.566    27.92        69.61     20.35465      83.9921       341     6.293     4.790  72.78  27
        13    211.8655   1012.7407 299.9089801 +22.7242910     858.5914     72.18301      4.263     7.33     70.33722     20.35465      42.9949        13     1.338     1.145  74.50   3
        14    201.2039   1021.3671 299.9028602 +22.7235621     1220.886      67.2973      4.095    10.32     75.54906     20.35465     45.68167        27     2.058     1.443 -27.81  27
        15    183.8901   1021.5593 299.8974174 +22.7184185     1988.962     66.62411      3.636    14.58     76.20054     20.35465     68.45618        65     3.198     1.850 -12.67  26
        16    129.3670    931.7894 299.9096776 +22.6763213     3663.158     72.14627     16.454    52.56     12.24818     20.35465     87.49294       893    11.732     6.535 -33.98   3
        17    134.0706   1013.4692 299.8845703 +22.7011406      5481.83     72.18301     13.664    60.79     55.06501     20.35465     111.7465      1251    13.616     7.883  26.35  27
        18    219.4806    991.7124 299.9181877 +22.7205506     2247.469      72.2748      6.240    17.64     56.65615     20.35465     65.41909        81     4.109     2.161 -88.54   3
        19    706.6153    987.9996 300.0709551 +22.8656646     268.6964     71.99911      1.667     4.68     3.034944     20.35465     23.85558         5     1.050     0.591 -16.53   0
        20    685.7188   1001.5554 300.0600367 +22.8632862     8380.592     72.12789      1.907     4.34       2.8587     20.35465     517.0649        44     1.453     1.428   5.92   3
        21    978.8234    985.3858 300.1566377 +22.9465348     848.7706     72.12789      2.178     6.84     2.618932     20.35465      45.3428        16     1.388     1.033  -8.80   0
        22    691.3159    999.2496 300.0625300 +22.8643035     9462.386     72.12789      1.964     4.82     2.901171     20.35465     538.8428        51     1.529     1.516 -68.80   3
        23    550.3667    990.4561 300.0215078 +22.8194981     428.9263     72.16464      1.688     4.53     2.425889     20.35465     49.33183         8     1.134     0.789  28.53   0
        24      6.7962    974.4701 299.8577272 +22.6517443      709.634     72.09112      5.605     7.30    -3.369514     20.35465     33.88674        10     1.463     1.019 -52.63  16
        25    199.2436    970.2534 299.9188791 +22.7083245     1673.666     72.18301      5.834    12.01      42.3236     20.35465     43.69061        29     2.900     1.385 -44.98   2
        26    704.0158    968.5356 300.0764776 +22.8593003     6898.735     72.12789      1.891     4.05     3.019521     20.35465     391.7909        46     1.488     1.419  30.04   0
        27    583.6870    962.7411 300.0408953 +22.8215447     501.7016      72.2381      1.725     6.10     2.553771     20.35465     56.13179        11     1.174     0.891   8.44   0
        28    296.3741    963.1884 299.9513683 +22.7354572    -444.4727     72.14627      0.866     3.42      27.7477     20.35465     29.77535         5     0.783     0.432  70.49   0
        29    612.6335    959.2476 300.0510432 +22.8292259     1592.293     72.18301      1.783     4.18     2.645256     20.35465     121.7346        22     1.244     1.135  48.24   0
        30    129.0655    969.3111 299.8973801 +22.6869838     5172.823     72.25645     23.922    84.15      30.5146     20.35465     107.9603      3519    20.035    15.301 -13.60  19
        31    436.9988    953.6930 299.9981904 +22.7749386     6473.367     72.05433      1.777     3.80     3.030083     20.35465     536.2845        42     1.413     1.358   5.10   0
        32    506.5171    955.7358 300.0191558 +22.7963835     1009.704     72.25645      1.756     4.61      2.68942     20.35465     78.91448        21     1.258     1.170  63.12   0
        33    786.2064   1001.7651 300.0912701 +22.8934847     605.3652     72.14627      2.031     7.60     3.273073     20.35465     48.88259        15     1.553     1.259 -19.69   0
        34    183.5070    938.7849 299.9242242 +22.6945806     789.3376     72.07273      4.297     4.64     22.12773     20.35465     33.10772         5     1.195     0.512 -27.75   0
        35    983.4406    932.5496 300.1752659 +22.9327490     2158.488     72.16465      2.014     5.39     3.145771     20.35465     102.4099        33     1.559     1.358   9.15   0
        36    469.4380    940.5142 300.0125693 +22.7808927     573.2115     72.12789      1.835     4.48     3.010296     20.35465     45.84094        10     1.162     0.671 -56.97   0
        37    665.6868    926.2112 300.0783081 +22.8356604     252.1223     72.09112      1.497     4.34     2.829778     20.35465     30.26699         5     0.990     0.744 -17.01   0
        38    772.2670    921.2578 300.1131168 +22.8662005     769.0828     72.18301      1.774     4.85     3.276475     20.35465     64.21616        18     1.403     1.058  45.85   0
        39    806.8818    915.4728 300.1257835 +22.8749189     973.2219      72.2748      1.825     4.66     3.238387     20.35465     57.31488        19     1.232     1.100  25.32   0
        40    584.6133    916.4700 300.0562341 +22.8085485     390.3995     72.14627      1.544     4.65     2.775295     20.35465     34.06107         8     1.421     0.432  30.24   0
        41     16.9332    912.4410 299.8810484 +22.6370164     673.0947     72.12789      1.926     4.90      1.97266     20.35465     49.01527         9     0.912     0.768  64.51   0
        42    829.1907    909.2443 300.1347610 +22.8798196     11347.17     72.16464      1.803     3.97     3.147932     20.35465     720.4259        50     1.442     1.391  19.17   0
        43   1020.3328    909.1291 300.1943892 +22.9370806      418.902     70.73587      1.829     6.36      3.51001     20.35465     33.81713         9     1.411     0.807  30.05  16
        44    874.8484    908.9916 300.1490730 +22.8934348     468.3996     72.16464      1.885     3.99     2.998711     20.35465     43.55513         6     0.932     0.742  18.19   0
        45    140.8355    900.8504 299.9233020 +22.6708970     892.4462     72.16464      3.203     4.42     9.473854     20.35465     66.02914        14     1.158     1.098 -82.41   0
        46    881.1104    896.5381 300.1550751 +22.8917368     536.8912      72.2381      1.948     6.93     2.970476     20.35465     35.46928        12     1.424     0.946  -3.62   0
        47    534.4029    897.3344 300.0468287 +22.7879973     301.8201     72.16464      1.558     4.94     2.912747     20.35465     29.41404         9     1.024     0.674   5.74   0
        48    837.9362    891.2419 300.1433413 +22.8772737     1382.641     72.14627      1.703     4.33     3.070983     20.35465     100.9322        23     1.288     1.197 -69.74   0
        49    689.6494    888.5468 300.0980201 +22.8320388     489.5113     72.18301      1.620     3.89      3.15563     20.35465     51.95736         9     1.039     0.762 -28.38   0
        50    875.8853    884.8364 300.1572521 +22.8868110     835.9401     72.12789      1.734     6.06     2.943525     20.35465     60.03315        13     1.074     1.041  26.86   0
        51    984.6824    882.8687 300.1918117 +22.9188555     272.2933     72.25645      1.475     5.03     3.401197     20.35465     32.29199         5     1.141     0.626  26.63   0
        52    925.3202    876.3748 300.1754142 +22.8991994       504.66     72.12789      2.141     5.57     3.033362     20.35465     45.83701         9     1.557     0.561  66.52   2
        53    775.6894    874.9106 300.1292561 +22.8539240     708.2017     72.31147      1.739     6.19     3.285769     20.35465     48.19102        14     1.275     0.875 -47.73   0
        54     34.4764    872.7566 299.8994000 +22.6309123      467.341     72.12789      2.344     5.17     2.717474     20.35465     35.74688         7     1.633     0.463  48.06   0
        55    786.9793    872.3823 300.1335958 +22.8565831     546.6783     72.14627      1.580     5.81     3.256674     20.35465     45.64112        12     1.100     0.892 -48.43   0
        56    488.2820    871.4088 300.0409066 +22.7667246     4070.351     72.09112      1.655     3.29      3.14742     20.35465     367.2238        35     1.326     1.232  -3.52   0
        57    215.6526    982.7078 299.9199273 +22.7168205     1043.717     72.20138      3.317     3.96     50.79283     20.35465      56.9045         5     0.917     0.490  80.95   3
        58    150.2202    859.6308 299.9396205 +22.6618990      401.023     72.14627      1.423     5.09     5.515114     20.35465     42.73112         6     1.152     0.637 -67.73   0
        59    130.6592    858.9900 299.9337514 +22.6558434      198.959     72.10951      1.250     2.98     5.097383     20.35465      34.3222         5     0.861     0.474 -89.25   0
        60    213.3433    856.5871 299.9602255 +22.6799738     749.9796     72.12789      1.778     4.66      5.90511     20.35465     63.82415        17     1.191     1.090  15.77   0
        61    190.5355    854.1548 299.9539282 +22.6724307     1464.514     72.16464      1.748     4.09     5.674766     20.35465      116.753        22     1.263     1.156   0.19   0
        62   1016.6584    841.7337 300.2151604 +22.9166243     1878.737     72.18301      1.856     4.56      3.70418     20.35465     121.3919        28     1.390     1.273 -19.82  16
        63    722.1304    841.6422 300.1233888 +22.8283166     459.8709     72.10951      1.803     4.63     3.423054     20.35465     41.88118         7     1.014     0.600 -83.27   0
        64    492.9598    840.8300 300.0523047 +22.7593556     303.2112     72.14627      1.371     4.52     3.219762     20.35465     39.42418         7     0.941     0.628 -75.81   0
        65    799.8167    835.6824 300.1495292 +22.8498965     635.5372     72.10951      1.632     3.45     3.337212     20.35465     49.31445        12     0.957     0.851  60.79   0
        66    222.3029    835.3903 299.9699014 +22.6765856     460.4738     72.05433      1.708     4.57     5.038745     20.35465     41.72332         6     0.942     0.631 -71.24   0
        67    668.1962    829.5856 300.1105109 +22.8086845     4844.971     71.99911      1.597     3.24     3.363542     20.35465      408.478        35     1.266     1.203   5.95   0
        68    158.2963    830.1425 299.9517167 +22.6558699     326.1784     72.21974      1.625     4.51     4.635457     20.35465     37.81163         8     0.996     0.651  81.07   0
        69    470.2395    826.8226 300.0497891 +22.7485217     592.0281     72.18301      1.591     4.58      3.28739     20.35465     62.84314        12     1.145     0.794 -30.02   0
        70    688.7949    822.0913 300.1193625 +22.8127100     752.9573     72.05433      1.593     4.16     3.426341     20.35465     63.46156        17     1.114     1.055   3.84   0
        71    218.3920    823.1884 299.9726527 +22.6719133     1353.173     72.03593      1.666     3.87     4.532466     20.35465     135.8455        24     1.363     1.125  30.52   0
        72    237.8608    820.4368 299.9795984 +22.6769672      426.223     72.16464      1.635     4.74     4.274863     20.35465      45.3052         8     1.102     0.577 -18.53   0
        73    605.2732    813.1226 300.0962706 +22.7850912     294.7496     72.25645      1.419     4.46     3.239143     20.35465     45.24442         7     1.065     0.532 -62.85   0
        74    844.2430    809.3203 300.1719444 +22.8556449     4083.532     72.12789      1.625     3.24     3.410053     20.35465     315.4236        34     1.268     1.235  -0.07   0
        75    252.6070    803.0262 299.9898417 +22.6764000     527.4657     72.14627      1.750     4.04     3.677801     20.35465     53.41639         8     1.233     0.626  40.14   0
        76    561.5344    801.8840 300.0863082 +22.7687492     562.5084     72.25645      1.395     2.99     3.256707     20.35465     73.40279        11     1.022     0.686 -12.64   0
        77    207.4805    799.5662 299.9769402 +22.6618654     967.8316     72.09112      1.583     3.48     3.627439     20.35465     98.54924        17     1.162     0.987  19.68   0
        78    622.8637    795.0528 300.1076215 +22.7851803     487.4876     72.20138      1.468     6.10     3.316452     20.35465     50.65211        10     1.251     0.835  55.82   0
        79    357.2716    791.7852 300.0260381 +22.7045811     53442.52     72.14627      1.613     3.11      3.52943     20.35465     5566.715        99     1.461     1.404  31.09   0
        80    615.2426    791.0850 300.1065384 +22.7817563     1657.438     72.10951      1.606     3.34     3.304762     20.35465     152.5206        26     1.305     1.129 -88.90   0
        81    286.0327    790.3882 300.0043408 +22.6828059     406.1086     72.12789      1.419     4.34      3.62731     20.35465     53.80534        11     1.054     0.869  31.53   0
        82    644.3098    786.7684 300.1169921 +22.7892333     787.6566     72.09112      1.520     3.30      3.40545     20.35465       86.413        18     1.096     1.033 -59.34   0
        83     43.3903    786.3525 299.9302562 +22.6088245     796.3958     72.16464      1.880     4.98     3.586807     20.35465     77.19556        15     1.416     0.994 -10.10   0
        84     10.7814    786.9828 299.9199250 +22.5992156     717.8266     72.12789      1.693     3.38     3.586807     20.35465     71.14127         9     1.076     0.572 -32.72   0
        85    654.9891    785.1462 300.1208449 +22.7919697     490.3181     72.14627      1.446     3.77     3.440822     20.35465     58.17281        12     1.062     0.903   1.41   0
        86    975.3399    782.4620 300.2215449 +22.8872197     397.6873     72.18301      1.909     4.14     3.608946     20.35465     33.79808         5     0.984     0.496   3.28   0
        87    760.6793    781.7059 300.1548829 +22.8226683     558.6893      72.2748      1.789     3.63     3.508594     20.35465     48.11565         9     0.946     0.794  38.52   0
        88    798.2975    771.9492 300.1697750 +22.8311433     738.4227     72.21974      1.542     3.67     3.478127     20.35465     67.08258        14     1.054     0.923 -31.87   0
        89    406.9978    769.0407 300.0488971 +22.7129744     31532.79     72.14627      1.528     2.98     3.707108     20.35465     3026.211        73     1.384     1.315  39.04   0
        90    930.1384    765.0446 300.2131125 +22.8686727     2679.763     72.16464      1.602     3.37     3.627524     20.35465     200.2337        29     1.360     1.090 -24.52   0
        91    418.3119    763.4117 300.0542461 +22.7147534     609.0953     72.09112      1.666     4.48     3.709791     20.35465     59.26518        11     1.102     0.811 -16.34   0
        92    687.9628    761.1769 300.1389048 +22.7949757     1029.017     72.16464      1.592     3.74     3.507339     20.35465     89.90563        20     1.210     1.070  35.09   0
        93    524.0131    760.7626 300.0879961 +22.7456965     327.8955     72.12789      1.211     4.56     3.280911     20.35465     52.33846         8     1.100     0.537  53.54   0
        94    289.5075    760.6117 300.0150991 +22.6753086     853.3425     72.09112      1.605     4.40     3.628211     20.35465     75.25319        17     1.222     0.988  46.15   0
        95    582.4709    759.2385 300.1066872 +22.7627895     306.0636     72.12789      1.411     4.25     3.354176     20.35465      36.3655         5     0.851     0.604 -43.42   0
        96     94.3035    756.3453 299.9558223 +22.6155054     354.4537      72.2381      1.533     3.31     3.586807     20.35465     57.03189         8     0.959     0.597 -63.63   0
        97    535.2588    755.7869 300.0931133 +22.7476412     844.5247     72.12789      1.387     2.74     3.271006     20.35465     94.21001        12     0.910     0.816 -79.33   0
        98    935.8558    752.8991 300.2188428 +22.8668976     397.7441      72.2381      1.376     4.25      3.64825     20.35465     52.46004         6     0.972     0.530 -29.39   0
        99    437.3140    752.1509 300.0638174 +22.7172225     412.8213     72.12789      1.778     3.49     3.592124     20.35465     40.57713         5     0.992     0.354  -3.17   0
       100    421.3063    769.5408 300.0531855 +22.7174100     2011.823     72.21974      1.548     3.05     3.691212     20.35465     197.9793        22     1.206     1.007  33.88   0
       101    481.1084    750.2460 300.0780624 +22.7298113     453.0648     72.12789      1.398     5.12     3.319632     20.35465     50.66217         9     1.226     0.604  60.75   0
       102    689.6354    750.0029 300.1430575 +22.7922695     382.8544     72.14627      1.447     3.32     3.511031     20.35465     42.63225         5     0.754     0.424  68.49   0
       103    122.9276    750.0400 299.9667636 +22.6222889     520.0701     72.12789      1.865     4.42     3.603051     20.35465     39.09186         6     1.179     0.471  34.07   0
       104    913.8609    747.6824 300.2136810 +22.8588086     487.1736      72.2381      1.711     6.21     3.647596     20.35465     46.16976        11     1.192     0.922 -33.00   0
       105    287.0404    745.1410 300.0193600 +22.6701312     639.6106     72.14627      1.988     5.63     3.626727     20.35465     45.54636         9     1.144     0.780 -23.96   0
       106    610.3756    735.5275 300.1230808 +22.7643513     477.9966     72.18301      1.471     2.66     3.515368     20.35465     50.08673         7     0.882     0.489   7.78   0
       107    579.9023    734.0266 300.1140816 +22.7547834     603.6199     72.09112      1.439     3.26     3.402481     20.35465     61.02682        10     0.928     0.714 -25.16   0
       108    489.2783    732.7710 300.0862838 +22.7272471     366.9071     72.14627      1.333     4.47     3.312878     20.35465     45.34257         7     1.084     0.524  62.87   0
       109    996.5555    730.4142 300.2450786 +22.8786256      4493.27     72.16465      1.692     3.49     3.541306     20.35465     366.3676        35     1.304     1.251 -33.76   0
       110    602.0528    731.1810 300.1219021 +22.7606083     1410.698     72.12789      1.473     3.00     3.491079     20.35465     132.9088        21     1.088     1.075  89.32   0
       111    521.9600    730.9186 300.0970564 +22.7365165     271.4942     72.10951      1.395     4.60     3.286173     20.35465     36.28469         5     0.975     0.615 -35.16   0
       112    683.5837    726.0021 300.1489729 +22.7835652     364.7516     72.03593      1.475     5.26     3.521024     20.35465     37.52467        10     1.143     0.683  38.11   0
       113    985.1427    721.7342 300.2443404 +22.8727128     1798.724     72.18301      1.825     4.07     3.592222     20.35465     123.0352        26     1.326     1.214 -34.24   0
       114    212.7441    718.2866 300.0049915 +22.6401370      324.771     72.21974      1.894     4.65     3.608597     20.35465     27.34872         6     1.247     0.492 -59.45   0
       115    348.0033    715.6135 300.0479113 +22.6799504      773.702     71.98069      1.438     3.27     3.845384     20.35465       87.252        16     1.073     0.956  15.26   0
       116    811.3662    712.9304 300.1930291 +22.8181132      2548.91     72.14627      1.576     3.14     3.486975     20.35465     225.1118        31     1.344     1.185   4.26   0
       117   1016.0739    711.8846 300.2571880 +22.8791496     1730.957     72.25645      1.672     3.49     3.515248     20.35465     142.7258        25     1.253     1.127  50.76  16
       118     33.9365    703.1136 299.9543698 +22.5821251     873.8794      72.2381      1.735     4.35     3.504492     20.35465      81.7512        15     1.330     1.005  16.36   0
       119    893.4926    699.0922 300.2231226 +22.8387493      563.386     72.31147      1.619     4.35     3.704002     20.35465     60.91496        12     1.250     0.759  13.24   0
       120    476.5707    698.7989 300.0933690 +22.7136875     223.5694     72.10951      1.499     5.66     3.350771     20.35465     27.96776         7     1.051     0.859 -73.91   0
       121    196.9419    699.2080 300.0062795 +22.6299239      735.797     72.12789      1.653     5.03     3.601816     20.35465     62.65084        10     1.141     0.691 -41.81   0
       122    929.8033    689.9434 300.2374156 +22.8470008     148508.1     72.10951      1.599     3.13     3.877384     20.35465     12387.63       167     1.516     1.497  54.32   0
       123    692.1113    693.6143 300.1621535 +22.7768232     312.7101     72.09112      1.269     3.48     3.537325     20.35465     48.84755         8     0.969     0.610  41.86   0
       124    782.0827    690.1396 300.1913103 +22.8027923     887.8491     72.25645      1.496     3.57     3.485706     20.35465     90.06204        14     1.140     0.821  64.99   0
       125    962.4952    683.2740 300.2497762 +22.8548793     451.4728     72.29314      1.583     5.16     3.774869     20.35465     39.13599        10     1.143     0.659  34.22   0
       126    616.1099    678.7147 300.1433275 +22.7497625     1656.167     72.31147      1.398     2.72     3.551625     20.35465     189.9318        19     1.029     1.016  87.63   0
       127    797.3086    676.1046 300.2006149 +22.8033248      9374.18      72.3298      1.453     2.73     3.472679     20.35465     922.2083        44     1.247     1.195  81.66   0
       128    298.7158    671.0919 300.0470508 +22.6523931     4954.662     72.31147      1.504     2.94     3.568351     20.35465      570.764        35     1.277     1.153  23.65   0
       129     12.4952    669.4376 299.9586522 +22.5660348     1651.769     72.12789      1.764     3.84      3.37754     20.35465     135.5986        26     1.343     1.161 -39.73   0
       130    380.8293    669.1332 300.0732226 +22.6764613     1205.409     72.14627      1.460     3.00     3.872226     20.35465      148.331        17     1.162     0.876  24.98   0
       131    256.1923    666.8611 300.0352051 +22.6384228     517.3309     72.12789      1.506     3.55     3.527925     20.35465     71.50171        11     1.083     0.866   7.81   0
       132    589.1038    664.5964 300.1395066 +22.7376133     712.3799     72.05433      1.424     3.16     3.579956     20.35465     91.56623        12     0.975     0.840  66.73   0
       133    580.7394    656.8675 300.1394137 +22.7328870      3357.18     72.18301      1.440     2.54      3.65869     20.35465     433.2641        29     1.165     1.096  34.66   0
       134    570.8624    650.6868 300.1383469 +22.7281516     1453.888     72.25645      1.371     2.79     3.716446     20.35465     170.1578        19     1.108     0.931  -6.44   0
       135    964.4052    648.6259 300.2616294 +22.8454972     469.5039     72.12789      1.689     4.97      3.80088     20.35465      38.5813        10     1.059     0.884  -4.99   0
       136    482.0620    647.3154 300.1118046 +22.7005591     407.4009      72.2748      1.444     4.63     3.566454     20.35465     41.58305         5     0.915     0.667  21.70   0
       137    234.5335    646.8075 300.0349871 +22.6261728     622.7868     72.14627      1.318     3.23     3.527552     20.35465      73.4568        13     0.990     0.860  -4.25   0
       138    248.6565    645.1529 300.0399146 +22.6299350     563.9543     72.18301      1.350     2.70     3.513006     20.35465     79.19418         9     0.896     0.666  44.21   0
       139   1017.9487    641.4891 300.2806465 +22.8594851     540.0325     72.16464      1.617     4.52     3.555829     20.35465     53.00508        12     1.132     0.851  42.49  16
       140    305.2591    641.6090 300.0586632 +22.6458976      364.403     72.10951      1.845     4.43     3.519345     20.35465     49.80177         7     1.291     0.507  71.51   0
       141    274.1968    641.8622 300.0489234 +22.6366526     561.0798     72.14627      1.495     3.89      3.48593     20.35465     72.03096         9     0.928     0.771  76.46   0
       142    594.9485    640.7633 300.1490690 +22.7325237     574.8394     72.16464      1.759     3.99     3.881674     20.35465     54.95921         9     0.986     0.703  43.08   0
       143    495.8133    640.3289 300.1183533 +22.7026771     1859.613     72.14627      1.385     2.61     3.678531     20.35465     226.7434        20     1.004     0.984  -6.33   0
       144    529.6013    638.9594 300.1293135 +22.7124147     362.4272     72.16464      1.452     4.28     3.803567     20.35465       35.252         6     0.952     0.550 -17.84   0
       145    149.6997    635.1835 300.0123985 +22.5973867     19826.02     72.05433      1.610     3.02      3.59195     20.35465     2003.064        63     1.409     1.326  41.66   0
       146     71.0717    637.0779 299.9873560 +22.5743363     779.6657     72.25645      1.937     4.37      3.51667     20.35465     84.08962        16     1.359     0.899  15.36   0
       147    580.7038    635.7877 300.1462507 +22.7268249     983.1166     72.05433      1.357     2.43     3.929611     20.35465     132.0275        15     1.030     0.840  13.51   0
       148    615.6301    634.7238 300.1574700 +22.7369896     374.5672     72.14627      1.170     2.24     3.962517     20.35465     70.22667         6     0.845     0.440   6.40   0
       149    998.8679    621.9742 300.2810352 +22.8481624     1053.722     72.12789      1.636     3.35      3.64181     20.35465     95.99445        16     1.106     0.906  -9.19   0
       150    663.9910    623.1876 300.1762766 +22.7481733     264.1261     72.03593      1.344     4.81     4.091068     20.35465     28.65946         7     1.030     0.636  -1.10   0
       151    865.3215    620.1550 300.2399881 +22.8076343     447.4696     72.14627      1.406     5.24     3.911721     20.35465     45.65257         9     0.957     0.809  53.21   0
       152     95.7548    619.1093 300.0008597 +22.5765903      1553.83     72.12789      1.859     4.80     3.572334     20.35465     106.4062        27     1.568     1.139 -88.22   0
       153    162.1829    619.8727 300.0212505 +22.5967407     451.9814     72.14627      1.391     4.27     3.580944     20.35465     44.57139         9     0.968     0.682 -79.50   0
       154    544.1237    616.2028 300.1412258 +22.7102363     430.1413     72.05433      1.228     2.20     4.209742     20.35465     72.68922         8     0.759     0.663 -43.58   0
       155    938.8378    614.5507 300.2647271 +22.8280481     822.6989     72.16464      1.921     4.41     3.927302     20.35465     68.60586        16     1.268     0.987  -1.27   2
       156    336.9350    615.4720 300.0770030 +22.6478992     272.0644     72.18301      1.022     2.11     3.459667     20.35465     59.49629         6     0.735     0.498  -3.33   0
       157    500.7964    608.6430 300.1301966 +22.6950763     747.0446     72.16464      1.571     2.77      4.04728     20.35465     75.38953        14     0.984     0.870   2.03   0
       158    648.7009    607.0547 300.1767555 +22.7389582      498.848      72.2381      1.468     4.13     4.242468     20.35465     52.66498        11     1.012     0.804   0.51   0
       159    666.7551    605.2224 300.1829729 +22.7438432     525.7186     72.20138      1.384     3.10     4.242804     20.35465      83.7005        10     1.061     0.614  44.99   0
       160    695.9507    605.4761 300.1919835 +22.7526662     432.3861     72.14627      1.290     3.14      4.10885     20.35465     64.20737         7     0.823     0.590  25.12   0
       161    544.8035    604.3337 300.1452927 +22.7070328     1007.868     72.14627      1.603     3.43     4.327662     20.35465       104.45        16     1.106     1.011 -40.13   0
       162    978.8066    599.8988 300.2819498 +22.8358104     3360.231     72.03593      1.562     3.17     3.762323     20.35465     301.4433        30     1.217     1.196 -30.69   0
       163    510.5426    599.7822 300.1361077 +22.6954549     1715.477     72.12789      1.388     2.51     4.112413     20.35465     244.8703        19     1.075     0.914  71.77   0
       164    875.8898    597.4538 300.2506564 +22.8042790     276.6794     72.18301      1.505     3.93      3.96487     20.35465     34.55171         5     0.890     0.496  -2.97   0
       165     72.4507    593.3722 300.0019796 +22.5622166     5061.678     72.16464      1.691     2.99     3.492395     20.35465     523.9066        39     1.345     1.309 -14.09   0
       166    485.6900    594.8295 300.1299823 +22.6865821     345.5732     72.10951      1.461     3.85     3.952976     20.35465     34.76933         6     1.198     0.355  27.07   0
       167   1018.2134    589.7819 300.2975261 +22.8447056     438.4331     72.10951      1.904     3.84     3.658179     20.35465     34.25351         6     0.785     0.538 -42.53   0
       168    539.9729    590.5837 300.1482551 +22.7016373     307.4487     72.16464      1.306     3.75     4.301365     20.35465     43.99958         6     0.821     0.493   0.34   0
       169    373.9492    586.5253 300.0979161 +22.6506933     9051.683     72.16464      1.423     2.60     3.593792     20.35465     1060.824        40     1.182     1.154  60.66   0
       170    496.4095    583.6139 300.1369607 +22.6865765     8817.831     72.05433      1.359     2.35     4.018359     20.35465     1166.507        35     1.136     1.095  22.87   0
       171    908.1567    577.7278 300.2671221 +22.8082778     1795.749     72.12789      1.412     2.83     3.946109     20.35465     212.7822        18     1.049     0.973  47.34   0
       172    992.7697    575.0634 300.2943711 +22.8328557     12546.52     72.16464      1.530     2.91     3.800026     20.35465     1102.396        47     1.282     1.269  42.72   0
       173    557.0031    573.2488 300.1591860 +22.7017658     11450.77     72.14627      1.342     2.48      4.33184     20.35465     1400.427        43     1.155     1.108  51.62   0
       174    726.5812    569.3366 300.2132624 +22.7514666     544.4364     72.10951      1.234     3.15     3.971411     20.35465     75.72799        13     1.046     0.791 -26.44   0
       175    284.5027    568.6846 300.0758949 +22.6187487     1142.376     72.31147      1.341     2.75     3.446604     20.35465     166.2148        16     0.992     0.934  28.99   0
       176    531.5637    566.5591 300.1534402 +22.6922194     387.7208      72.2381      1.660     4.44     4.258523     20.35465     49.08068         7     1.030     0.596  63.97   0
       177    442.2238    567.6353 300.1252895 +22.6657442     375.2033     72.16464      1.270     3.50     3.941828     20.35465     46.04692         5     0.778     0.454 -14.65   0
       178    488.6565    561.3809 300.1417684 +22.6778699     4388.043     72.12789      1.373     2.36     3.974181     20.35465     545.6033        30     1.127     1.062  25.80   0
       179    831.5725    561.3882 300.2485572 +22.7806411     739.6156     72.14627      1.287     2.64     3.927464     20.35465     92.15676        14     0.935     0.888   4.17   0
       180    466.8935    559.7814 300.1355158 +22.6708862     1224.255     72.07273      1.329     2.52     3.929863     20.35465     176.0853        14     0.973     0.832  28.87   0
       181    221.3346    559.1885 300.0593419 +22.5970776     749.5142     72.10951      1.336     2.93      3.47263     20.35465      83.6157        13     0.946     0.864 -47.51   0
       182    908.6196    557.0039 300.2739971 +22.8024619     1629.609     72.10951      1.488     2.96     3.924735     20.35465     149.4655        22     1.203     0.991 -31.90   0
       183    605.2892    548.9443 300.1821110 +22.7092607     200140.2     72.18301      1.353     2.38     4.322149     20.35465     25267.83       204     1.465     1.402  12.52   0
       184    155.1955    556.7391 300.0395826 +22.5765351     344.2303     72.12789      1.478     3.90     3.519039     20.35465     39.65235         5     0.881     0.496 -46.92   0
       185    429.1537    554.9563 300.1253406 +22.6581861     378.1545     72.18301      1.405     2.75     3.957671     20.35465     50.26109         6     0.878     0.456 -55.83   0
       186    788.9828    553.9120 300.2377131 +22.7657336     787.1609     72.07273      1.279     2.57     3.938967     20.35465      111.222        10     0.823     0.766 -75.60   0
       187    882.6548    552.6364 300.2673212 +22.7934294     140.6896     72.16464      1.319     3.41     3.918155     20.35465      34.6813         5     1.043     0.323 -21.10   0
       188    566.0586    549.6489 300.1696689 +22.6977044     79.93356     72.20138      1.197     4.14      4.34135     20.35465     27.99113         5     1.057     0.463  63.22   0
       189    291.3080    548.7933 300.0844701 +22.6150821     3542.837     72.05433      1.456     2.73     3.453319     20.35465     462.3402        28     1.178     1.083  36.69   0
       190    857.2386    545.3342 300.2617702 +22.7837178     487.3725     72.12789      1.533     3.68     3.913079     20.35465     53.12966        10     1.099     0.633  49.38   0
       191    875.7272    543.3158 300.2681886 +22.7886762     276.7438     72.25645      1.329     2.73     3.908867     20.35465     49.73544         6     0.734     0.627  49.78   0
       192    636.4272    535.2308 300.1962595 +22.7146549     359.8755     72.14627      1.524     5.62     4.284257     20.35465     46.62263         8     1.419     0.628  43.48   0
       193    495.8653    529.4965 300.1543654 +22.6708776     2811.474     72.25645      1.439     2.62     3.957942     20.35465     350.0773        33     1.438     1.058 -87.84   0
       194    340.1290    531.5612 300.1052465 +22.6247776     377.1983     72.10951      1.210     2.92     3.481695     20.35465     58.17791         6     0.765     0.492   6.37   0
       195    945.6063    529.3278 300.2945166 +22.8055872     328.2688     72.09112      1.491     3.56     3.928686     20.35465     39.06314         5     0.803     0.701  44.56   0
       196    813.5387    518.0222 300.2570195 +22.7627799     456.0718     72.12789      1.227     2.58     3.942207     20.35465     77.04319         8     0.890     0.628 -13.90   0
       197    892.9016    515.6700 300.2825195 +22.7858769      1792.86      72.2748      1.416     2.52     3.910733     20.35465     207.5156        23     1.109     1.063  21.19   0
       198    779.3726    516.3273 300.2469234 +22.7520575     258.7076     72.14627      1.391     3.83     3.953826     20.35465     28.50337         5     1.022     0.411  74.22   0
       199     22.8861    514.0049 300.0123566 +22.5245826     937.9025     72.07273      1.816     3.58     3.421755     20.35465     84.22068        16     1.167     0.896 -11.65   0
       200    764.2278    513.1168 300.2432471 +22.7465979     2557.194     72.14627      1.351     2.66     3.956234     20.35465     292.6091        22     1.077     0.955 -81.80   0
       201    402.3461    512.9692 300.1306344 +22.6380966     142.2148     72.16464      1.233     5.14     3.793083     20.35465     39.46666         5     0.979     0.763 -23.27   0
       202   1008.4213    510.6187 300.3201808 +22.8190215     370.9784     72.14627      1.249     2.91     4.052934     20.35465     63.26181         9     0.973     0.607  -3.25   0
       203    668.7041    509.9452 300.2145213 +22.7170655     428.2806     72.21974      1.375     4.78     4.232344     20.35465     50.55858         9     1.045     0.713  89.48   0
       204    551.5363    509.1391 300.1783021 +22.6817199     774.1096     72.18301      1.369     3.35     4.094231     20.35465     102.2674        15     1.240     0.778  57.78   0
       205   1021.4135    507.1764 300.3253509 +22.8219225     1175.749     67.13952      1.452     3.14     4.094624     20.35465     119.1464        18     1.063     1.013 -50.53  24
       206   1007.2108    506.3926 300.3211755 +22.8174443     531.1047     72.01752      1.373     3.61     4.071257     20.35465     63.73502        10     0.904     0.799  -3.12   0
       207    893.1732    505.5682 300.2858842 +22.7830555     2371.627     72.14627      1.659     3.47     3.910733     20.35465      255.134        27     1.607     0.937  77.96   0
       208    646.5335    503.7042 300.2096432 +22.7086293     832.6609      72.2748      1.827     2.72      4.23401     20.35465     79.57768        11     0.978     0.724  70.10   2
       209    931.3339    500.6438 300.2993803 +22.7930696     4290.005     72.12789      1.434     2.62     3.919215     20.35465      505.845        31     1.176     1.085  49.10   0
       210    485.5700    501.9700 300.1600989 +22.6598886     993.4747     72.10951      0.675    -0.68     3.814068     20.35465     591.2013        10     0.816     0.570  29.74   0
       211    572.3840    500.2842 300.1876668 +22.6854257     255.0471     72.10951      1.413     3.80     4.103498     20.35465     37.07152         5     0.984     0.420  74.06   0
       212    728.9481    496.4049 300.2376821 +22.7312272     155.6355     72.14627      1.461     4.10     3.996418     20.35465     31.22831         5     0.766     0.627 -80.70   0
       213    592.1196    496.3609 300.1950846 +22.6902138     402.0694     72.10951      1.348     2.42     4.163198     20.35465     51.75323         5     0.699     0.460  15.37   0
       214    163.5350    491.0452 300.0635031 +22.5601901     902.1107     72.14627      1.402     2.64     3.479725     20.35465     127.8016        16     1.144     0.928 -58.78   0
       215   1023.0010    490.9777 300.3311056 +22.8177417     584.7751     59.78589      1.311     3.53     4.175946     20.35465     79.73193        11     0.958     0.813 -85.89  24
       216    211.0099    482.6638 300.0809783 +22.5720243     298.7527     72.09112      1.501     3.96     3.460485     20.35465     40.85812         7     0.894     0.656 -71.69   0
       217    155.8939    480.8647 300.0644335 +22.5549773     366.2845     72.25645      1.223     2.12      3.47061     20.35465     70.54117         8     0.772     0.644 -47.05   0
       218   1019.4201    480.3935 300.3334250 +22.8136270     241.3391     72.10951      1.165     4.12     4.209179     20.35465     45.20018         6     1.000     0.486  35.69  16
       219    763.5103    475.4035 300.2552679 +22.7355486     407.0848     72.05433      1.315     2.76     3.939271     20.35465     57.01095         8     0.785     0.769   4.73   0
       220    372.5225    473.1413 300.1342877 +22.6177226     295.1111     72.18301      1.363     4.17     3.748244     20.35465     34.60025         5     0.904     0.550  42.78   0
       221    652.7396    472.6865 300.2216459 +22.7015803     263.2849      72.2381      1.205     2.74     4.184904     20.35465     52.78059         5     0.751     0.424  17.76   0
       222    704.9099    470.9219 300.2384672 +22.7167049     914.2422     72.29314      1.329     3.33     4.068013     20.35465     113.3501        12     1.007     0.832 -71.27   0
       223    765.4932    463.3856 300.2597872 +22.7326898     931.7904     72.07273      1.482     3.13     3.892348     20.35465     92.97163        16     1.042     0.961 -82.54   0
       224   1019.1234    463.8138 300.3387151 +22.8087722     370.3892     72.16464      1.358     2.49     4.177624     20.35465     72.74638        10     0.844     0.744  72.08  16
       225    922.8402    459.7080 300.3100223 +22.7787612     972.3029     72.14627      1.346     2.54     3.773306     20.35465     121.0689        13     0.915     0.869 -87.73   0
       226    907.1101    455.9018 300.3063537 +22.7729565     615.7054      72.3298      1.299     3.13     3.734541     20.35465     94.00548        15     1.169     0.790  19.21   0
       227    887.9877    455.9739 300.3003689 +22.7672505     210.6957     72.14627      1.172     2.07     3.720337     20.35465     47.41097         5     0.593     0.582  -1.37   0
       228    651.3796    453.9239 300.2273131 +22.6957835     3221.778     72.14627      1.304     2.38     4.143822     20.35465     433.9933        26     1.046     1.026   7.28   0
       229   1011.8208    452.7660 300.3400238 +22.8034099     466.3389     72.16464      1.299     3.77     4.122907     20.35465     55.98368        10     1.003     0.737  36.31   0
       230    127.2183    444.9850 300.0671696 +22.5360820     271.7384     72.12789      1.329     3.89     3.551671     20.35465     36.90256         5     0.842     0.515 -30.14   0
       231    657.0707    441.7408 300.2330401 +22.6939891     212.2145     72.18301      1.095     3.92     4.105051     20.35465     31.57749         7     0.733     0.688   4.34   0
       232    422.9541    441.9075 300.1601139 +22.6238747     304.0194     72.16464      1.169     2.13     3.741222     20.35465     43.93135         5     0.604     0.568 -84.22   0
       233    491.1901    440.8402 300.1816920 +22.6440212     366.9621     72.14627      1.413     3.09     3.754749     20.35465     50.57278         8     0.831     0.645  38.78   0
       234    934.6785    432.8570 300.3224295 +22.7745887     542.8044     72.18301      1.359     2.95     3.634793     20.35465     78.94806        11     1.037     0.698  -9.69   0
       235   1020.8969    431.9629 300.3496077 +22.8001469     846.7596     69.00919      1.355     2.73     4.126085     20.35465     118.2936        13     1.047     0.795   6.64  16
       236    671.0285    429.9224 300.2412231 +22.6947761     192.3104     72.14627      1.091     2.24      4.03728     20.35465     43.99395         5     0.610     0.574  87.07   0
       237    761.9890    427.8068 300.2702443 +22.7214178     1004.211     72.01752      1.252     2.38     3.779479     20.35465     172.7446        12     0.913     0.751  63.43   0
       238    557.6204    428.4271 300.2063970 +22.6603654     410.9121     72.12789      1.074     2.55     3.926719     20.35465     66.53421         8     0.858     0.617  -5.95   0
       239    265.9981    425.9161 300.1164910 +22.5722285     625.7163     72.05433      1.319     4.06     3.682962     20.35465     80.18372        10     1.113     0.677  32.51   0
       240    328.2574    421.6093 300.1372473 +22.5896591     3638.549     72.12789      1.331     2.39     3.839711     20.35465     458.4079        29     1.133     1.034  58.36   0
       241    275.5050    416.4358 300.1225234 +22.5723580      7508.78     72.14627      1.410     2.47     3.781792     20.35465     925.7312        37     1.213     1.097  56.59   0
       242    780.6843    417.0800 300.2795510 +22.7239355     265.5632     72.29314      1.232     3.35     3.582435     20.35465     39.55593         7     0.857     0.581  57.99   0
       243    653.7460    415.7673 300.2404350 +22.6855319      399.625     72.16464      1.506     4.22     4.049774     20.35465     50.29172         8     1.088     0.630  41.63   0
       244    416.2990    410.7001 300.1681721 +22.6129198     4707.673     72.38477      1.331     2.34     3.797807     20.35465     613.5197        30     1.128     1.011  65.39   0
       245    660.4945    407.4292 300.2452428 +22.6851585      18630.4     72.07273      1.301     2.22     4.010099     20.35465     2480.921        58     1.269     1.148  34.29   0
       246    678.3181    407.2170 300.2508627 +22.6904373     826.5815     72.10951      1.910     6.37     3.964228     20.35465     82.53787        14     1.625     0.702 -41.05   0
       247    904.0315    403.2211 300.3224934 +22.7568934     341.8885     72.14627      1.378     4.64     3.521996     20.35465     33.92162         5     0.962     0.635  32.61   0
       248    857.7625    397.6972 300.3098628 +22.7414502     374.4289     72.14627      1.367     3.86     3.463962     20.35465     45.87785        10     1.013     0.796 -21.95   0
       249    280.3210    394.6126 300.1311029 +22.5675379     302.4306     72.12789      1.281     3.41     3.837536     20.35465     45.25941         5     0.731     0.460 -16.40   0
       250    993.7298    390.2065 300.3546870 +22.7800089     748.5604     72.10951      1.422     3.76     3.947856     20.35465     78.28578        12     1.021     0.828  20.12   0
       251    531.2014    389.4490 300.2108235 +22.6412539     310.6624     72.12789      1.345     3.70     3.889852     20.35465     49.30676         7     1.025     0.483  49.37   0
       252    215.2122    387.5388 300.1131579 +22.5459858     2099.211     72.10951      1.433     2.64     3.667463     20.35465     241.2956        21     1.108     0.989  55.72   0
       253    703.7736    388.2105 300.2649596 +22.6926025     342.6884     72.14627      1.416     3.47     3.874928     20.35465     36.97346         5     0.994     0.350  43.90   0
       254    601.1740    376.8478 300.2366953 +22.6586008     6660.247     72.16464      1.308     2.16     4.043224     20.35465     1021.413        35     1.131     1.065  86.09   0
       255   1014.7076    377.3438 300.3654043 +22.7825910     1124.981     72.20138      1.553     3.19     4.038765     20.35465     117.6298        17     1.108     0.964  20.84   0
       256    315.9087    376.2163 300.1481380 +22.5729262     654.1995     72.07273      1.320     3.49     4.019237     20.35465     85.69817         8     0.826     0.676  45.44   0
       257    861.1883    368.7051 300.3203392 +22.7341433     366.3159     72.07273      1.254     3.11      3.58036     20.35465     54.56828         7     0.829     0.680  59.85   0
       258    173.3865    368.9128 300.1062024 +22.5280985     530.6249     72.09112      1.481     3.77     3.843289     20.35465     61.63208        12     1.036     0.843  24.00   0
       259    714.9897    367.4266 300.2751979 +22.6899905     460.3362     72.14627      1.324     3.98     3.774644     20.35465     53.89487        10     0.980     0.836 -54.77   0
       260     20.9470    367.0989 300.0594330 +22.4818606     1308.854      72.2381      1.543     3.25     3.709602     20.35465     136.7144        21     1.157     1.093  62.31   0
       261    805.3705    365.9317 300.3038427 +22.7166308     1157.765     72.12789      1.362     2.56     3.597981     20.35465     145.5849        15     1.023     0.823  73.42   0
       262    507.7595    363.0867 300.2120819 +22.6266579     6268.367     72.12789      1.316     2.25       4.0762     20.35465      909.812        37     1.158     1.079  41.15   0
       263    899.7598    357.6300 300.3359569 +22.7425095     1395.726     72.14627      1.412     2.72     3.734287     20.35465     195.8649        21     1.330     0.987 -86.63   0
       264    996.9890    357.7951 300.3662215 +22.7716662     563.2101     72.01752      1.318     2.35     3.986532     20.35465     84.30987        10     0.818     0.735  86.71   0
       265    492.4941    351.5658 300.2110692 +22.6187745     560.1854     72.10951      1.449     3.13     4.244192     20.35465     70.80769         8     0.887     0.657  86.42   0
       266     19.3090    348.5052 300.0649569 +22.4760346     1126.339      72.3298      1.641     3.43     3.849825     20.35465     124.7235        19     1.336     0.900  71.94   0
       267    853.1130    348.8727 300.3242575 +22.7260248     270.8404     72.29314      1.161     2.39     3.656515     20.35465     47.89852         5     0.741     0.499  52.33   0
       268    575.3530    349.7754 300.2374409 +22.6430878     337.4904     72.16464      1.213     2.35     3.931575     20.35465      60.9603         5     0.821     0.402   9.00   0
       269    872.6033    345.2776 300.3314993 +22.7308275     598.5215     72.05433      1.391     3.26     3.694466     20.35465      70.2747        11     1.022     0.716   1.62   0
       270    395.3019    342.3468 300.1838201 +22.5869997     2568.871      72.2381      1.309     2.41     4.343022     20.35465     305.5395        22     1.098     0.923  33.53   0
       271    113.7667    339.8424 300.0971084 +22.5018775      852.576     72.20138      1.357     3.16      4.07469     20.35465     117.6901        15     1.093     0.850  -3.51   0
       272    364.6853    331.7354 300.1777394 +22.5747763     29994.02     72.25645      1.359     2.38     4.373037     20.35465     4299.157        68     1.302     1.175  62.90   0
       273    899.4061    329.2738 300.3450474 +22.7342521      1366.35     72.09112      1.368     2.74     3.799946     20.35465     174.6051        17     1.003     0.955 -38.36   0
       274    854.6611    327.1347 300.3317932 +22.7202399     362.4568     72.18301      1.237     1.85     3.720831     20.35465     52.05018         5     0.703     0.420 -67.26   0
       275     60.9619    319.5037 300.0873023 +22.4802056     4924.001     72.12789      1.587     2.88     4.263804     20.35465     509.5266        40     1.372     1.234  75.98   0
       276    938.4838    318.4060 300.3607571 +22.7428270     278.7088     72.07273      1.779     4.80     3.884989     20.35465     41.33892         7     1.633     0.400 -30.40   0
       277    814.4955    318.0188 300.3222323 +22.7055927     629.5859     72.05433      1.513     3.01     3.698801     20.35465     68.35558        11     0.929     0.788  55.80   0
       278    238.7760    317.8763 300.1430844 +22.5330550     455.0734     72.16464      1.517     4.86     3.952672     20.35465     51.99025         8     0.922     0.727  71.19   0
       279    462.9810    316.9518 300.2131152 +22.5999892     432.1104     72.18301      1.393     3.32     4.321011     20.35465     64.96998         9     0.926     0.730 -14.43   0
       280    775.1370    311.4375 300.3121027 +22.6919149     2025.777     72.14627      1.360     2.60     3.672477     20.35465     269.3099        21     1.109     0.968 -76.15   0
       281    583.3577    306.5079 300.2539703 +22.6330563     261.1292     72.14627      1.045     3.01     4.004875     20.35465     56.11672         6     0.838     0.514  41.18   0
       282    990.2165    304.6048 300.3813672 +22.7543449     633.7665     72.09112      1.297     2.83     3.933727     20.35465     80.28303        10     0.925     0.727  35.09   0
       283    652.8333    303.7081 300.2765118 +22.6530637     332.9701     72.10951      1.690     4.46     3.796349     20.35465     29.79085         5     0.791     0.716 -29.74   0
       284    436.9044    296.1611 300.2117460 +22.5862039     2246.012     72.12789      1.478     3.03     4.321011     20.35465     243.0308        24     1.308     0.908  52.09   0
       285    648.9847    295.2521 300.2780563 +22.6494812     307.5339     72.12789      1.080     2.11     3.785657     20.35465     56.78316         7     0.706     0.635  -5.67   0
       286    868.2322    289.9705 300.3480802 +22.7136198     267.0128     72.14627      1.447     3.20     3.851694     20.35465     33.29633         5     0.789     0.496  34.70   0
       287    876.0257    288.8023 300.3508885 +22.7156173     597.0449     72.09112      1.397     3.43     3.859754     20.35465     76.94551        12     0.999     0.855 -88.66   0
       288      8.9584    287.3638 300.0815759 +22.4553872     850.9775     72.21974      2.191     7.76     4.650572     20.35465      57.2185        19     1.871     0.900 -36.59  16
       289    758.4724    286.7845 300.3149079 +22.6798390     447.0468     72.14627      1.216     2.89     3.676474     20.35465     54.60888         8     0.840     0.654  36.91   0
       290    726.3477    285.7942 300.3052208 +22.6699339     319.6694     72.12789      1.480     2.47      3.66115     20.35465     48.17678         6     0.745     0.565 -37.67   0
       291    512.7697    275.6069 300.2420212 +22.6030315      1155.14     72.14627      1.275     2.41     4.294902     20.35465     174.1128        16     1.041     0.792  48.00   0
       292    598.0656    273.3444 300.2693072 +22.6279341     401.9243     72.20138      1.700     3.34     3.936741     20.35465     36.49212         5     0.761     0.424  19.89   0
       293    757.7013    267.3954 300.3209569 +22.6740352     2386.481     72.03593      1.380     2.45     3.759613     20.35465     299.3138        23     1.059     1.021 -84.95   0
       294   1018.9959    261.8062 300.4042271 +22.7506511     3144.598     71.98069      1.456     2.75     3.906046     20.35465     373.0589        29     1.182     1.133  78.31  16
       295    466.0228    251.2041 300.2353881 +22.5820158     675.6165     72.10951      1.282     2.71     4.326636     20.35465      83.9428        10     0.859     0.733  75.07   0
       296    171.5336    245.4305 300.1456819 +22.4920994       649.17     72.14627      1.487     3.15     4.416105     20.35465     76.86997        15     1.122     0.864  62.43   0
       297    140.8398    245.2791 300.1361928 +22.4828542     1359.766     72.12789      1.762     3.53     4.505664     20.35465     129.2953        22     1.216     1.167 -37.33   0
       298    878.1373    238.6100 300.3678272 +22.7018190     315.8946     72.07273      1.479     5.32     4.171992     20.35465     46.77617         7     1.327     0.621  86.61   0
       299    225.0304    237.4682 300.1648914 +22.5058501     413.2906     72.12789      1.220     2.57     4.315876     20.35465     80.79513         7     0.847     0.606 -15.60   0
       300   1019.7867    234.8271 300.4132243 +22.7431285     319.6165     71.90698      1.325     2.96     3.876079     20.35465     44.30281         6     0.746     0.558  45.08  16
       301     80.0364    234.1479 300.1209113 +22.4614292     334.1757     72.16464      1.564     4.86     4.737496     20.35465     33.27325         8     1.181     0.567   6.86   0
       302    900.6830    231.1842 300.3772641 +22.7064328     322.7078     72.10951      1.379     3.15     4.223083     20.35465     49.04715         6     0.740     0.615  46.68   0
       303    829.2411    228.8024 300.3557670 +22.6843612     639.7166     72.14627      1.471     3.06     4.293906     20.35465     84.90869        13     0.972     0.889  40.46   0
       304    419.7943    228.1543 300.2284796 +22.5615438     471.8701     72.14627      1.456     2.74     4.357737     20.35465     53.43502         8     0.778     0.679  54.39   0
       305    919.8583    222.1464 300.3861735 +22.7095737     109.5736     72.20138      1.082     2.65     4.272136     20.35465     46.16473         6     0.731     0.555 -31.16   0
       306    927.4630    217.9429 300.3899078 +22.7106412     2207.945     72.20138      1.460     2.59      4.28949     20.35465     264.8141        23     1.110     1.011  65.22   0
       307    345.9306    215.1213 300.2097297 +22.5356675     2064.941     72.25645      1.365     2.57     4.387118     20.35465     281.5504        23     1.054     1.028  69.64   0
       308    175.9111    210.8253 300.1582639 +22.4834771     383.9171     72.09112      1.648     6.15     4.401772     20.35465     37.97614         8     1.366     0.778  47.34   0
       309    423.7829    210.3396 300.2354974 +22.5576216     1118.366     72.09112      1.453     2.82      4.35572     20.35465     120.3747        17     1.060     0.912   0.52   0
       310    825.8846    209.4427 300.3609992 +22.6777904      565.195     72.10951      1.398     2.83     4.385459     20.35465     93.27746        10     0.964     0.743  55.64   0
       311    932.8396    206.6593 300.3952434 +22.7090056     387.7845     72.14627      1.326     2.67      4.32354     20.35465     51.26304         5     0.734     0.439  17.74   0
       312     21.9278    203.8675 300.1126806 +22.4353151     469.1191     72.18301      2.273     2.36     5.171917     20.35465     50.57815         6     0.888     0.758  37.49   0
       313    240.7237    202.5020 300.1811082 +22.5005142     715.1902     72.29314      1.368     2.48     4.411836     20.35465      93.9994        11     0.869     0.768 -56.26   0
       314    358.6888    201.9092 300.2179819 +22.5356959     239.3386     72.31147      1.344     3.64     4.361789     20.35465     40.55359         5     0.978     0.576 -17.80   0
       315    778.5670    199.3130 300.3495383 +22.6607121     1677.398     72.10951      1.353     2.38     4.271126     20.35465     204.7383        17     1.029     0.898  67.88   0
       316    843.5003    198.6600 300.3699861 +22.6799637     579.4899      72.2381      1.337     2.88     4.397477     20.35465     79.57619        12     0.935     0.837 -43.07   0
       317    262.0456    195.5927 300.1899772 +22.5049205     521.8268     72.16464      1.345     3.44     4.424944     20.35465     64.30819        13     0.973     0.947  26.97   0
       318    782.5823    190.6226 300.3536074 +22.6594159     791.0878     72.12789      1.382     3.41     4.336006     20.35465     94.49677        13     1.179     0.745 -89.74   0
       319    703.1423    190.0831 300.3290327 +22.6354757     1198.111      72.2381      1.308     2.67     4.037971     20.35465     180.5931        16     1.026     0.864  88.29   0
       320    551.8093    191.5445 300.2814344 +22.5905747     192.5441     72.14627      1.095     3.37     4.245943     20.35465     54.96073         5     1.000     0.329  23.29   0
       321    524.2195    186.4096 300.2745114 +22.5808351     295.7385     72.12789      1.069     1.88     4.276924     20.35465     49.47715         5     0.653     0.472  17.68   0
       322    898.6263    181.5860 300.3927066 +22.6915549     1240.759     72.16464      1.189     2.29     4.447494     20.35465     189.7139        16     0.999     0.834 -33.06   0
       323    629.3700    181.6940 300.3087766 +22.6109732     1011.548     72.05433      1.315     2.30     4.100587     20.35465     153.7482        14     0.970     0.798 -53.87   0
       324    910.4603    180.9166 300.3966132 +22.6949044     750.0407      72.2381      1.260     2.49     4.451245     20.35465     106.6728        11     0.836     0.802  23.68   0
       325    957.0789    180.1296 300.4114045 +22.7086304     238.8285     72.25645      1.110     3.91     4.396322     20.35465     34.72972         6     0.771     0.567  37.61   0
       326    669.2120    169.9665 300.3249868 +22.6195335     1175.908     72.12789      0.465     0.80      4.16555     20.35465     864.4901         5     0.410     0.274   7.10   0
       327     51.1960    167.9148 300.1334273 +22.4337712       385.83     72.07273      1.271     3.23     5.004059     20.35465     55.24894         7     0.871     0.526 -42.77   0
       328    261.2559    164.0616 300.1999545 +22.4956290     815.0684     72.21974      1.504     2.54      4.38342     20.35465     91.76111        11     0.873     0.779 -39.94   0
       329    123.2280    158.5894 300.1588283 +22.4526880     2316.117     72.14627      1.547     2.79     4.629711     20.35465      262.443        25     1.153     1.123  61.05   0
       330    946.3505    155.9886 300.4158863 +22.6984765     824.0719     72.16464      1.402     2.57     4.518393     20.35465     102.0343        10     0.843     0.772 -68.75   0
       331     72.9538    155.6245 300.1441703 +22.4367661     475.2903     72.16464      1.528     4.99     4.911583     20.35465       44.929         9     1.033     0.682 -82.30   0
       332    280.5652    152.0133 300.2098639 +22.4979553     5785.967     72.12789      1.454     2.57     4.393682     20.35465     710.9723        34     1.248     1.094  62.56   0
       333     64.8522    146.3554 300.1446583 +22.4316765     1444.478     72.16464      1.703     2.89     4.971928     20.35465     134.4154        21     1.142     1.069  12.93   0
       334    263.9919    142.9405 300.2076521 +22.4903832      670.483     72.09112      1.505     3.28     4.399209     20.35465     75.17793        12     0.932     0.898  46.35   0
       335    924.6736    133.6014 300.4163850 +22.6855504     3606.738     72.03593      1.463     2.61     4.537344     20.35465     438.9558        34     1.345     1.106  76.03   0
       336    227.1643    129.1662 300.2006681 +22.4753911     450.4537     72.21974      1.396     4.75     4.381397     20.35465      47.9324         8     1.160     0.551  57.58   0
       337    474.0130    128.5988 300.2776279 +22.5491855     585.9829     71.96227      1.250     2.98     4.325929     20.35465     95.98029        10     0.996     0.673  54.00   0
       338    588.2438    126.4715 300.3138740 +22.5827860     334.1496     72.10951      1.256     3.46     4.297946     20.35465     44.80461         5     0.748     0.462  18.74   0
       339    398.2732    120.6946 300.2566244 +22.5242264      659.165     72.29314      1.497     2.19     4.397149     20.35465     92.08884         9     0.792     0.710 -32.35   0
       340    402.2920    119.3819 300.2583001 +22.5250532     497.2729     72.07273      1.535     2.96     4.404183     20.35465     45.41348         5     0.715     0.462  15.92   1
       341    164.5995    117.7287 300.1849293 +22.4533564     678.1306     72.03593      1.496     4.59     4.392028     20.35465     83.58974        14     1.297     0.940  72.04   0
       342    525.6382    116.0687 300.2977567 +22.5610473     1730.482     72.10951      1.323     2.37     4.364236     20.35465     231.4822        19     1.053     0.899  53.68   0
       343    453.7730    116.4850 300.2752564 +22.5396421     443.4604     72.14627      1.126     2.68     4.373006     20.35465     76.25466        10     0.913     0.727 -50.56   0
       344     62.2066    116.3265 300.1535699 +22.4222628      301.162     72.09112      1.332     3.83      5.04577     20.35465     39.44325         7     0.842     0.618 -34.08   0
       345      4.1598    115.8943 300.1356810 +22.4047372     356.9572     69.22019      1.585     3.07     5.153244     20.35465      37.5588         5     0.770     0.511  35.72  16
       346    269.0716    111.5099 300.2194195 +22.4828782     459.0517     72.31147      1.423     3.03     4.439805     20.35465     47.67902        10     1.002     0.624  65.37   0
       347    813.8218    105.2257 300.3910280 +22.6442133     414.2481     72.12789      1.396     2.88      4.54182     20.35465     51.76518         6     0.727     0.623  29.77   0
       348    661.6789    102.1039 300.3446400 +22.5977706     281.4643     72.25645      1.319     3.25     4.381424     20.35465     39.60807         5     0.759     0.427 -72.50   0
       349    959.8703     99.8232 300.4383098 +22.6863668     221.3225     72.16464      1.188     1.88     4.514855     20.35465     56.75714         6     0.691     0.539  46.88   0
       350    299.5514     95.8518 300.2339717 +22.4875133     5839.967     72.18301      1.452     2.71     4.471176     20.35465     736.4225        38     1.321     1.086  58.54   0
       351    806.0582     96.5022 300.3914361 +22.6393810     409.9485      72.2381      1.229     2.27     4.542352     20.35465       58.634         5     0.713     0.547  81.97   0
       352    150.5698     94.9035 300.1879672 +22.4425973     754.5163     72.09112      1.613     4.51     4.516947     20.35465     96.24378        14     1.400     0.873  60.35   0
       353    271.7289     89.8473 300.2272667 +22.4774523     303.5857     72.12789      1.168     2.18     4.466665     20.35465      47.8284         6     0.720     0.534  38.71   0
       354    775.9393     87.4108 300.3849971 +22.6277515     276.6371     72.09112      1.358     4.72     4.547002     20.35465     38.70612         7     0.907     0.696  58.03   0
       355    315.1349     87.1482 300.2416385 +22.4896821     311.0745     72.18301      1.198     3.07     4.432285     20.35465     46.53536         8     0.814     0.669 -60.08   0
       356     61.5606     86.1784 300.1631402 +22.4134138     169.2706     72.18301      1.004     1.93     5.099519     20.35465     53.02913         5     0.657     0.477 -72.50   0
       357    545.6569     81.2371 300.3152776 +22.5570319     6144.123     72.14627      1.364     2.42     4.417648     20.35465      805.632        36     1.249     1.056  61.26   0
       358    431.0364     81.1855 300.2796229 +22.5226890     535.5886     72.14627      1.233     2.22     4.414444     20.35465     91.48811         8     0.774     0.614  30.34   0
       359    798.1855     70.8484 300.3972973 +22.6296473     824.2694     72.18301      1.562     2.56     4.607058     20.35465     100.1465        12     0.958     0.772  52.85   0
       360    890.8167     69.9914 300.4264476 +22.6571227     312.6438     72.07273      1.171     3.20     4.575164     20.35465     57.39886         6     0.890     0.465  54.41   0
       361    238.3885     65.0005 300.2249534 +22.4603257     519.6149     71.96227      1.430     4.52     4.409729     20.35465     52.54729        13     1.139     0.880  63.23   0
       362    596.9742     63.8502 300.3368888 +22.5674007     489.5467     72.16464      1.270     1.99      4.33644     20.35465     78.19781         6     0.695     0.533 -37.10   0
       363    674.0326     61.3212 300.3617053 +22.5897445     6264.862     72.12789      1.390     2.46     4.414749     20.35465     874.4179        37     1.248     1.094  89.50   0
       364    448.8398     60.2836 300.2919362 +22.5220151     1414.121     72.10951      1.344     2.78      4.30898     20.35465     184.3431        18     1.096     0.913  55.40   0
       365    715.2608     58.7262 300.3753885 +22.6013403     900.1507     72.18301      1.467     3.12     4.544279     20.35465     120.5065        13     1.066     0.857  28.21   0
       366    731.0113     54.8763 300.3815430 +22.6049480     693.8647     72.16464      1.406     2.92     4.607646     20.35465     80.01508        13     1.012     0.812  78.35   0
       367   1000.9105     52.4815 300.4664530 +22.6850259     476.4862     72.25645      1.361     4.29     5.090826     20.35465     60.33375         8     0.912     0.640  51.64   0
       368    197.6884     52.7136 300.2162834 +22.4446013     718.6568     72.31147      1.660     4.20     4.632381     20.35465     60.40276        14     1.113     1.006  64.20   0
       369    769.6189     50.6409 300.3949444 +22.6152860     358.2421     72.16464      1.155     2.75     4.651312     20.35465     56.35863         5     0.712     0.456  72.20   0
       370    718.2749     46.2117 300.3803830 +22.5986441     2785.055     72.16464      1.395     2.51     4.586181     20.35465     348.5221        26     1.229     0.997 -89.61   0
       371    358.8034     47.1057 300.2681962 +22.4912602     376.9022     72.05433      1.216     3.03     4.246067     20.35465     62.06126         9     0.899     0.676  20.64   0
       372    733.1245     44.8408 300.3854534 +22.6026948     869.6674     72.10951      1.594     3.83     4.647667     20.35465     93.07442        17     1.350     0.810  47.54   0
       373     11.6892     40.2503 300.1625326 +22.3852788     867.7607     72.14627      1.672     3.63     5.163143     20.35465     84.98018        17     1.198     1.005   4.92   0
       374    804.6526     37.8622 300.4100025 +22.6220963     1493.047     72.20138      1.361     2.36     4.688418     20.35465     220.5424        23     1.153     0.981  87.29   0
       375    882.6191     32.8010 300.4359443 +22.6439720     295.9701     72.07273      1.551     3.41     4.623104     20.35465     38.28467         5     0.864     0.535 -36.98   0
       376    742.6642     30.9308 300.3929330 +22.6015502     815.7001     72.20138      1.467     2.89     4.712887     20.35465     101.3085        11     0.957     0.758  59.38   0
       377    548.4759     30.2420 300.3326806 +22.5432185     1072.577     72.12789      1.333     2.64      4.40686     20.35465     128.6693        15     1.028     0.869 -61.61   0
       378    121.1634     30.3952 300.1997333 +22.4152599     571.1262     72.16464      1.364     3.21     5.212427     20.35465     63.13926        10     0.951     0.752  23.68   0
       379    147.0258     29.9740 300.2079062 +22.4228891     935.3524     72.10951      0.429     2.00      5.25356     20.35465     782.2766         6     0.415     0.300  89.54   0
       380    451.9473     28.5904 300.3031730 +22.5138379     809.9124     72.14627      1.499     2.89     4.205405     20.35465     99.25057        14     0.966     0.904 -83.03   0
       381    834.3967     27.0463 300.4227774 +22.6278867     391.5883     72.12789      1.446     3.58     4.674579     20.35465     51.23806         8     1.018     0.623  53.19   0
       382    196.2801   1018.4918 299.9022656 +22.7212597     227.2703     72.25645      1.186     5.03     73.59462     20.35465     32.91758         5     1.476     0.484  83.46  19
       383    791.6997     19.0397 300.4120651 +22.6128064     628.1215     72.14627      1.490     3.26     4.743721     20.35465     68.20107        10     1.005     0.659 -15.36   0
       384     16.1347     17.8972 300.1711556 +22.3801935     397.2431     72.25645      2.008     5.25     5.184108     20.35465     28.03813         7     1.037     0.751 -56.28   0
       385    282.7355   1014.7243 299.9303631 +22.7461364     1360.552     72.21974      2.797     7.98      67.3739     20.35465     61.43332        31     1.906     1.552  27.09  18
       386    271.3758    999.4396 299.9318043 +22.7383450     5019.424     72.18301      8.532    28.54     57.29774     20.35465     97.09207       410     6.512     5.139 -56.61  27
       387    538.4119   1014.7935 300.0098689 +22.8228914     334.7254     72.01752      1.791     5.00     2.377084     20.35465      35.4437         5     1.096     0.645  17.64   0
       388    405.7501   1013.6091 299.9689785 +22.7827414      541.882     72.14627      2.525     3.76     3.395738     20.35465     37.75226         5     0.973     0.418 -82.66   0
       389      5.8516   1012.1617 299.8451730 +22.6622584     815.4898     72.14627      4.652     5.08    -7.831219     20.35465     31.03753         6     1.353     0.539  44.58  17
