#   1 NUMBER                 Running object number                                     
#   2 X_IMAGE                Object position along x                                    [pixel]
#   3 Y_IMAGE                Object position along y                                    [pixel]
#   4 ALPHA_J2000            Right ascension of barycenter (J2000)                      [deg]
#   5 DELTA_J2000            Declination of barycenter (J2000)                          [deg]
#   6 FLUX_APER              Flux vector within fixed circular aperture(s)              [count]
#   7 FLUXERR_APER           RMS error vector for aperture flux(es)                     [count]
#   8 FLUX_RADIUS            Fraction-of-light radii                                    [pixel]
#   9 FWHM_IMAGE             FWHM assuming a gaussian core                              [pixel]
#  10 BACKGROUND             Background at centroid position                            [count]
#  11 THRESHOLD              Detection threshold above background                       [count]
#  12 FLUX_MAX               Peak flux above background                                 [count]
#  13 ISOAREA_IMAGE          Isophotal area above Analysis threshold                    [pixel**2]
#  14 A_IMAGE                Profile RMS along major axis                               [pixel]
#  15 B_IMAGE                Profile RMS along minor axis                               [pixel]
#  16 THETA_IMAGE            Position angle (CCW/x)                                     [deg]
#  17 FLAGS                  Extraction flags                                          
         1    705.7208     15.8256 300.4313018 +22.6044464      660.747     72.45879      1.250     2.64     4.953396     20.44283     103.0132        11     0.991     0.668 -89.73   0
         2    514.1083     14.0961 300.3721913 +22.5465815     1934.297     72.64311      1.355     2.52     4.421766     20.44283     276.0061        20     1.128     0.861  65.23   0
         3    237.0181     11.4631 300.2868422 +22.4628273     582.5515     72.42186      1.263     2.81     5.180951     20.44283     77.45823        11     0.973     0.751  -6.73   0
         4    410.7660     11.1018 300.3410000 +22.5147718     298.1039     72.44032      1.235     3.86     4.395257     20.44283      33.8366         6     0.771     0.554 -48.69   0
         5    471.4343      8.0091 300.3608818 +22.5320527     1234.989     72.44032      1.266     2.46     4.422763     20.44283     173.7233        18     1.055     0.858  77.13   0
         6    576.8817      4.6463 300.3947976 +22.5626613     1216.553     70.96693      1.255     2.33     4.536925     20.44283     203.7874        15     0.890     0.861 -44.42  16
         7    172.1227      3.4904 300.2692525 +22.4410925     346.0443     67.17202      1.335     2.79     5.163276     20.44283     60.87748         9     0.879     0.667 -69.31  16
         8    220.5585      1.7669 300.2848677 +22.4551104     391.3009     58.87534      1.280     2.98     5.207424     20.44283     57.41077         8     0.864     0.650  34.24  24
         9    194.4537   1004.6619 299.9510048 +22.7350367     649.2429     72.51413      1.870     4.92     11.77538     20.44283     59.88177        13     1.254     1.024 -18.94   0
        10    188.5084   1021.5054 299.9436746 +22.7380785     5518.682     67.19193     12.561    36.62     14.60916     20.44283     120.9003       423    11.476     5.003  38.82  26
        11    141.4823   1021.9851 299.9289052 +22.7240943     1028.727     65.06858      4.536     6.45      28.0688     20.44283     38.46233         9     1.785     0.655  56.57  26
        12    148.2804   1019.4705 299.9318360 +22.7254153     1537.295     72.56944      6.557    11.57     25.07461     20.44283     39.96329        19     2.444     1.525  24.98  19
        13    156.7143   1021.7823 299.9337042 +22.7286104     1367.883     65.90584      8.914    12.95     22.69917     20.44283      50.5059        35     2.366     1.972  46.87  27
        14    116.3788   1022.2492 299.9210196 +22.7166310     1477.254     63.82353      9.459    12.91     36.45885     20.44283      49.3787        39     2.787     1.664   8.36  27
        15     58.6043   1022.5876 299.9029623 +22.6993761     500.3055     62.14619      1.525     3.47     65.09411     20.44283     32.05016         5     1.098     0.317 -69.24  24
        16     48.8772   1014.0516 299.9027195 +22.6940090     1464.305     72.44032      9.978    14.23     64.73795     20.44283     42.68612        31     2.851     1.974  -4.44  19
        17     40.6604   1019.7726 299.8983054 +22.6931800     1929.931     72.23697      6.429    14.55     73.27011     20.44283     57.88577        59     3.317     1.776  26.10  27
        18     34.2368   1011.1827 299.8991063 +22.6887898     2724.947     72.45879      6.550    27.30     70.21191     20.44283      64.5744       144     6.186     3.344  53.27  19
        19     31.3723   1000.2370 299.9017792 +22.6847936     2002.743     72.45879     11.489    23.44     63.00461     20.44283     50.36241        86     5.823     2.620  79.15  19
        20     28.4353    994.7969 299.9026377 +22.6823529     1418.362     72.45879      3.939    11.66     60.24813     20.44283     52.44473        26     3.309     1.144 -11.89   3
        21    511.9275   1000.6193 300.0510574 +22.8291734     1496.078     72.45879      1.610     3.62     2.895148     20.44283     138.2192        21     1.277     0.975 -50.25   0
        22    336.3008    995.3090 299.9981474 +22.7749411     6370.804     72.62469      1.661     3.29     4.252973     20.44283     593.8714        45     1.429     1.308  72.88   0
        23    689.1763    997.4048 300.1072898 +22.8814291     205.3872     72.42186      1.375     4.93     3.065047     20.44283     40.86086         7     1.146     0.788 -89.40   0
        24    405.4484    997.2202 300.0190325 +22.7962440     1030.433     72.49569      1.664     4.17     3.117555     20.44283     94.77012        21     1.237     1.141  16.27   0
        25     52.0072    995.0256 299.9098842 +22.6894982     921.7432     72.45879     11.785    11.94     50.62839     20.44283     47.32492        20     2.945     1.347   3.93   3
        26    180.5846   1022.9670 299.9407363 +22.7361180      2827.48     60.28935      6.760    17.12      16.6633     20.44283     102.6841        79     5.654     1.441  11.16  27
        27     35.7515    987.9343 299.9071433 +22.6825843     1092.973     72.45879      7.553     7.10     51.71771     20.44283     44.95085        16     2.119     0.667 -80.88   1
        28     44.4538    983.1807 299.9113931 +22.6838360     708.0125     72.44032      3.950     4.68     45.30822     20.44283     53.71773        12     1.442     0.703  47.35   0
        29    368.9932    982.0516 300.0126300 +22.7809532     417.2343     72.45879      1.476     4.10      3.74816     20.44283     46.37011        11     1.070     0.699  88.09   0
        30     30.4580    977.4737 299.9089037 +22.6779974     2048.939     72.49569      7.293    19.31      45.0818     20.44283     56.84356        88     5.012     2.067 -30.00  19
        31    882.6205    974.0688 300.1751634 +22.9327455      2143.18     72.44032      1.673     3.51     2.939002     20.44283     169.1009        27     1.281     1.201 -24.65   0
        32     25.1116    969.0950 299.9099699 +22.6739912     1936.508     72.64311      5.297    17.38     39.88933     20.44283     43.59766        60     3.216     2.610 -54.89   3
        33    381.3936    970.0809 300.0203830 +22.7812428     215.6451     72.38492      1.363     4.39      3.52812     20.44283     31.13827         6     0.875     0.627  53.93   0
        34    565.1763    968.1780 300.0781910 +22.8358458     175.0428     72.42186      1.092     3.05     2.940706     20.44283     41.04393         5     0.925     0.338 -44.22   0
        35    671.6114    962.6906 300.1131181 +22.8662006     817.0973      72.4034      1.735     4.76     3.005057     20.44283     65.50325        16     1.377     0.790  48.11   0
        36    998.4037    961.7194 300.2152859 +22.9639107     515.9345     72.36644      1.661     6.25     3.009156     20.44283     46.69152        11     1.113     0.986 -24.93   0
        37    532.4894    971.2100 300.0670294 +22.8269084     428.4718      72.4034      1.714     6.08     2.902363     20.44283     34.12635        12     1.168     0.889 -35.03   0
        38    484.0149    958.1320 300.0561993 +22.8086127     485.9244     72.47723      2.048     4.75     2.897541     20.44283     32.17227         8     1.034     0.619 -62.96   0
        39    706.2726    956.9245 300.1257906 +22.8749424     1108.951     72.53257      1.541     3.11     2.953961     20.44283     105.4776        18     1.085     0.981  75.80   0
        40    728.4545    950.7300 300.1347166 +22.8798177     11203.39     72.49569      1.574     3.06     2.928195     20.44283     1001.254        46     1.297     1.280 -30.58   0
        41    919.8071    950.4534 300.1944430 +22.9371154     456.9913     72.45879      1.698     5.74     2.969539     20.44283     46.87714        12     1.181     1.083 -70.50   0
        42    774.0384    950.7563 300.1489100 +22.8934956      385.509       72.551      1.413     3.64     2.927785     20.44283     56.22014        10     0.988     0.843  74.39   0
        43    861.2899    943.5728 300.1784397 +22.9175964     214.3931     72.44032      1.530     4.87     2.932515     20.44283     32.07291         5     1.337     0.503  47.48   0
        44     40.4673    942.6081 299.9233580 +22.6710140     416.3778     72.45879      1.481     5.11     17.18938     20.44283     50.24179        10     1.259     0.741 -82.37   0
        45    433.7796    938.6563 300.0469062 +22.7879531     500.1394     72.47723      1.769     4.83      3.01378     20.44283     49.05109         8     1.032     0.652  40.54   0
        46    780.1595    937.8043 300.1550325 +22.8916141     399.2412     72.47723      1.426     4.06     2.927677     20.44283     39.26054         8     0.844     0.662  39.30   0
        47    737.0519    932.8580 300.1432112 +22.8772674      1459.14     72.51413      1.531     3.01     2.916934     20.44283     151.8289        19     1.120     1.026 -86.55   0
        48     82.5048    934.2055 299.9391494 +22.6812301     371.3774     72.34796      1.504     4.27     9.723198     20.44283     27.78862         6     1.049     0.495 -85.71   0
        49     34.4415    962.6443 299.9149667 +22.6749451     1822.797     72.53257      6.097    15.60     33.10575     20.44283     55.87875        43     3.384     1.999   3.68   2
        50    144.3218    933.8036 299.9584857 +22.6996766     1095.252     72.36644      0.662     0.62     7.007924     20.44283     498.2669         5     0.573     0.351 -24.32   0
        51    589.4990    930.1097 300.0981519 +22.8322223     554.9739     72.62469      1.705     5.91     2.904364     20.44283     44.34835        13     1.164     0.952 -52.73   0
        52    426.3796    931.2911 300.0470006 +22.7836203      279.376     72.38492      1.318     3.51      3.05215     20.44283     35.57341         5     0.771     0.462  75.99   0
        53    775.2194    926.2737 300.1572455 +22.8868234     829.1496     72.45879      1.759     3.50     2.949616     20.44283     67.66486        14     0.995     0.947 -21.64   0
        54    823.5528    917.4303 300.1751852 +22.8987779     657.8994     72.47723      1.543     3.63     3.042603     20.44283      62.7043        13     1.106     0.796  54.40   0
        55    674.9600    916.6951 300.1291293 +22.8540075      639.344     72.45879      1.399     3.47     2.979417     20.44283     72.57233        12     1.114     0.740   1.86   0
        56    387.5383    912.9708 300.0408788 +22.7667107     4189.858     72.47723      1.504     2.80     3.495533     20.44283     468.6354        31     1.211     1.151 -79.59   0
        57    686.1517    913.6879 300.1335937 +22.8565012     628.6259     72.45879      1.411     3.50     3.000774     20.44283     76.11693        11     1.024     0.842  46.08   0
        58    165.8640    902.0112 299.9755239 +22.6970319     408.6872      72.4034      1.710     4.92     4.452361     20.44283     37.35384         6     1.115     0.630  33.88   0
        59    430.6160    901.1109 300.0581387 +22.7762360     439.0403     72.38492      1.432     3.43     3.337124     20.44283     46.35016         7     0.872     0.598 -16.77   0
        60     49.0577    901.0356 299.9395522 +22.6616812      560.401     72.45879      2.342     4.78     5.483431     20.44283     36.00211         6     1.120     0.578  86.53   0
        61    112.8569    898.7744 299.9601065 +22.6801898     933.6664     72.45879      2.179     4.08     5.360135     20.44283      64.4406        18     1.183     1.038  55.60   0
        62     30.1192    900.6364 299.9338001 +22.6558797     583.2407     72.42186      1.781     3.36     5.359855     20.44283     44.53521         5     0.767     0.426 -20.57   0
        63     89.7884    895.7540 299.9539225 +22.6723978     1835.832     72.45879      1.948     4.02     5.443017     20.44283     129.8898        30     1.516     1.261  87.74   0
        64     21.3078    897.2491 299.9321655 +22.6522630     788.5706     72.49569      2.954     6.76      5.10552     20.44283     45.80666        12     1.386     0.924  75.03   0
        65    717.4175    891.8019 300.1504541 +22.8595970     397.1765     72.36644      1.629     3.47     3.145384     20.44283      35.3661         5     0.783     0.444 -70.56   0
        66    961.6365    884.7100 300.2288802 +22.9307784     2126.246     72.44032      1.682     3.17     3.354918     20.44283     172.0643        30     1.369     1.184 -32.87   0
        67    915.7598    883.0101 300.2151282 +22.9165393     2109.312     72.45879      1.572     3.27     3.368541     20.44283     179.6892        24     1.206     1.085  19.93   0
        68    621.1149    883.0002 300.1233244 +22.8281895     523.7284     72.32948      1.710     6.17     3.092695     20.44283     49.69614        12     1.239     0.865 -40.49   0
        69    392.5108    882.7645 300.0522534 +22.7595403     304.3331     72.44032      1.034     2.32     3.670724     20.44283     44.94748         5     0.696     0.481  74.35   0
        70    699.2491    877.2437 300.1495312 +22.8499706     650.8976     72.49569      1.361     3.39     3.239505     20.44283     78.47514        10     1.001     0.642 -66.59   0
        71    122.1645    877.3740 299.9699604 +22.6768506     446.6949     72.47723      1.148     3.07     4.107538     20.44283     61.67271         8     0.904     0.643  69.47   0
        72    266.0028    875.8782 300.0151517 +22.7195998     739.3541     72.36644      0.428    -1.52     3.716254     20.44283     633.6828         5     0.372     0.284 -42.46   0
        73    567.4787    871.1123 300.1104926 +22.8086907     4912.838     72.60629      1.435     2.66     3.111767     20.44283     553.1059        31     1.141     1.111  25.94   0
        74    689.6653    870.9160 300.1486047 +22.8452806     335.0969     72.56944      2.068     5.25     3.277655     20.44283     31.46836         5     1.611     0.483 -56.76   0
        75     56.8833    872.2305 299.9513536 +22.6557761      495.826     72.47723      1.805     3.28     3.927305     20.44283     51.35636         9     0.978     0.684 -19.34   0
        76    369.6875    868.0667 300.0499356 +22.7484764     690.4131       72.551      1.513     3.27     3.775424     20.44283     79.43439        13     1.090     0.825  73.21   0
        77    117.6054    864.9300 299.9725919 +22.6719150     1411.367     72.42186      1.758     3.69     3.522603     20.44283      137.069        24     1.344     1.104  47.44   0
        78    587.9418    863.6256 300.1192989 +22.8126805     782.2256     72.45879      1.472     3.00      3.13639     20.44283     80.69758        14     1.032     0.859 -78.71   0
        79    136.8074    862.4689 299.9793587 +22.6769743     553.3843     72.44032      1.596     6.08      3.50593     20.44283     53.89386        11     1.401     0.742 -55.43   0
        80    743.5978    850.7785 300.1719568 +22.8556732     4279.876      72.4034      1.431     2.65      3.37997     20.44283      432.908        33     1.189     1.125  24.46   0
        81    960.6920    850.6571 300.2396648 +22.9207168     1271.016     72.51413      1.663     4.12     3.549676     20.44283     92.81123        23     1.329     1.127 -32.79   0
        82    474.9646    847.7863 300.0892860 +22.7742465     361.6918     72.45879      1.583     3.89     3.391167     20.44283     29.94561         6     0.929     0.466  36.03   0
        83    152.2034    844.6280 299.9899460 +22.6764820     542.5264     72.42186      1.463     3.50     3.486067     20.44283     70.22867         9     1.062     0.620  85.29   0
        84    460.7278    843.2515 300.0863309 +22.7686746     490.4614     72.45879      1.215     2.71     3.491616     20.44283     73.08918        10     0.900     0.701  42.44   0
        85    106.7434    841.4081 299.9768683 +22.6619118     1083.062     72.44032      1.731     3.85     3.513441     20.44283     95.54192        16     1.170     0.991  74.09   0
        86    256.5339    833.4860 300.0259976 +22.7046028     53764.32     72.56944      1.570     2.79     3.659455     20.44283     5463.507       106     1.453     1.405  63.13   0
        87    522.0760    836.5710 300.1075961 +22.7851615     554.5569     72.44032      1.541     3.73     3.270642     20.44283     63.61877         9     0.991     0.667 -37.36   0
        88    514.3892    832.3877 300.1065643 +22.7816555     1667.613     72.34796      1.427     2.64     3.292006     20.44283     176.0461        20     1.128     0.979 -54.54   0
        89    927.3594    831.6194 300.2354640 +22.9052598     906.7747     72.47723      1.607     2.94     3.565233     20.44283     77.66264        13     0.955     0.851 -46.40   0
        90    184.8605    831.8568 300.0042486 +22.6826235      565.183     72.53257      1.620     4.25     3.511367     20.44283     49.44664        10     1.017     0.747 -16.48   0
        91    543.2347    828.3815 300.1168459 +22.7891585     917.0809     72.45879      1.413     3.08     3.264898     20.44283     102.4945        17     1.053     1.014 -71.62   0
        92    995.2160    826.3943 300.2583249 +22.9240951     319.7439     72.38492      1.566     5.48     3.646772     20.44283     31.48529         7     1.097     0.771 -31.24   0
        93    554.2501    826.6727 300.1208307 +22.7919722     750.0148     72.45879      1.503     2.61     3.262698     20.44283     86.60378        12     0.927     0.798  46.89   0
        94    873.8694    823.4189 300.2214551 +22.8868727     371.4553     72.47723      1.717     5.23     3.577501     20.44283     39.98421         6     1.091     0.708   8.05   0
        95    659.8290    822.8138 300.1549598 +22.8225284     502.2362     72.47723      1.228     2.62     3.414208     20.44283     78.04636         9     0.885     0.672 -71.84   0
        96    454.6353    820.2483 300.0919174 +22.7602479     321.9571     72.49569      1.256     3.56     3.528002     20.44283     39.96305         8     0.940     0.604  22.93   0
        97    306.2632    810.7350 300.0488592 +22.7130024      30996.7     72.49569      1.475     2.65     3.766223     20.44283     3403.732        79     1.354     1.319  72.61   0
        98    697.2600    813.3213 300.1697059 +22.8310279     739.9164     72.49569      1.397     2.67     3.488316     20.44283     84.86955        12     0.952     0.777 -15.24   0
        99    320.4909    811.2581 300.0531134 +22.7174217     1899.002     72.51413      1.403     2.83      3.76836     20.44283     220.1222        17     1.021     0.937  77.72   0
       100    829.3926    806.4717 300.2131040 +22.8686748     2745.719     72.44032      1.414     2.64     3.559473     20.44283     283.0488        22     1.054     1.007 -30.93   0
       101    317.2804    805.2272 300.0540764 +22.7147287     691.6724     72.47723      1.692     3.01     3.771198     20.44283     64.78153        12     0.960     0.829 -16.14   0
       102    587.3602    802.7076 300.1389333 +22.7950258     911.4613     72.45879      1.265     2.53     3.324049     20.44283     116.4898        13     0.914     0.807  76.75   0
       103    423.7596    802.6469 300.0880355 +22.7459360     353.1595     72.51413      1.399     3.96      3.76141     20.44283     53.39915         9     1.018     0.799   7.99   0
       104    188.7690    802.4094 300.0150406 +22.6753539     876.7153     72.45879      1.586     3.71     3.462548     20.44283     92.19186        16     1.137     0.968 -24.07   0
       105    481.6935    800.4592 300.1067736 +22.7626876     305.8424     72.51413      1.288     3.40     3.323653     20.44283     36.46271         5     0.731     0.456 -20.49   0
       106    434.3714    797.2488 300.0930927 +22.7475710     907.7178     72.47723      1.510     3.29     3.700768     20.44283      97.0789        15     1.097     0.902 -61.11   0
       107    835.6714    794.0735 300.2190934 +22.8669972     480.2488     72.53257      1.413     4.88     3.609256     20.44283     55.93295        14     1.249     0.831  89.23   0
       108    582.8821    794.6183 300.1401700 +22.7913614     347.9139     72.42186      1.615     4.55     3.400846     20.44283     38.51011         5     0.944     0.622  77.14   0
       109    336.1738    793.5668 300.0637442 +22.7170536     304.7729     72.47723      1.566     3.50       3.7997     20.44283     45.56509         7     0.974     0.774 -68.24   0
       110    380.3110    792.5440 300.0778048 +22.7300029       322.84     72.49569      1.280     2.52     3.824894     20.44283     57.35021         6     0.698     0.625  50.75   0
       111     21.8504    791.6555 299.9666790 +22.6221643     661.0194     72.49568      2.000     5.19     3.648815     20.44283      58.6893        11     1.318     0.887  64.08   0
       112    588.7750    791.6410 300.1429730 +22.7922743     365.0443     72.51413      1.246     2.96     3.430119     20.44283     42.82825         7     0.811     0.603 -28.97   0
       113    813.1858    788.6061 300.2138636 +22.8586873     383.6126     72.34796      1.418     3.29     3.600717     20.44283     48.81744         6     0.755     0.578  39.90   0
       114    186.4655    786.9371 300.0193563 +22.6702263     586.7515     72.49568      1.485     3.23     3.511722     20.44283     73.79549        11     0.938     0.841  27.15   0
       115    509.6010    777.1165 300.1230503 +22.7643610     584.5455     72.34796      1.368     2.52     3.499099     20.44283     66.94566         7     0.789     0.585  68.96   0
       116    479.2148    775.3220 300.1141772 +22.7547319     624.9681     72.47723      1.445     3.65     3.400086     20.44283     77.49869        10     1.171     0.638  55.66   0
       117    388.6550    774.6857 300.0862078 +22.7273834     286.0585     72.51413      1.220     4.07      3.91081     20.44283     48.86609         7     1.019     0.513 -60.87   0
       118    895.6989    771.7307 300.2450720 +22.8785727     1852.729     72.56944      0.775     2.49     3.785185     20.44283      524.961        30     1.159     1.094  56.33   0
       119    501.2797    772.8979 300.1218323 +22.7606547     1333.198     72.58786      1.274     2.32     3.483058     20.44283     181.3782        16     0.956     0.872 -43.67   0
       120    420.9525    772.4502 300.0969824 +22.7364312     324.2606     72.49568      1.171     2.07     3.920866     20.44283     50.34851         6     0.727     0.497   3.31   0
       121    582.6358    767.6623 300.1488597 +22.7835517     407.0521     72.47723      1.568     4.54      3.70728     20.44283     39.78124         7     1.062     0.552  44.59   0
       122    884.3847    763.1660 300.2443300 +22.8727223     1747.668     72.44032      1.392     2.76     3.840332     20.44283     182.1371        20     1.203     0.921  36.56   0
       123    652.1722    763.0161 300.1720232 +22.8030695     374.3138     72.47723      1.433     4.92     3.787838     20.44283     37.85273         7     0.955     0.718 -50.94   0
       124    247.2845    757.2946 300.0479000 +22.6799782     875.7357     72.64311      1.472     3.22     3.874609     20.44283      89.3427        15     1.051     0.903  -6.11   0
       125    113.1733    758.0715 300.0059673 +22.6399518     264.7134     72.44032      1.421     4.43     3.807169     20.44283      39.3908         5     0.794     0.705 -62.74   0
       126    710.6219    754.4440 300.1930163 +22.8181331     2407.991     72.51413      1.311     2.34     3.798693     20.44283     271.8378        24     1.273     0.991  -3.28   0
       127    915.3986    753.3542 300.2571900 +22.8791988      1678.33     72.45879      1.504     2.78     3.901607     20.44283     190.2983        21     1.179     0.954  70.90   0
       128     95.9427    741.0330 300.0061538 +22.6298950      535.207     72.47723      1.420     4.91     4.087524     20.44283     56.06071        10     1.057     0.798  83.45   0
       129    792.8431    740.4735 300.2231768 +22.8387694     626.9124     72.44032      1.457     4.25     3.803296     20.44283     60.84504        13     1.225     0.743  41.78   0
       130    828.9821    731.3763 300.2373976 +22.8469888       146493     72.45879      1.360     2.40     3.889338     20.44283     17609.18       157     1.402     1.356 -82.33   0
       131    591.5071    735.3466 300.1621298 +22.7769373     361.3881     72.51413      1.192     3.78     4.047414     20.44283     56.02556         7     0.959     0.495  85.05   0
       132    975.8370    733.0704 300.2826327 +22.8914827     1191.958     72.42186      1.468     3.03     4.164779     20.44283     122.1978        19     1.164     0.914 -60.42   0
       133    681.4232    731.5809 300.1913553 +22.8028159      779.283     72.45879      1.185     2.30     3.994807     20.44283      99.0696        12     0.840     0.808 -67.97   0
       134    291.2902    728.0000 300.0711067 +22.6847805     3505.705     72.32948      0.626     1.47     4.013873     20.44283     1825.315         7     0.902     0.289   0.00   0
       135    861.8067    724.3090 300.2499270 +22.8547967     489.8052     72.36644      1.286     3.48     3.955902     20.44283     59.10522        11     1.009     0.764 -56.60   0
       136    515.1961    720.4020 300.1432331 +22.7497644     1681.856     72.23697      1.334     2.38     3.927621     20.44283     208.6465        19     1.012     0.992  55.54   0
       137    696.4495    717.5487 300.2005982 +22.8032923     9365.569     72.49569      1.286     2.23     3.959827     20.44283     1105.265        38     1.161     1.071  88.77   0
       138    197.9865    712.7700 300.0470519 +22.6524160     4917.055     72.45879      1.423     2.58     3.893095     20.44283     572.5634        31     1.223     1.077  70.38   0
       139    279.9275    710.9233 300.0731254 +22.6764731     969.6272       72.551      1.378     2.79     4.013885     20.44283     133.2524        15     0.985     0.965 -87.83   0
       140    155.5440    708.6305 300.0352070 +22.6384923     553.0599     72.47723      1.527     3.41     3.795353     20.44283     59.52732         9     0.951     0.700  54.35   0
       141    488.3889    706.2123 300.1395032 +22.7376529     730.4331     72.34796      1.283     2.58     3.838148     20.44283     91.63055        13     0.911     0.848 -16.95   0
       142    479.9366    698.4435 300.1393984 +22.7328886     3173.165     72.45879      1.295     2.24     3.879288     20.44283     442.8406        25     1.065     0.971 -69.35   0
       143    470.1136    692.2458 300.1383563 +22.7281641     1400.003     72.44032      1.288     2.17     3.982481     20.44283     223.3223        14     0.881     0.837 -57.24   0
       144    863.6334    689.6338 300.2617702 +22.8453852     493.2779     72.53257      1.296     3.70     3.865457     20.44283     47.14863         9     0.979     0.646  87.84   0
       145    665.7481    690.6439 300.1997825 +22.7863643     231.9183     72.49569      1.515     4.15     4.080418     20.44283     38.37563         5     1.108     0.477  -2.28   0
       146    380.9078    689.3099 300.1115562 +22.7005661     341.5309     72.62469      1.320     4.10     4.099359     20.44283     47.18876         6     0.782     0.615  63.83   0
       147    133.5042    688.6698 300.0348468 +22.6261542     631.8995     72.58786      1.357     2.80     4.033535     20.44283     71.62189        12     0.978     0.764 -31.13   0
       148    147.4606    686.7038 300.0398227 +22.6297787      558.263     72.53257      1.573     4.72     4.016745     20.44283     71.23753        13     1.147     0.992  27.54   0
       149    394.9475    681.9784 300.1183069 +22.7026738     1853.074     72.45879      1.333     2.26     4.151294     20.44283     275.6932        20     1.061     0.915 -69.82   0
       150    204.6248    683.6169 300.0585920 +22.6460470     437.7467     72.45879      1.524     3.45     4.014585     20.44283     48.25684         7     1.071     0.484 -89.68   0
       151    173.5751    683.8015 300.0488816 +22.6367830     489.6512      72.4034      1.436     4.14     4.015668     20.44283       62.208         6     0.927     0.580 -21.86   0
       152    917.1463    683.1758 300.2805530 +22.8595652     512.0252     72.47723      1.306     2.74     3.970907     20.44283     77.06128         9     0.896     0.674  13.64   0
       153    493.8826    682.7981 300.1488245 +22.7325810     450.9917     72.36644      1.252     2.38     4.079295     20.44283     64.78814         8     0.790     0.639 -54.26   0
       154     48.8782    676.9379 300.0123694 +22.5973920     19688.71     72.53257      1.562     2.88     4.215077     20.44283     1981.398        66     1.426     1.332  61.57   0
       155    970.7303    679.1901 300.2985582 +22.8744744     811.5836     72.44032      1.300     3.06     4.147212     20.44283     98.71159        13     0.984     0.875 -83.89   0
       156    479.8790    677.0576 300.1463324 +22.7267341     1049.624     72.49568      1.339     2.29     4.092388     20.44283     144.4099        16     1.057     0.853 -64.77   0
       157    515.3090    676.2462 300.1576230 +22.7371259     464.3433     72.44032      1.256     2.95     4.205634     20.44283     50.97338         6     0.713     0.629 -29.54   0
       158    850.9729    672.9222 300.2632565 +22.8367915     268.9661     72.45879      1.338     2.78     3.817623     20.44283     56.15863         5     0.947     0.344  33.32   0
       159    535.5833    669.3276 300.1661827 +22.7412195     203.7558     72.45879      1.380     4.13     4.292568     20.44283     27.28721         5     1.002     0.486 -84.75   0
       160    232.9349    669.0161 300.0721380 +22.6503534     272.0771     72.44032      1.332     4.46     4.007366     20.44283     47.73445         6     0.783     0.721  -8.47   0
       161    764.5886    661.3980 300.2400808 +22.8075939     411.1028     72.27399      1.188     3.19      3.85598     20.44283     60.50395         7     0.839     0.633  69.46   0
       162     61.1498    661.1296 300.0213192 +22.5965426     418.1238     72.45879      1.397     5.33     4.156727     20.44283     49.84907         9     1.041     0.769 -23.61   0
       163    443.0073    657.5262 300.1412074 +22.7100714     472.9059      72.4034      1.455     4.22     4.235574     20.44283     68.26868        10     1.089     0.951  27.61   0
       164    897.8563    663.3181 300.2809940 +22.8480811     1003.253     72.49569      1.253     2.37      3.90584     20.44283     148.7392        14     0.932     0.830 -83.23   0
       165    838.3191    655.9771 300.2648206 +22.8281327     696.0248      72.4034      1.377     2.58     3.817346     20.44283     97.90391        12     0.902     0.824  22.79   0
       166    833.9818    655.9011 300.2634934 +22.8268112     429.4194     72.38492      1.233     2.24     3.817252     20.44283     64.51131         7     0.827     0.509 -44.19   1
       167    592.2083    654.5228 300.1886234 +22.7539477     180.0527     72.42186      1.086     3.42     4.245821     20.44283      34.1214         5     0.755     0.447 -21.50   0
       168    400.2165    650.2008 300.1302750 +22.6951359     772.0135     72.34796      1.295     2.47     4.197143     20.44283     122.0223        12     0.939     0.771  31.82   0
       169    547.9331    648.5956 300.1767658 +22.7389717     471.9603     72.44032      1.257     2.26      4.35388     20.44283     77.92785         8     0.774     0.657  82.92   0
       170    594.9833    647.0759 300.1919079 +22.7526419     451.5635     72.45879      1.301     3.15     4.270372     20.44283      77.9783        11     1.006     0.731  75.09   0
       171    565.7351    646.4332 300.1830106 +22.7436885     571.3112     72.45879      1.271     2.56     4.327638     20.44283     74.83256        10     0.949     0.675 -39.75   0
       172    444.2049    645.7966 300.1453925 +22.7070644     843.8629     72.27399      1.343     2.91      4.26699     20.44283     117.6025        15     1.016     0.898  69.96   0
       173    877.9373    641.4020 300.2819080 +22.8358174     3232.349     72.45879      1.288     2.31     3.847554     20.44283     407.3011        25     1.061     0.976  85.42   0
       174    409.6932    641.3801 300.1360901 +22.6954469     1592.992     72.38492      1.246     2.32     4.245055     20.44283     229.8494        18     1.018     0.844  69.43   0
       175    975.9476    639.3655 300.3131310 +22.8645956     695.3773     72.47723      1.291     2.74     4.106384     20.44283     93.47768        11     0.996     0.679  35.45   0
       176    774.7563    638.4576 300.2507057 +22.8040530     302.3067     72.45879      1.284     4.59     3.899526     20.44283     37.85725         7     0.919     0.652  73.75   0
       177    759.6266    637.1212 300.2464257 +22.7991350     335.2326     72.45879      1.366     3.40     3.951095     20.44283     36.86121         5     0.744     0.448 -72.21   0
       178    439.0673    632.0696 300.1482553 +22.7015842     292.9445     72.51413      1.105     2.27     4.300596     20.44283      51.5029         5     0.617     0.566  -4.46   0
       179    917.8571    631.2237 300.2976623 +22.8448538     455.4701     72.45879      1.278     2.35     3.929221     20.44283     69.96648         6     0.827     0.457 -37.33   0
       180    273.1502    628.2280 300.0978973 +22.6507178      9034.86     72.47723      1.350     2.41     3.952471     20.44283     1073.635        40     1.175     1.124  65.93   0
       181    395.5815    625.1727 300.1369674 +22.6865637     8842.883     72.47723      1.303     2.26     4.198686     20.44283     1224.942        41     1.192     1.050  70.22   0
       182    160.4375    622.6634 300.0646692 +22.6153063     251.8541     72.45879      1.141     4.14     4.124052     20.44283     41.72247         6     0.856     0.571  50.32   0
       183   1000.1146    620.1190 300.3269243 +22.8663046     944.3297     72.60629      1.449     3.26     4.142096     20.44283     120.2895        18     1.164     0.948 -68.12   0
       184    642.0175    621.5013 300.2148662 +22.7593992     327.3507     72.36644      1.186     2.71     4.294353     20.44283      47.9823         5     0.699     0.609  85.74   0
       185    891.8609    616.4328 300.2943643 +22.8328162     12344.46     72.49568      1.327     2.34     3.867517     20.44283     1568.586        47     1.238     1.092  75.19   0
       186    807.2432    619.0323 300.2671431 +22.8082091     2080.896     72.49568      1.371     2.36     3.816872     20.44283     266.2837        21     1.107     0.933  64.56   0
       187    456.1510    614.8111 300.1591799 +22.7017540     11560.51     72.47723      1.286     2.19     4.372187     20.44283      1667.84        43     1.149     1.079  78.33   0
       188    625.6759    610.6370 300.2133079 +22.7513813     568.1902     72.42186      1.200     2.32     4.365466     20.44283     86.16699        10     0.794     0.777  89.53   0
       189    183.5940    610.3898 300.0758543 +22.6187335     1262.614     72.31098      1.232     2.40     4.047332     20.44283     182.1147        16     0.941     0.925 -87.81   0
       190    341.5530    609.3696 300.1252971 +22.6658248     275.8517     72.47723      1.057     3.18     3.997616     20.44283     41.09615         5     0.713     0.471 -72.57   0
       191    430.4882    607.5624 300.1535503 +22.6919781     367.4228     72.44032      1.295     2.86     4.333229     20.44283     48.66309         6     0.875     0.416  20.58   0
       192    387.8048    602.9822 300.1417594 +22.6778635     4322.412     72.42186      1.327     2.21     4.159744     20.44283     644.7461        28     1.102     1.020  65.13   0
       193    730.8710    602.9476 300.2485728 +22.7807029     886.3199     72.44032      1.317     2.02     4.205932     20.44283     133.5234        10     0.872     0.691 -51.96   0
       194    366.0773    601.4796 300.1354889 +22.6709161      1077.38     72.56944      1.206     2.33     4.054051     20.44283      159.255        12     0.920     0.739 -85.42   0
       195    120.3603    600.9257 300.0592791 +22.5970464     711.8454     72.44032      1.403     2.58     4.017269     20.44283     88.21111        10     0.854     0.731 -11.15   0
       196    807.7082    598.2407 300.2740451 +22.8023765     1629.506     72.45879      1.488     2.79     3.819193     20.44283     156.5752        20     1.132     0.974 -68.93   0
       197    504.4451    590.5331 300.1820988 +22.7092660     197177.4     72.45879      1.250     2.14     4.430588     20.44283     24561.39       204     1.425     1.388 -73.25   0
       198     53.9959    598.7791 300.0393591 +22.5765166     353.8031     72.42186      1.294     2.65     3.983931     20.44283     37.98529         5     0.778     0.482 -57.16   0
       199    328.1923    596.7145 300.1252541 +22.6581863     336.8615     72.38492      1.360     3.74      3.96114     20.44283     46.62501         6     0.786     0.525 -49.92   0
       200    688.0970    595.4690 300.2376781 +22.7657358     889.6586     72.58786      1.268     2.22     4.281321     20.44283     134.3179        12     0.860     0.785   6.36   0
       201    781.5859    593.7884 300.2673513 +22.7932701     201.4873     72.38492      1.044     3.21     3.933582     20.44283     44.01565         5     0.748     0.429  66.79   0
       202    190.5556    590.4985 300.0844816 +22.6151163     3447.283     72.45879      1.378     2.29     3.972551     20.44283     437.2396        29     1.162     1.032  45.51   0
       203    272.8503    590.2809 300.1101352 +22.6397409     172.3879     72.47723      1.145     2.80     3.911734     20.44283     46.16545         6     0.871     0.631 -69.99   0
       204    369.6520    587.7684 300.1410562 +22.6680535     342.2781     72.47723      1.577     4.71     4.044687     20.44283     32.56564         7     1.423     0.442 -54.76   0
       205    756.3300    586.4379 300.2618701 +22.7835907     545.3086     72.42186      1.269     2.45     4.100454     20.44283     71.15075         7     0.768     0.597  72.66   0
       206   1007.8898    584.4233 300.3409502 +22.8583758     6635.697     72.38492      0.649     0.78     4.027472     20.44283     3317.056         8     0.512     0.357 -86.22   0
       207    775.4318    584.4946 300.2684537 +22.7887566     152.1491      72.4034      1.043     3.95     3.981972     20.44283     43.94814         5     0.985     0.454  13.90   0
       208    535.8903    577.0757 300.1962594 +22.7148303     290.1323     72.60629      1.350     2.83     4.484294     20.44283      48.2426         7     0.841     0.636 -38.88   0
       209    395.0704    571.1545 300.1543615 +22.6709082     2750.611     72.44032      1.450     2.53      4.12177     20.44283     379.2428        31     1.528     1.023 -88.99   0
       210    239.4330    573.5578 300.1051793 +22.6249190     425.4727     72.51413      1.057     2.40     3.892727     20.44283     71.10704         6     0.717     0.573  44.08   0
       211    806.4995    566.9395 300.2838398 +22.7930229     481.2744       72.551      1.413     3.83     3.823232     20.44283     48.74519         6     0.844     0.499 -87.49   0
       212    625.2949    566.3151 300.2275917 +22.7385408     369.4041     72.64311      1.342     3.54     4.471802     20.44283     50.23969         8     0.914     0.661  -3.47   0
       213    499.3042    566.5180 300.1883020 +22.7008309     257.3423     72.60629      1.491     3.41     4.394089     20.44283     38.63476         5     0.779     0.432 -22.75   0
       214    712.1845    559.4575 300.2568831 +22.7626126     334.2009     72.44032      1.080     2.67     4.304102     20.44283     55.80994         8     0.813     0.656  43.42   0
       215    791.9261    556.9329 300.2825495 +22.7857819     1821.166     72.53257      1.335     2.32     3.879724     20.44283     250.5511        18     0.981     0.934 -69.28   0
       216    663.1832    554.5721 300.2432069 +22.7465244     2542.725     72.45879      1.217     2.06     4.410603     20.44283      377.193        23     1.039     0.888  77.21   0
       217    907.4542    551.9990 300.3201643 +22.8189752     418.6688     72.38492      1.346     3.36     3.877794     20.44283      70.1796         9     1.067     0.596  83.34   3
       218    906.0970    547.8504 300.3210891 +22.8173766     808.5574     72.53257      1.395     3.68     3.878029     20.44283     88.21831        15     1.229     0.820 -68.85   2
       219    872.7192    551.3626 300.3095418 +22.8083871      322.406     72.42186      1.123     2.46      3.90969     20.44283     51.85453         5     0.709     0.451 -17.83   0
       220    567.9423    551.1467 300.2146621 +22.7169943     392.6774     72.51413      1.168     2.37     4.545896     20.44283     70.49263         8     0.783     0.641  56.92   0
       221    450.2401    550.4824 300.1782430 +22.6815174     795.1861     72.42186      1.338     3.30     4.240683     20.44283     100.7525        13     1.015     0.916 -41.89   0
       222    920.5049    548.5212 300.3253635 +22.8218851     1223.224     72.56944      1.267     2.38     3.862656     20.44283     155.3902        16     0.942     0.906  53.03   0
       223    792.3378    547.0736 300.2858811 +22.7830731     2187.336     72.49569      1.438     2.50     3.881736     20.44283      255.473        22     1.416     0.853  71.25   0
       224    545.6047    545.0076 300.2097026 +22.7085357     719.5323     72.31098      1.720     2.05     4.558558     20.44283     88.52551         6     0.750     0.488 -87.86   0
       225    384.1053    543.8635 300.1598171 +22.6597874     394.5198       72.551      1.212     2.98     4.015567     20.44283     58.93979         8     0.874     0.687  81.13   0
       226    830.4822    542.0212 300.2994108 +22.7930499     4245.205     72.42186      1.264     2.22     3.865022     20.44283     568.7676        25     1.049     0.962 -87.24   0
       227    331.7170    544.9431 300.1431712 +22.6443871     347.4724       72.551      1.314     2.97     3.876665     20.44283     46.45943         7     0.721     0.668  57.52   0
       228    568.3103    538.7963 300.2187892 +22.7135585      232.101     72.36644      1.109     4.22     4.526503     20.44283     40.06902         7     1.077     0.472 -60.39   0
       229    491.1897    538.3506 300.1949279 +22.6903119     283.2074     72.47723      1.474     3.65     4.314649     20.44283     50.69702         5     0.996     0.385 -85.46   0
       230     62.6151    532.5314 300.0635592 +22.5601037      1068.39     72.47723      1.591     3.17     3.884439     20.44283     127.1732        18     1.176     0.956  71.49   0
       231    922.1447    532.5412 300.3310667 +22.8177844     757.6637     72.53257      1.289     2.44     3.849694     20.44283      108.689        10     0.889     0.776  55.99   0
       232    861.8284    529.5721 300.3132263 +22.7988638     292.5786     72.42186      1.195     3.43     3.895742     20.44283     35.23971         5     0.798     0.427  21.82   0
       233    723.4092    525.7151 300.2713427 +22.7562846      335.828      72.4034      1.288     4.79     4.289086     20.44283     42.07956         9     1.145     0.756 -88.57   0
       234    328.6418    525.5782 300.1485057 +22.6379075     269.1247     72.49569      1.480     3.78     3.883271     20.44283     38.59251         6     0.894     0.478 -87.60   0
       235     54.9792    522.7805 300.0643547 +22.5550158     492.5092     72.45879      1.555     2.30     3.902921     20.44283     61.48438         8     0.776     0.652 -37.43   0
       236    662.5637    516.6656 300.2553290 +22.7354523      544.411     72.45879      1.295     2.91     4.335699     20.44283     54.77266         5     0.701     0.470  72.32   0
       237    271.3648    514.5936 300.1342626 +22.6175779     292.3368     72.45879      1.211     4.53     3.887095     20.44283     42.78093         7     0.881     0.684 -63.82   0
       238    603.8525    512.4957 300.2383996 +22.7166593      820.336     72.53257      1.288     2.86     4.407615     20.44283     129.7487        12     1.007     0.773  83.46   0
       239    551.8064    514.3771 300.2215840 +22.7015999     424.2745     72.44032      1.418     2.11     4.388839     20.44283     56.36732         5     0.713     0.428 -23.41   0
       240   1011.3627    510.2710 300.3661267 +22.8381044     991.7875     72.44032      1.348     2.73     3.933842     20.44283      126.883        16     1.048     0.877  80.57   0
       241    342.4449    507.8378 300.1585614 +22.6369552     114.7771     72.51413      1.310     4.64     3.889529     20.44283     25.00149         5     1.174     0.522  31.44   0
       242    918.4354    504.9777 300.3388647 +22.8087526     615.7305     72.47723      1.350     2.63     3.831852     20.44283     84.34583        12     1.033     0.704  73.15   0
       243    664.7043    504.7638 300.2598620 +22.7326755     844.6215     72.45879      1.182     2.19     4.291288     20.44283     123.8154        11     0.845     0.736  69.70   0
       244    821.9443    500.9653 300.3100875 +22.7786966      1037.51     72.47723      1.324     2.54     3.825983     20.44283     153.8822        15     1.033     0.819  62.62   0
       245    806.1566    497.2487 300.3063743 +22.7728992     877.2614     72.49569      1.523     2.30     3.817964     20.44283     109.7228        10     0.862     0.669  66.04   0
       246    550.4120    495.3718 300.2273235 +22.6957248      3125.67     72.45879      1.194     2.10     4.283215     20.44283     405.1555        27     1.059     0.978  82.49   0
       247    910.9061    494.1978 300.3400188 +22.8033997     571.1818     72.36644      1.236     2.30     3.824538     20.44283     92.63538         9     0.804     0.674  69.41   0
       248     25.9632    486.8501 300.0670121 +22.5360043     480.1182     72.47723      2.216     4.62     3.936124     20.44283     38.11831         6     1.023     0.592  74.82   0
       249   1021.9354    482.8682 300.3783265 +22.8333938     475.4814     65.33521      1.362     3.22     4.023538     20.44283     74.00795        10     0.919     0.766 -62.16  16
       250    390.0707    482.2443 300.1816888 +22.6438893     370.5385     72.42186      1.296     3.05     4.047031     20.44283       53.948         6     0.884     0.451  37.06   0
       251    937.9586    480.9633 300.3527533 +22.8076985     250.3082       72.551      1.328     3.97     3.835025     20.44283     39.19227         5     0.839     0.538 -61.24   0
       252    961.8420    474.3234 300.3623581 +22.8129426     1375.965     72.42186      1.336     2.57      3.89049     20.44283     170.1594        21     1.077     1.018  74.86   0
       253    833.5513    474.2842 300.3223719 +22.7745073     542.6605     72.44032      1.121     2.28      3.80936     20.44283     83.90388         7     0.839     0.490  82.71   0
       254    920.1606    473.1609 300.3497377 +22.8001258     912.6465     72.53257      1.338     2.43     3.812607     20.44283     139.6468        15     0.980     0.833  77.43   0
       255    661.0745    469.2761 300.2702583 +22.7213949     1037.179       72.551      1.282     2.23      4.21445     20.44283     151.2915        15     0.947     0.853 -83.27   0
       256    456.7178    469.8412 300.2064537 +22.6603091     334.3264     72.42186      1.060     2.46     4.159866     20.44283     80.06463         8     0.834     0.651  70.00   0
       257    165.0385    467.7840 300.1164136 +22.5722560     578.9996     72.47723      1.168     1.97     3.907288     20.44283     95.29309         8     0.728     0.631 -61.33   0
       258      4.6850    465.8534 300.0672223 +22.5235976     67.61192     71.07991      5.973     4.47     3.960352     20.44283     28.17201         6     1.158     0.491  44.94  16
       259    960.4920    461.6766 300.3660448 +22.8089033     4420.094     72.60629      1.306     2.27     3.885868     20.44283      582.923        33     1.174     1.033  77.59   0
       260    227.3397    463.3580 300.1372161 +22.5896717     3853.084     72.44032      1.349     2.34     3.906565     20.44283     448.9899        28     1.172     1.006  71.28   0
       261    174.5610    458.1491 300.1225021 +22.5723477     7525.327     72.47723      1.358     2.39     3.907769     20.44283     964.0867        39     1.210     1.101  63.53   0
       262    315.3981    452.3313 300.1681772 +22.6129136     4846.278     72.42186      1.278     2.21     4.068879     20.44283     610.9908        31     1.179     0.982  83.64   0
       263    940.4400    452.6681 300.3627174 +22.8003092     1728.545     72.42186      1.238     2.10     3.839647     20.44283     271.3008        19     1.010     0.896  75.43   0
       264    559.5201    449.0084 300.2452173 +22.6851406     18236.35      72.4034      1.280     2.09     4.210805     20.44283     2733.469        60     1.279     1.149  45.73   0
       265    406.8008    450.4919 300.1972059 +22.6397898     347.1904     72.32948      1.269     2.82     4.141862     20.44283     45.77709         7     0.838     0.594 -77.87   0
       266    577.3234    448.7269 300.2508515 +22.6903953     791.9156     72.53257      1.968     6.21     4.222591     20.44283     65.80502        14     1.609     0.673 -51.15   0
       267    959.3039    448.8570 300.3698379 +22.8048628     243.6994     72.53257      1.101     4.34     3.883557     20.44283     39.61434         6     0.972     0.552 -27.74   0
       268    756.5674    439.6660 300.3096235 +22.7414993     357.2345     72.45879      1.240     3.21     3.946785     20.44283     51.45805         5     0.711     0.476  74.93   0
       269    179.6154    436.2174 300.1311949 +22.5675704       314.12     72.44032      1.389     3.44     3.910646     20.44283     34.27918         5     0.741     0.461 -74.38   0
       270    893.2169    431.2287 300.3549554 +22.7800051     929.7416     72.45879      1.479     2.91     3.791014     20.44283     105.2006        14     1.045     0.812 -52.27   0
       271    114.2255    429.2091 300.1131497 +22.5459469     1942.745     72.45879      1.364     2.51     3.924711     20.44283     216.8324        21     1.097     0.953  49.95   0
       272    500.2062    418.4492 300.2366772 +22.6585880     6390.966     72.44032      1.236     2.20     4.168739     20.44283     896.4431        33     1.120     0.992  73.51   0
       273    913.7391    418.6126 300.3654511 +22.7825249     1178.952     72.42186      1.212     2.14     3.802562     20.44283     193.7233        13     0.873     0.793  50.04   0
       274    485.1954    419.6133 300.2316274 +22.6544233     165.2214     72.32948      1.264     3.47     4.158417     20.44283     23.81052         5     0.782     0.445 -17.88   0
       275    214.9538    417.9409 300.1481138 +22.5729236     734.8698     72.49568      1.508     3.02     3.913236     20.44283     88.45271        12     0.973     0.798 -88.18   0
       276     72.3624    411.2220 300.1059834 +22.5282291     490.7032     72.47723      1.530     3.00     3.974977     20.44283     48.99059         8     0.855     0.659   0.76   0
       277    759.7228    409.9453 300.3202581 +22.7339051     294.8138     72.49569      1.415     4.27     3.836808     20.44283     40.84093         9     1.003     0.640 -33.53   0
       278    613.9674    408.3559 300.2753713 +22.6897808     484.5597     72.51413      1.206     2.49     4.174104     20.44283     76.20042         9     0.901     0.601  48.72   0
       279    704.5522    407.2676 300.3039385 +22.7166084     1071.836     72.45879      1.270     2.25     4.030975     20.44283     144.7214        15     0.962     0.859 -53.99   0
       280    406.8593    404.7415 300.2120801 +22.6266723     6200.454     72.53257      1.290     2.11     4.216843     20.44283     966.5768        39     1.165     1.080  82.47   0
       281    187.8523    407.0037 300.1432407 +22.5616574     209.7715     72.45879      1.225     2.88     3.932889     20.44283     40.40045         5     0.887     0.615  59.41   0
       282    798.7939    399.1562 300.3359370 +22.7425081     1463.857     72.47723      1.261     2.12      3.80213     20.44283     234.6813        15     1.086     0.769 -88.98   0
       283    896.1871    399.0828 300.3663202 +22.7716554     467.2551     72.44032      1.277     2.34     3.807983     20.44283     93.42328         9     0.789     0.766 -85.64   0
       284    391.4386    393.8831 300.2108080 +22.6189322     381.3983     72.42186      1.133     3.48     4.274899     20.44283      57.8896         7     0.901     0.624  69.95   0
       285    474.2805    391.6805 300.2373000 +22.6431306     486.2317     72.58786      1.281     2.25      4.16643     20.44283     58.40926         7     0.775     0.586  67.62   0
       286    771.5839    386.5965 300.3315354 +22.7307488     542.9577     72.36645      1.089     2.34     3.808378     20.44283     93.95772         8     0.794     0.649 -69.52   0
       287    294.3914    383.9967 300.1838328 +22.5870001      2569.71     72.27399      1.291     2.17      4.40543     20.44283     352.6026        22     1.073     0.920  71.32   0
       288     12.7466    381.3768 300.0971546 +22.5017838     987.2953     72.47723      1.464     3.08     4.317209     20.44283     115.1441        17     1.112     0.929  27.36   0
       289    263.6875    373.3941 300.1777275 +22.5747510     29474.14     72.36644      1.320     2.32     4.313441     20.44283     3620.722        74     1.333     1.169  66.09   0
       290    798.4738    370.6426 300.3450950 +22.7342180     1396.178     72.44032      1.220     2.28     3.779524     20.44283     204.4014        17     1.065     0.879  61.09   0
       291    713.6727    359.4788 300.3222957 +22.7056099     570.6036     72.56944      1.348     2.29     3.945617     20.44283     84.85958         9     0.908     0.590 -87.73   0
       292    361.9755    358.6420 300.2130836 +22.5999819     496.1676     72.51413      1.278     3.77     4.455895     20.44283      75.8254         9     1.000     0.605  22.76   0
       293    137.9623    359.5446 300.1431427 +22.5330761     363.9126     72.45879      1.147     2.05     3.934046     20.44283     70.45985         6     0.732     0.495   6.00   0
       294    541.0156    355.7294 300.2697434 +22.6528047     102.7713     72.47723      1.246     4.19      4.15723     20.44283     31.98988         5     0.841     0.596 -88.15   0
       295    674.2089    352.9871 300.3121096 +22.6919229     1897.873     72.34796      1.240     2.00     4.194087     20.44283      331.476        16     0.952     0.800  86.49   0
       296    482.4225    347.8827 300.2540526 +22.6329927     432.0952     72.42186      1.331     2.43     4.168803     20.44283     62.56348         6     0.768     0.492  86.22   0
       297    889.1886    345.8346 300.3814262 +22.7542538     628.4559     72.44032      1.263     2.43     3.859607     20.44283     92.22398        11     0.887     0.746  39.49   0
       298    335.8501    337.7215 300.2117483 +22.5861440     2132.926     72.45879      1.458     2.57     4.481217     20.44283     292.5386        26     1.294     0.953  71.26   0
       299    548.1500    336.5513 300.2781900 +22.6494338     347.2665     72.49568      1.111     2.41     4.173646     20.44283     52.60071         5     0.778     0.519  54.05   0
       300    775.0400    330.5676 300.3508019 +22.7156825     590.2539     72.49569      1.104     2.01     3.972191     20.44283     118.9777         9     0.827     0.597 -72.86   0
       301    767.5123    331.3309 300.3482083 +22.7136473     310.5041     72.60629      1.073     2.91     3.974558     20.44283     40.33624         5     0.706     0.471 -71.54   0
       302    657.2025    327.8394 300.3149758 +22.6796029     416.4648     72.47723      1.047     2.56     4.200418     20.44283     79.05637         6     0.723     0.584  57.55   0
       303    411.7226    316.9679 300.2420870 +22.6029261     1187.683     72.44032      1.264     2.31      4.41101     20.44283     188.2603        14     0.958     0.763  65.51   0
       304    496.9780    314.6351 300.2693748 +22.6278052     349.8995     72.47723      1.714     2.73     4.249604     20.44283     42.82481         5     0.766     0.542  87.27   0
       305    923.2471    313.0200 300.4026977 +22.7550178      371.421     72.49568      1.162     2.06     4.003547     20.44283     60.57455         7     0.711     0.616 -83.06   0
       306    794.9552    309.9643 300.3636959 +22.7157251     226.6605     72.51413      1.081     2.90     4.155663     20.44283     47.52084         5     0.613     0.607 -12.45   0
       307    656.5123    308.9311 300.3208981 +22.6739632     2190.001     72.60629      1.279     2.14     4.257772     20.44283     329.1953        21     1.021     0.926  71.69   0
       308    917.8766    303.1786 300.4042174 +22.7505805     3054.244     72.45879      1.278     2.19     4.014979     20.44283      453.375        27     1.096     0.980 -89.84   0
       309    978.9556    298.0405 300.4249332 +22.7673882     439.7733     72.53257      1.345     2.69     4.048743     20.44283     57.03156         5     0.636     0.571   1.32   0
       310    364.8947    292.6670 300.2354056 +22.5819128     498.0084     72.60629      1.181     2.71     4.466126     20.44283     81.83598        10     0.886     0.708  85.82   0
       311    987.4279    291.0029 300.4298599 +22.7679007     1634.757      72.4034      1.261     2.31     4.063337     20.44283     237.7918        17     1.030     0.846 -81.23   0
       312     39.7999    286.9951 300.1361908 +22.4828179     1476.159     72.27399      1.656     3.14     4.407796     20.44283     143.5612        24     1.265     1.094  -9.54   0
       313     70.5665    286.8991 300.1457796 +22.4920171     637.9296     72.44032      1.572     3.13     4.346057     20.44283     74.02687        11     0.933     0.817 -49.13   0
       314    933.8524    283.4709 300.4155954 +22.7496970     330.4115     72.44032      1.168     3.09     4.067384     20.44283     70.31486         9     0.891     0.748 -14.63   0
       315    777.6908    280.4553 300.3678929 +22.7020734     354.3092     72.51413      1.264     3.98      4.34664     20.44283     48.26905         6     0.896     0.593 -61.86   0
       316    123.6715    278.8842 300.1648805 +22.5056413     383.6622     72.56944      1.335     1.91     4.205451     20.44283     69.53622         5     0.698     0.431  70.11   0
       317    918.6629    276.1103 300.4132477 +22.7430334     304.6247       72.551      1.226     2.92     4.090347     20.44283     59.64568         8     0.884     0.716  50.02   0
       318    799.7910    271.9594 300.3775376 +22.7062492     341.4576     72.45879      1.111     2.35     4.347299     20.44283     50.72254         6     0.717     0.553  46.16   0
       319    728.0477    270.2928 300.3557223 +22.6842858     622.4749     72.47723      1.299     3.89     4.347714     20.44283     88.82494        12     1.243     0.697 -66.05   0
       320    318.7024    270.3136 300.2282920 +22.5616490      354.321     72.62469      1.315     3.64     4.419408     20.44283     61.56878         6     0.903     0.450 -83.92   0
       321    819.0063    263.8102 300.3861711 +22.7096603     381.6292     72.31098      1.406     3.78     4.288293     20.44283     45.21949         5     0.826     0.496 -66.41   0
       322    826.3826    259.2945 300.3899356 +22.7105708     1973.781     72.38492      1.156     2.13     4.273072     20.44283     277.6836        20     1.019     0.836  76.18   0
       323    244.9064    256.6596 300.2097751 +22.5356085     2152.412       72.551      1.375     2.52     4.389243     20.44283     288.3322        23     1.128     0.969  61.66   0
       324    322.7574    251.8633 300.2355401 +22.5575663     987.8213     72.45879      1.367     2.67     4.447614     20.44283     131.4841        14     1.026     0.824   2.21   0
       325     74.3933    252.1989 300.1582281 +22.4832060     345.6613     72.27399      1.531     2.16     4.386178     20.44283     43.85417         5     0.668     0.477  76.99   0
       326    724.8769    250.9691 300.3610051 +22.6777824     579.1838     72.44032      1.273     2.11     4.348475     20.44283     95.05473         9     0.729     0.722 -66.27   0
       327    831.9083    247.7825 300.3953937 +22.7089158      356.161     72.38492      1.128     2.38      4.27656     20.44283     53.83523         7     0.705     0.655   0.93   0
       328    139.6789    244.0115 300.1811703 +22.5004311     844.5995     72.44032      1.543     3.19     4.368386     20.44283     97.79488        14     0.985     0.963  18.61   0
       329    257.8870    242.9407 300.2182624 +22.5355605     268.7983       72.551      1.410     3.63     4.430304     20.44283      30.9875         5     0.985     0.385  31.00   0
       330    677.5007    240.8192 300.3495396 +22.6606768     1676.098     72.38492      1.263     2.19     4.344827     20.44283     238.5155        21     1.053     0.968  49.20   0
       331    742.1901    240.0996 300.3699265 +22.6798429     449.1964     72.36644      1.206     2.56     4.349937     20.44283     75.51753         9     0.795     0.695  50.57   0
       332    160.8353    237.4143 300.1898857 +22.5048802     505.9958     72.45879      1.313     2.42      4.42145     20.44283     86.02265         9     0.836     0.705 -29.79   0
       333    948.9216    233.0416 300.4366598 +22.7397071     1058.582     72.44032      1.402     2.87     4.332857     20.44283     124.0107        13     1.070     0.736 -80.35   0
       334    681.6220    232.2053 300.3536183 +22.6594355     835.4128     72.44032      1.256     2.18     4.343981     20.44283     112.8259        11     0.888     0.684  33.57   0
       335    601.9677    231.5445 300.3290245 +22.6353882     1230.279     72.47723      1.254     2.26      4.30552     20.44283     202.3619        16     1.069     0.805  77.40   0
       336    450.6748    232.8072 300.2815185 +22.5904264      392.298      72.4034      1.324     2.94     4.377944     20.44283     61.48856         8     0.857     0.775  60.53   0
       337    423.0510    227.7976 300.2745482 +22.5807104     341.7124     72.45879      1.229     3.07     4.400139     20.44283     45.91645         8     0.983     0.621  78.98   0
       338    797.4863    222.9446 300.3927242 +22.6914691      1375.42     72.51413      1.267     2.27     4.351176     20.44283     210.2041        16     0.954     0.873  73.36   0
       339    528.2092    223.1949 300.3087692 +22.6108943     874.7131     72.31098      1.343     2.56     4.337001     20.44283       117.63        12     0.945     0.762  75.22   0
       340    809.5676    221.9310 300.3968185 +22.6947949     707.5922     72.44032      1.211     2.42     4.343001     20.44283     110.9192        13     0.920     0.786 -67.81   0
       341    970.3615    212.7062 300.4499447 +22.7402762     1529.257     72.47723      1.241     2.27     4.536993     20.44283     245.8262        16     1.017     0.839 -84.63   0
       342    926.2126    212.2589 300.4363213 +22.7269333     1240.198     72.44032      1.335     2.36     4.337655     20.44283     175.5809        14     0.969     0.836 -65.79   0
       343    160.4696    205.4525 300.2001413 +22.4955950     711.3892     72.45879      1.369     3.28     4.700677     20.44283     83.30295        13     0.990     0.959 -13.25   0
       344    828.8605    204.9103 300.4083542 +22.6956776      246.979       72.551      1.130     4.96     4.332833     20.44283     42.56264         6     1.089     0.638  88.93   0
       345     22.0534    200.3650 300.1587852 +22.4526346     2217.406     72.47723      1.457     2.72     4.421178     20.44283     229.0129        24     1.228     0.976  68.63   0
       346    845.1653    196.8897 300.4160388 +22.6982528     627.3196     72.44032      1.216     2.55     4.327593     20.44283     93.66354        11     0.907     0.722  87.47   0
       347    179.5659    193.7111 300.2098854 +22.4979486     5602.217     72.44032      1.371     2.33     4.718495     20.44283     731.8339        38     1.210     1.106  80.20   0
       348    162.8051    184.5356 300.2076523 +22.4902899     506.6024     72.44032      1.227     2.84     4.873644     20.44283     73.00877         9     0.864     0.720   6.38   0
       349    978.3999    180.9484 300.4627551 +22.7335482      18100.1      72.4034      1.355     2.21     4.795649     20.44283     2536.764        50     1.248     1.106  85.69   0
       350    823.6874    175.0703 300.4164223 +22.6855493     3566.952     72.62469      1.300     2.22      4.34638     20.44283     484.5851        28     1.124     0.985 -87.97   0
       351    927.3347    173.7319 300.4491703 +22.7161895     2711.375     72.51413      1.302     2.36     4.478629     20.44283     404.7579        26     1.147     0.961  73.65   0
       352    373.0999    170.2044 300.2776910 +22.5491998     817.0956     72.34796      1.347     2.95      4.30659     20.44283     108.1721        12     1.068     0.680  74.98   0
       353    125.9010    170.9409 300.2005930 +22.4753241     389.7527       72.551      1.511     2.55     4.736092     20.44283     61.26508         6     0.745     0.659  68.43   0
       354    487.4146    168.2211 300.3139051 +22.5828787     356.9742     72.44032      1.166     2.50     4.332549     20.44283     46.72197         5     0.710     0.451  68.73   0
       355    297.0907    162.4854 300.2565531 +22.5242063     657.9555     72.62469      1.504     3.57     4.512119     20.44283     80.45438        10     0.986     0.734 -83.60   2
       356    301.4839    160.7853 300.2584707 +22.5250345     501.5234     72.42186      1.585     3.53     4.497807     20.44283     62.08131         8     1.038     0.560   1.39   3
       357    424.4176    157.6617 300.2977255 +22.5609723     1643.412     72.42186      1.276     2.45     4.244033     20.44283     221.1848        16     1.059     0.791  71.60   0
       358     63.2771    159.4586 300.1848593 +22.4532535      627.032     72.49569      1.469     3.70     4.486736     20.44283     67.22198        11     1.008     0.878  42.22   0
       359    352.4497    157.8635 300.2752702 +22.5394674     507.4843     72.51413      1.513     3.23     4.311427     20.44283     64.31792         8     0.812     0.761 -43.40   0
       360    486.2772    156.9003 300.3172231 +22.5792852     405.9744     72.60629      1.129     2.22     4.331519     20.44283     60.58239         7     0.693     0.649 -60.32   0
       361    248.6317    153.4699 300.2444088 +22.5070946     162.4062     72.45879      1.029     3.92     4.591917     20.44283      36.1362         6     0.915     0.482  88.83   0
       362    168.5606    153.0643 300.2196490 +22.4829792     432.3594     72.44032      1.385     6.31     5.050692     20.44283     59.09876        12     1.473     0.780  -4.51   0
       363    712.8005    146.8485 300.3910218 +22.6442371     394.0774     72.45879      1.295     2.06     4.367653     20.44283     62.18055         6     0.701     0.547  48.04   0
       364    603.3356    142.0343 300.3584877 +22.6100743     162.1964     72.45879      1.019     3.36     4.345741     20.44283     42.53622         5     0.819     0.400  69.47   0
       365    858.6873    141.3781 300.4382614 +22.6863382     298.0858     72.38492      1.140     2.49     4.377715     20.44283     48.48199         6     0.789     0.509  45.28   0
       366    988.9051    138.1965 300.4798997 +22.7243948     3553.691     72.36644      1.404     2.42     5.021247     20.44283     421.6197        29     1.159     1.070  70.60   0
       367    198.4803    137.5712 300.2339737 +22.4874983     5941.266     72.47723      1.409     2.44     4.906372     20.44283     693.1208        39     1.292     1.078  60.86   0
       368    705.1805    137.8922 300.3915527 +22.6393808     318.6919     72.38492      1.193     3.13     4.377448     20.44283     51.13089         8     0.827     0.654  51.34   0
       369     49.4143    137.0652 300.1878153 +22.4426691     931.4971     72.44032      1.786     3.34     4.530364     20.44283     90.66351        14     1.083     0.843   9.48   0
       370    827.9883    134.4364 300.4309432 +22.6751528     382.2781     72.44032      1.238     2.50     4.376203     20.44283     51.20189         5     0.730     0.562 -88.25   0
       371    170.6238    131.8806 300.2271605 +22.4775150     339.9226     72.42186      1.142     2.67     5.086183     20.44283     52.79908         5     0.740     0.428  67.84   0
       372    214.1564    129.1697 300.2415715 +22.4897840     284.7661     72.49569      1.296     3.50     4.870419     20.44283     50.66324         8     0.930     0.624 -84.29   0
       373    674.0729    128.3246 300.3849652 +22.6273161     231.5468     72.53257      1.230     4.20     4.388331     20.44283     34.47633         6     0.885     0.572 -87.02   0
       374    444.5762    122.8374 300.3152928 +22.5570062     6266.247     72.47723      1.277     2.24     4.292498     20.44283     853.9702        33     1.202     0.954  80.77   0
       375    330.0892    122.8225 300.2796796 +22.5227021      602.223     72.38492      1.330     3.52     4.415689     20.44283     77.01843        11     1.008     0.762  56.28   0
       376    501.5522    117.1625 300.3348656 +22.5724423       257.83     72.49568      1.258     3.19     4.349108     20.44283     44.36838         6     0.781     0.495  85.48   0
       377    697.0864    112.6694 300.3972114 +22.6297062     961.3018     72.56944      1.542     4.84     4.404655     20.44283     116.7047        14     1.391     0.670 -81.31   0
       378    638.6442    113.9267 300.3785996 +22.6125688     371.0673     72.44032      1.135     2.74     4.377026     20.44283     49.63643         7     0.829     0.565 -57.35   0
       379    789.5310    111.0685 300.4265356 +22.6569215     502.3831     72.51413      1.376     2.39     4.384698     20.44283     62.69822         6     0.747     0.495  83.40   0
       380      9.2287    109.4661 300.1842826 +22.4226986     319.5952     72.45879      1.848     4.26     4.300584     20.44283       36.235         5     1.001     0.517  39.06   0
       381    137.7624    106.5584 300.2251590 +22.4603944     471.4659       72.551      1.326     3.29     5.116322     20.44283     55.60224         9     0.836     0.778 -68.08   0
       382    495.7211    105.1715 300.3369392 +22.5672500     403.1454     72.47723      1.157     2.16     4.354384     20.44283     81.41528         8     0.832     0.570  77.91   0
       383    572.9843    102.8322 300.3617505 +22.5897177     6151.087     72.44032      1.288     2.18     4.355755     20.44283     977.7953        34     1.183     0.975  81.05   0
       384    347.8932    101.9359 300.2919907 +22.5220365     1484.746     72.56944      1.343     2.14     4.374616     20.44283     221.8449        18     0.988     0.965 -65.96   0
       385    614.1412    100.2525 300.3754029 +22.6013010     903.2654     72.51413      1.249     2.24     4.361961     20.44283     124.7106        11     0.848     0.759  65.86   0
       386    683.4838     97.6601 300.3978414 +22.6213186     312.1972     72.56944      1.654     3.40      4.42098     20.44283     47.55431         7     0.958     0.480  80.27   0
       387    629.8524     95.9456 300.3816925 +22.6047675     634.4712     72.49568      1.353     2.75      4.38175     20.44283     99.79932        10     0.911     0.697  68.51   0
       388     96.8661     94.6149 300.2163234 +22.4447068     592.6782     72.44032      1.393     2.56     5.095063     20.44283     72.91499         9     0.869     0.654 -65.76   0
       389    899.8817     93.4680 300.4666429 +22.6848885     583.9879     72.56944      1.449     2.47     4.456854     20.44283     82.74997         9     0.876     0.659  64.68   0
       390    668.4437     91.7774 300.3950640 +22.6151243     534.5479     72.51413      1.187     2.82     4.428046     20.44283     65.88866         9     0.799     0.756  14.86   0
       391    632.2174     86.5665 300.3854704 +22.6027795     943.8134     72.44032      1.623     4.44     4.408582     20.44283     102.6137        18     1.554     0.753  65.61   0
       392    617.0752     87.7247 300.3803791 +22.5985785     2720.938       72.551      1.234     2.07     4.392896     20.44283     455.5015        21     1.010     0.889  76.77   0
       393    257.9893     88.2817 300.2684584 +22.4911766     260.2054     72.42186      1.220     2.03     4.841575     20.44283     55.85968         5     0.733     0.447  65.83   0
       394    703.5561     79.1838 300.4100857 +22.6220161     1441.037     72.47723      1.292     2.43     4.535298     20.44283     190.8711        17     1.029     0.809  78.45   0
       395    781.6730     73.9457 300.4361248 +22.6438944     326.5509     72.44032      1.189     2.60     4.653613     20.44283     52.11324         6     0.766     0.624  57.74   0
       396    641.5505     72.3738 300.3929793 +22.6014941     763.8803     72.47723      1.220     2.55     4.456123     20.44283     93.68931        11     0.894     0.744  75.83   0
       397    447.2893     71.7587 300.3327004 +22.5431419     1139.413     72.45879      1.330     2.41     4.337533     20.44283     148.5068        15     1.100     0.756 -61.78   0
       398     20.1815     71.8800 300.1998715 +22.4151923     574.7621     72.45879      1.533     3.62      4.39364     20.44283     61.24777         9     0.883     0.750 -10.24   0
       399    351.0937     69.9212 300.3033670 +22.5137980     755.5455     72.58786      1.347     2.97     4.375339     20.44283     118.2555        13     1.063     0.781  52.61   0
       400    733.2202     68.2894 300.4228604 +22.6277640     418.4456      72.4034      1.204     2.66     4.717642     20.44283     69.70708         8     0.867     0.623 -87.04   0
       401    994.0226     66.6761 300.5046902 +22.7053511     2281.891     72.44032      1.375     2.42     4.732024     20.44283     325.0081        22     1.116     0.937 -73.62   0
       402    122.3832     60.1997 300.2354108 +22.4424731     3827.642     72.34796      1.443     2.47     5.069304     20.44283     432.2037        32     1.241     1.085  35.73   0
       403    690.6400     60.5047 300.4121185 +22.6127788     593.1496     72.45879      1.195     2.26     4.585562     20.44283     98.47274        10     0.866     0.681  89.61   0
       404    448.3034     57.1809 300.3377425 +22.5392566     305.9925     72.36644      1.109     2.61      4.35645     20.44283     52.90121         6     0.713     0.628 -39.88   0
       405    683.7831     52.3022 300.4126420 +22.6083676       702.68     72.38492      1.218     2.78     4.584055     20.44283     102.2985        11     0.868     0.822  54.60   0
       406    238.3258     52.1760 300.2740508 +22.4749138     1182.945     72.49569      1.421     2.79      5.07772     20.44283     142.3549        17     1.039     0.965 -73.40   0
       407    649.4433     51.3574 300.4022518 +22.5978152     283.5397       72.551      1.241     3.35      4.51281     20.44283     56.79472         5     0.759     0.429  66.44   0
       408    776.9783     49.1994 300.4426854 +22.6353728     208.1879     72.38492      1.135     3.75     4.931835     20.44283     37.59838         5     0.811     0.499  66.00   0
       409    721.6573     47.5780 300.4259729 +22.6183473     690.7998     72.47723      1.478     3.74     4.848969     20.44283     67.78705        13     1.211     0.693  81.91   0
       410    464.7049     49.1416 300.3454532 +22.5418587        328.5     72.53257      1.383     4.13     4.380815     20.44283     40.23972         6     0.756     0.644  19.48   0
       411    645.0400     47.2297 300.4022186 +22.5953102     504.3024     72.45879      1.231     2.40     4.521915     20.44283     84.27412         8     0.858     0.641 -22.88   0
       412    741.5343     43.6237 300.4334482 +22.6231602     2222.755     72.44032      1.267     2.35     4.990323     20.44283     276.8492        20     1.076     0.833  86.84   0
       413    447.4995     42.0425 300.3424003 +22.5346655     435.9777     72.44032      1.413     3.21     4.373413     20.44283     49.08414         8     0.790     0.705 -18.25   0
       414    124.8586     39.1802 300.2429943 +22.4371789     969.2322     72.44032      1.427     2.55     5.042306     20.44283     122.9996        15     0.992     0.928 -23.57   0
       415    916.4697     37.1150 300.4900876 +22.6736424     771.8549     72.56944      1.363     2.37     4.448073     20.44283     95.34478        12     0.907     0.758 -69.53   0
       416    689.9780     36.1773 300.4197996 +22.6055859     872.7026     72.45879      1.254     2.07     4.690892     20.44283     148.5934        12     0.977     0.673  68.79   0
       417    397.1360     34.8385 300.3290646 +22.5175103     373.6549     72.44032      1.651     2.13     4.361746     20.44283     50.68697         6     0.730     0.528 -50.24   0
       418    447.7950     28.2858 300.3469519 +22.5308006     355.1565     72.38492      1.488     2.74     4.390769     20.44283     50.62236         6     0.722     0.631  36.24   0
       419    140.7132     28.1865 300.2514852 +22.4387732     322.5195      72.4034      1.531     4.23     5.085812     20.44283     32.23909         6     0.780     0.655  19.06   0
       420    274.4188     25.7207 300.2938498 +22.4781286     455.1083     72.45879      1.550     2.81     5.050377     20.44283     62.56778         8     0.885     0.659  81.86   0
       421    542.4155     21.1890 300.3787042 +22.5570968     962.9745      72.4034      1.399     2.63      4.41638     20.44283     111.4667        14     1.018     0.745  65.96   0
       422    775.1010     20.1269 300.4515257 +22.6264500     208.6481     72.60629      1.179     3.47      5.25239     20.44283      45.8612         5     0.637     0.593 -75.74   0
       423    276.8524     18.8032 300.2968489 +22.4768704     219.5396     72.45879      1.244     3.91     5.081164     20.44283      37.1794         6     0.797     0.549  43.93   0
       424    151.9402     18.2718 300.2581884 +22.4392901     543.1437     72.49569      1.344     2.96     5.121335     20.44283     85.34174         9     0.960     0.647  69.85   0
       425     78.4827   1008.9669 299.9135703 +22.7014442     1347.873     72.42186      5.934     8.62      47.1807     20.44283     33.80595        14     1.836     1.130  58.18   3
       426     82.1693   1015.8296 299.9124817 +22.7045176     1505.209     72.45879      5.808    10.17     48.53941     20.44283     42.49416        17     1.971     1.462 -87.47  19
       427     97.0352   1011.9242 299.9183709 +22.7078634     2059.331     72.42186     13.593    17.13     39.04125     20.44283     55.99829        75     3.661     2.587  11.92  27
       428    603.4082   1009.9808 300.0764870 +22.8593070     6790.972     72.42186      1.669     3.33     3.125686     20.44283      545.448        42     1.377     1.284  82.57   0
       429    115.4783   1005.5032 299.9261905 +22.7115624     1358.552     72.56944      8.975    13.48     31.65243     20.44283     45.11713        29     3.140     1.609  73.35  16
       430    483.1746   1003.9891 300.0410125 +22.8215116     541.7458     72.45879      2.235     4.88     2.886184     20.44283     43.16248         7     1.019     0.662 -88.47   0
       431    754.9871   1003.5656 300.1257854 +22.9029363      428.386     72.44032      1.691     5.38     2.934518     20.44283     34.84162         9     1.027     0.796 -13.70   0
