#   1 NUMBER                 Running object number                                     
#   2 X_IMAGE                Object position along x                                    [pixel]
#   3 Y_IMAGE                Object position along y                                    [pixel]
#   4 ALPHA_J2000            Right ascension of barycenter (J2000)                      [deg]
#   5 DELTA_J2000            Declination of barycenter (J2000)                          [deg]
#   6 FLUX_APER              Flux vector within fixed circular aperture(s)              [count]
#   7 FLUXERR_APER           RMS error vector for aperture flux(es)                     [count]
#   8 FLUX_RADIUS            Fraction-of-light radii                                    [pixel]
#   9 FWHM_IMAGE             FWHM assuming a gaussian core                              [pixel]
#  10 BACKGROUND             Background at centroid position                            [count]
#  11 THRESHOLD              Detection threshold above background                       [count]
#  12 FLUX_MAX               Peak flux above background                                 [count]
#  13 ISOAREA_IMAGE          Isophotal area above Analysis threshold                    [pixel**2]
#  14 A_IMAGE                Profile RMS along major axis                               [pixel]
#  15 B_IMAGE                Profile RMS along minor axis                               [pixel]
#  16 THETA_IMAGE            Position angle (CCW/x)                                     [deg]
#  17 FLAGS                  Extraction flags                                          
         1    453.3674     53.7410 300.3423228 +22.5345671     440.7878     72.52704      1.258     3.29     4.915625     20.45687     60.93393        10     0.898     0.764  51.76   0
         2    477.6951     19.5574 300.3609773 +22.5320309     1359.416     72.52704      1.329     2.47     4.950303     20.45687     191.7903        17     1.182     0.800  75.25   0
         3    583.0714     16.3494 300.3948236 +22.5626667     1356.256     72.50858      1.356     2.37     4.723139     20.45687     202.3995        18     1.087     0.844  86.52   0
         4    403.4245     10.2610 300.3408779 +22.5071132     2043.353     72.50858      1.309     2.31     5.106387     20.45687     238.4216        22     1.106     0.926  83.21   0
         5     50.5909      8.2209 300.2318381 +22.4008000     1561.219      72.4901      1.573     2.97     5.054636     20.45687     154.7653        22     1.155     1.053  57.09   0
         6    894.0670      7.3546 300.4946476 +22.6531761     257.9292     72.50858      1.294     3.74     5.506524     20.45687     41.86131         5     0.829     0.483  49.61   0
         7    534.3627      4.7113 300.3834304 +22.5447354     368.3716     71.14758      1.317     3.54     4.762208     20.45687     50.91129         6     0.869     0.479 -86.62  16
         8    193.1857      2.9140 300.2778729 +22.4420133     214.5634     64.59708      1.325     4.84     5.810004     20.45687     37.40424         6     1.246     0.534 -71.75  24
         9     52.3049   1006.1070 299.9082247 +22.6875049     1030.361     72.67461      6.476     6.76     46.21403     20.45687     37.82003         5     1.456     0.880 -40.92   3
        10    609.6555   1021.6663 300.0764914 +22.8592939     6559.868     66.53737      1.694     3.27     2.839317     20.45687     509.8911        37     1.363     1.284 -89.17  24
        11    191.9739   1021.5734 299.9465860 +22.7338852     2186.336     66.83858      8.247    20.76     12.80614     20.45687     64.26846        94     5.342     2.240  43.40  27
        12    120.8877   1018.1588 299.9256074 +22.7115575     1520.737      72.4901      7.848    15.88      28.7355     20.45687     42.60494        49     3.102     2.259 -66.02  25
        13    103.1071   1021.9678 299.9188431 +22.7073083     1832.427     65.15441      8.219    13.98     34.40836     20.45687      57.4209        61     3.348     1.623   0.86  25
        14     85.6054   1022.4565 299.9132469 +22.7021913     1375.929     62.85289      9.019    15.06     40.48611     20.45687     51.20739        39     3.194     1.974  18.35  27
        15     38.2422   1013.3517 299.9014986 +22.6853560      2914.39     72.52704      9.495    42.96     54.99875     20.45687     79.44938       403     9.104     5.626  53.25  27
        16    182.5462   1022.9539 299.9432065 +22.7314495     1669.418     60.48596      9.871    21.45     14.80937     20.45687     58.07261        99     6.890     1.855  11.28  27
        17     64.1029   1007.1751 299.9115417 +22.6913548     1212.219     72.43466     10.044    11.72     42.61889     20.45687     47.79533        21     2.761     1.384 -61.77  19
        18     67.3213   1009.3469 299.9118345 +22.6929437     977.3293      72.5455      7.215     7.58     42.48492     20.45687     46.74562        11     1.837     0.875 -42.01   3
        19     69.1635   1005.5587 299.9136399 +22.6924118     1526.009     72.58241      6.044     8.77     40.46855     20.45687     53.09449        17     2.181     0.985  63.02   3
        20    411.7629   1009.0777 300.0189977 +22.7962934     1037.365     72.47163      1.572     3.62     3.473031     20.45687     89.71514        15     1.100     0.937 -35.35   0
        21    342.5734   1007.0557 299.9981341 +22.7749436     6464.061     72.50858      1.706     3.41     3.918426     20.45687     527.6055        42     1.334     1.316  -0.72   0
        22     50.0677    994.4305 299.9113305 +22.6834879     982.5049      72.4901      3.973     7.63     40.59822     20.45687     53.74099        16     1.584     1.029 -72.58   1
        23    375.1195    994.1327 300.0124637 +22.7810094     368.5659      72.6193      1.850     5.98     3.647492     20.45687     40.35008         9     1.240     0.811 -87.30   0
        24    816.1991    990.1462 300.1510947 +22.9122117     238.2632     72.45315      1.413     3.66     3.836044     20.45687     29.72547         5     1.140     0.337 -78.69   0
        25    888.9754    985.6780 300.1752344 +22.9327542     1882.659     72.50858      1.636     3.62     3.780018     20.45687     139.8441        26     1.319     1.122 -59.94   0
        26    538.6224    983.1749 300.0669073 +22.8269398     317.2609     72.47163      1.539     5.56     2.869883     20.45687     39.14878         6     0.996     0.876 -16.31   0
        27    386.8738    981.6717 300.0201761 +22.7809653     368.0473     72.56396      1.533     3.66     3.589334     20.45687     48.03633         6     0.741     0.658 -54.26   0
        28    571.8472    980.2703 300.0781958 +22.8360764      311.367      72.4901      1.351     3.38     2.942308     20.45687     32.35096         5     0.947     0.349  43.98   0
        29    677.6805    974.6178 300.1129920 +22.8662074     743.2285     72.50858      1.886     6.94     3.660603     20.45687     69.53554        16     1.621     0.833  52.11   0
        30   1004.3640    973.9607 300.2150314 +22.9639873     535.7115     72.58241      2.124     6.25     3.685059     20.45687     33.36598        10     1.231     0.892 -49.23   0
        31     52.9090    973.2908 299.9190935 +22.6782852     859.6915     72.67461      4.222     9.49     29.02508     20.45687     38.70103        15     1.931     1.300  42.63   0
        32    489.8679    969.8849 300.0560585 +22.8084978     460.3102     72.60086      1.575     6.19     3.063449     20.45687     48.34569        11     1.115     0.965 -72.83   0
        33    712.4689    968.6805 300.1257610 +22.8749397     1047.192      72.6193      1.519     3.38     3.718748     20.45687     91.51659        18     1.101     1.036  18.28   0
        34    734.7694    962.4235 300.1347451 +22.8798337     11322.17     72.50858      1.617     3.09     3.747743     20.45687     970.2327        47     1.315     1.291 -74.77   0
        35    780.2539    962.6016 300.1488592 +22.8935270     405.8471     72.45315      1.444     4.13     3.769092     20.45687     49.95567         9     1.019     0.721 -67.20   0
        36    925.1449    959.5400 300.1950199 +22.9360972     1951.017     72.58241      0.708     4.45     3.709769     20.45687     1453.557        12     1.239     0.455  74.96   0
        37    518.2103   1012.5592 300.0509883 +22.8292408     1607.294     72.50858      1.760     3.28     2.709515     20.45687     126.9785        19     1.093     1.064 -78.98   0
        38    440.6213    951.5366 300.0467058 +22.7884569     624.7933     72.47163      2.080     7.20      3.43281     20.45687     73.15562        12     1.620     0.895  30.80   0
        39    786.4286    950.1615 300.1548325 +22.8918091     452.2184     72.52704      1.712     6.01     3.740199     20.45687     35.56552        12     1.385     0.734  12.48   0
        40    743.3702    944.3578 300.1433048 +22.8772297     1462.169      72.5455      1.658     3.74     3.718686     20.45687     113.2188        21     1.174     1.119  59.87   0
        41    925.9971    942.9120 300.2006979 +22.9315797     435.1927     72.43466      1.377     4.27     3.678467     20.45687     52.07515         8     1.022     0.570  54.36   0
        42    595.5057    941.7064 300.0981136 +22.8321135     504.4394     72.67461      1.589     3.17     3.182503     20.45687     58.16749         8     0.895     0.743 -21.92   0
        43    781.5589    938.0223 300.1572660 +22.8868651     805.6543      72.5455      1.588     4.48     3.711047     20.45687     75.45213        17     1.231     1.095 -15.65   0
        44    890.3048    934.7955 300.1922112 +22.9185484     392.3748     72.41617      1.275     2.04     3.685852     20.45687     52.29765         5     0.719     0.421 -71.44   0
        45    830.1013    929.1375 300.1752858 +22.8988724      457.882     72.60086      1.481     5.48      3.68988     20.45687     42.96671        11     1.192     0.711  14.88   0
        46    681.3704    928.3386 300.1292041 +22.8540369     780.4428     72.52704      1.511     3.24     3.634911     20.45687     77.23338        17     1.095     0.965  71.02   0
        47    692.6633    925.4345 300.1336669 +22.8565910     509.2588     72.50858      1.451     3.40     3.641629     20.45687     58.02384        10     1.032     0.664 -38.17   0
        48    393.7649    924.6177 300.0408885 +22.7666754     4187.279     72.50858      1.582     3.01     3.559624     20.45687     421.3994        37     1.323     1.221 -54.12   0
        49    106.6704    923.2921 299.9520656 +22.6801055     326.2159     72.63774      2.827     5.33     6.619763     20.45687     32.35622         5     1.489     0.538  50.44   0
        50     55.6495    913.4730 299.9394107 +22.6619698     302.5699     72.50858      1.494     3.46     6.022526     20.45687     53.01987         5     0.924     0.499   1.04   0
        51    437.1988    912.2571 300.0584238 +22.7761660     299.3595     72.45315      1.199     3.88     3.555074     20.45687      38.2519         6     0.762     0.565  41.98   0
        52    118.9508    910.1071 299.9601714 +22.6800148     800.2584      72.5455      1.754     4.44      5.85169     20.45687      77.4697        21     1.290     1.177  50.87   0
        53     96.1268    907.5732 299.9539046 +22.6724349     1629.605     72.50858      1.775     3.66     6.187939     20.45687     149.1183        26     1.296     1.256  11.57   0
        54     27.8369    908.2905 299.9324583 +22.6521319     496.4167      72.4901      2.275     4.56     5.601912     20.45687     41.12654         9     0.988     0.742 -11.17   0
        55    967.8575    896.2858 300.2289263 +22.9307432     2218.506      72.6193      1.708     3.51     3.542948     20.45687     172.5556        26     1.291     1.154 -20.41   0
        56    922.1096    894.8305 300.2151338 +22.9166113     1964.855     72.47163      1.619     3.49     3.594967     20.45687     181.2546        25     1.206     1.116  63.57   0
        57    627.2189    895.6584 300.1229738 +22.8284172     521.3622      72.4901      1.794     5.43     3.387721     20.45687     40.52853         9     1.415     0.588 -43.94   0
        58    398.3517    894.4728 300.0521246 +22.7594080     163.7177     72.50858      1.271     4.29      3.56851     20.45687     37.44531         5     1.099     0.478 -89.88   0
        59    705.5614    888.7266 300.1496301 +22.8499266     651.8524     72.47163      1.531     3.24     3.610296     20.45687     68.92519        11     0.967     0.846   9.15   0
        60    128.4140    888.9362 299.9700001 +22.6767891     437.3315     72.47163      1.653     5.30     4.978183     20.45687     55.12519        11     1.192     0.741 -12.00   0
        61    573.6615    882.7711 300.1104910 +22.8086536     4712.496     72.50858      1.473     2.75     3.366168     20.45687     541.3385        31     1.157     1.134 -58.95   0
        62     64.0867    883.8153 299.9516810 +22.6560053     462.0612     72.45315      1.356     4.35     5.010766     20.45687      49.5847         6     1.206     0.447 -22.72   0
        63    376.0734    879.7511 300.0499843 +22.7485004     555.8337     72.50858      1.304     3.39     3.576236     20.45687     71.71159        12     0.979     0.860  24.91   0
        64    124.0307    876.5042 299.9726828 +22.6719100     1232.023     72.45315      1.651     3.33     4.610788     20.45687     121.7254        22     1.216     1.138 -32.96   0
        65    593.9580    875.2738 300.1192497 +22.8125914    -5319.253      72.4901      1.411     3.61     3.365563     20.45687     71.63965        12     1.077     0.794 -14.22   0
        66    391.5937    873.8481 300.0567329 +22.7514654     294.2812     72.50858      1.841     3.75     3.575975     20.45687     36.17537         5     1.469     0.275  50.49   0
        67    143.3593    873.7537 299.9795836 +22.6769251     411.0224     72.56396      1.577     4.88     4.383996     20.45687     38.99564         8     1.202     0.560  25.62   0
        68    749.7923    862.4457 300.1719612 +22.8556492     4015.681     72.52704      1.405     2.58     3.671986     20.45687     423.5282        26     1.101     1.060  80.57   0
        69   1004.6320    862.4953 300.2513915 +22.9320634     456.3448      72.4901      1.813     5.34     3.513359     20.45687      36.6568         7     1.130     0.712  31.33   0
        70    966.8458    862.5043 300.2396031 +22.9207404     1204.436     72.52704      1.603     3.31     3.519959     20.45687     110.6616        19     1.165     1.004 -33.24   0
        71    480.9288    859.2669 300.0892732 +22.7740901     256.6779      72.5455      1.273     3.71     3.609998     20.45687     36.40363         5     0.807     0.515  55.70   0
        72    158.3111    857.0108 299.9896769 +22.6766153     496.3438     72.45315      1.468     4.20     4.086423     20.45687     50.32848         7     0.768     0.656 -66.43   0
        73    466.6130    854.9606 300.0862191 +22.7685595     678.0175     72.50858      1.557     2.93     3.631093     20.45687     74.75426        13     0.989     0.836  22.91   0
        74    113.1410    852.9781 299.9769528 +22.6618976     1051.388     72.50858      1.723     3.52     4.190584     20.45687     95.25307        19     1.225     0.986  19.12   0
        75    262.7883    845.1723 300.0260037 +22.7045848     52869.96     72.50858      1.548     2.87      3.98653     20.45687     5420.332       104     1.462     1.415  58.38   0
        76    528.3896    848.5124 300.1075438 +22.7852442     488.2683     72.45315      1.398     3.62     3.621912     20.45687     57.17867         8     0.915     0.742  24.96   0
        77    520.6052    844.1695 300.1065336 +22.7816630     1646.445      72.4901      1.448     2.68     3.649696     20.45687     189.6129        20     1.077     1.030 -62.66   0
        78    933.6526    843.1113 300.2355615 +22.9052225     900.9239     72.52704      1.535     2.91      3.53716     20.45687     92.54993        14     0.971     0.894  79.69   0
        79    191.3034    843.3500 300.0043745 +22.6826041     382.8779     72.58241      1.192     4.33     4.078599     20.45687     54.44606         8     0.887     0.684  30.10   0
        80    549.4068    840.1072 300.1168206 +22.7891379      877.073     72.41617      1.395     2.85     3.622479     20.45687     109.7286        14     1.044     0.799   8.49   0
        81    560.4225    838.4039 300.1208040 +22.7919537     453.4167     72.47163      1.237     2.70     3.576857     20.45687      66.7422        10     0.867     0.759  39.04   0
        82    881.0183    835.4163 300.2216539 +22.8872354     383.5269      72.4901      1.525     4.94     3.699001     20.45687     37.32673         8     0.943     0.828  -9.31   0
        83    665.9036    834.6741 300.1548633 +22.8225217     443.7293     72.63774      1.345     3.22     3.403662     20.45687     63.38649         7     0.822     0.613 -25.17   0
        84    703.5937    824.9806 300.1697568 +22.8310429     819.6546     72.47163      1.412     3.05     3.512414     20.45687     93.59692        14     1.045     0.841  44.18   0
        85    312.4980    822.4088 300.0488654 +22.7129774     30977.83     72.37917      1.511     2.70     3.919073     20.45687     3161.692        81     1.385     1.340  64.29   0
        86    835.6749    818.0996 300.2131526 +22.8686706     2747.727     72.63774      1.425     2.58     3.795486     20.45687     294.4103        25     1.116     1.070 -55.71   0
        87    323.8973    816.7944 300.0542367 +22.7147885     597.3346     72.41617      1.506     3.99     3.920262     20.45687     73.72325        12     1.138     0.836 -29.53   0
        88    864.7948    815.8627 300.2229574 +22.8767580     243.1692      72.4901      1.331     3.47     3.800742     20.45687      47.1012         7     0.939     0.757  76.90   0
        89    593.3791    814.2493 300.1389224 +22.7949089     978.2918     72.50858      1.426     3.11      3.44141     20.45687     116.9996        18     1.061     1.009 -66.79   0
        90    195.0273    814.2919 300.0149839 +22.6753918     679.7084     72.45315      1.514     3.08     4.078599     20.45687     70.08858        13     0.965     0.863  73.47   0
        91    429.8666    814.3184 300.0880059 +22.7458767     386.4966      72.6193      1.381     3.65     3.847317     20.45687     48.03885         8     0.908     0.660 -22.90   0
        92    487.7310    811.9095 300.1067958 +22.7625462     165.9659     72.65617      1.291     5.15     3.845743     20.45687     30.35407         7     1.068     0.701  50.62   0
        93    440.5939    809.0985 300.0930416 +22.7475980     822.4881     72.39767      1.312     2.99     3.873686     20.45687     102.4343        15     1.040     0.887  32.20   0
        94    841.7244    805.8004 300.2190392 +22.8669531     628.5254     72.37917      1.469     2.90     3.827021     20.45687     66.78027        10     0.986     0.644  80.51   0
        95    386.9977    803.9252 300.0780494 +22.7300329       277.85     72.41617      1.252     3.37     3.931512     20.45687      62.4859         7     1.042     0.494  51.19   0
        96    342.8293    805.3223 300.0638562 +22.7171799      263.573     72.50858      1.211     3.63     3.963887     20.45687     43.74002         7     0.907     0.653 -13.46   0
        97    326.7454    822.7717 300.0531782 +22.7173573     1941.007     72.50858      1.536     2.93      3.89043     20.45687      212.899        25     1.243     1.040 -62.92   0
        98     28.0895    803.8451 299.9665130 +22.6222785     664.9835     72.50858      1.718     5.15      4.01413     20.45687     57.06167        11     1.360     0.608 -40.53   0
        99    594.9800    803.2343 300.1430037 +22.7922284     353.3698     72.52704      1.387     5.22     3.438088     20.45687     41.52525         8     1.005     0.863 -32.32   0
       100    819.9711    800.8285 300.2138761 +22.8590044     386.1784     72.47163      1.221     2.48      3.84016     20.45687     75.00151         6     0.759     0.641 -20.28   0
       101    192.9707    798.3705 300.0195230 +22.6702099     380.0408     72.47163      1.106     2.59     4.077371     20.45687     77.89745         8     0.934     0.589  36.96   0
       102    516.0031    788.7916 300.1231146 +22.7643952      412.586     72.32365      1.200     2.11     3.904641     20.45687     73.70389         7     0.677     0.645  12.02   0
       103    485.7877    787.1268 300.1142518 +22.7548536     650.0991     72.52704      1.395     2.70     3.990494     20.45687      85.9967        10     0.866     0.743  59.25   0
       104    523.7825    787.0422 300.1261051 +22.7662268     213.7091     72.52704      1.204     3.78     3.894067     20.45687     34.71036         5     0.819     0.500  42.31   0
       105    507.4755    784.5773 300.1218310 +22.7606281     1274.326     72.52704      1.259     2.27     3.947637     20.45687      161.029        16     1.010     0.845  82.07   0
       106    394.8473    786.1584 300.0862699 +22.7272923     249.9028     72.56396      1.239     4.06     4.027173     20.45687     35.66576         8     0.848     0.660  44.16   0
       107    901.9678    783.4259 300.2450977 +22.8785873     4474.974     72.50858      1.460     2.61     3.770178     20.45687     485.4555        31     1.164     1.156 -59.60   0
       108    427.1574    784.2039 300.0969578 +22.7364257     419.1717     72.52704      1.402     2.74      4.02189     20.45687     52.57202         6     0.745     0.543  59.80   0
       109    707.9399    780.9714 300.1854260 +22.8197149     90.47134     72.52704      1.039     3.37     3.581375     20.45687     30.39242         5     0.628     0.603  -3.17   0
       110    635.1945    780.2446 300.1630039 +22.7976920     414.0372     72.50858      2.023     4.90     3.360987     20.45687     39.62576         7     1.013     0.892  46.34   0
       111    588.8179    779.6081 300.1487696 +22.7836007     367.9733     72.45315      1.395     3.68     3.521214     20.45687     51.40314         5     0.924     0.475   8.12   0
       112    890.4645    774.8444 300.2443024 +22.8726752    -1024.138     72.52704     -7.358     2.80     3.869438     20.45687     178.4618        17     1.010     0.935 -67.74   0
       113    253.2623    769.0249 300.0478091 +22.6798919     999.4124     72.50858      1.659     3.38     4.058396     20.45687     104.7645        18     1.138     1.028  -4.92   0
       114    119.8445    769.9345 300.0060454 +22.6401066     317.4524     72.50858      1.573     3.93     4.027021     20.45687     33.54785         7     0.857     0.662  37.12   0
       115    716.7806    766.1109 300.1930133 +22.8181002     2492.828     72.45315      1.362     2.23     3.717161     20.45687      321.507        23     1.089     1.011 -67.77   2
       116    921.5856    764.8685 300.2572504 +22.8791381     1585.397     72.52704      1.529     2.95      3.75579     20.45687     164.1671        20     1.080     1.038  14.02   0
       117    102.2519    753.0338 300.0060750 +22.6299805     645.6877     72.52704      1.570     3.01     4.021013     20.45687     66.69732        10     0.922     0.732  25.55   0
       118    799.3602    751.7691 300.2234088 +22.8387408     535.2158     72.52704      1.615     2.72     4.123776     20.45687     68.39953        11     1.008     0.681  38.46   0
       119    835.2232    743.0162 300.2374330 +22.8469780     145235.9     72.50858      1.407     2.42     4.181707     20.45687     18403.38       163     1.458     1.376  78.27   0
       120    597.7287    746.8097 300.1622107 +22.7768609     496.7751      72.4901      1.434     3.18      3.50034     20.45687     56.88134         8     0.899     0.619 -84.26   0
       121    982.1407    744.8622 300.2826416 +22.8915397     1196.139      72.5455      1.409     2.85     3.573593     20.45687     137.1633        19     1.043     1.012   9.14   0
       122    687.6879    743.2751 300.1913768 +22.8028223     721.6127     72.63774      1.347     2.35     3.549944     20.45687     92.53977        10     0.849     0.710  53.12   0
       123    440.3538    744.2397 300.1140605 +22.7289202     184.9439     72.58241      1.268     3.42     4.271336     20.45687     29.17077         5     0.750     0.450  74.43   0
       124    867.9423    735.7585 300.2499924 +22.8547010     423.9926      72.4901      1.367     3.71      4.20268     20.45687     46.63765         7     0.857     0.699   5.95   0
       125    521.4478    732.0425 300.1432646 +22.7497456     1558.972      72.5455      1.252     2.33     4.143005     20.45687     206.0685        17     1.008     0.882 -65.96   0
       126    702.6313    729.2399 300.2005958 +22.8032739      9199.56     72.52704      1.311     2.29     3.785867     20.45687     1204.379        41     1.158     1.115  83.09   0
       127    184.5351    731.1517 300.0387600 +22.6484052     332.6229     72.52704      1.453     4.12      4.07358     20.45687     38.12122         7     0.880     0.600  -9.25   0
       128    204.2097    724.5040 300.0470368 +22.6524039      5028.84     72.43466      1.486     2.68     4.130213     20.45687      514.754        38     1.248     1.202  19.76   0
       129    286.1997    722.5278 300.0731697 +22.6764417     1237.378     72.37917      1.464     2.73      4.14123     20.45687     127.0402        18     1.054     0.930 -26.89   0
       130    161.9884    720.0078 300.0353759 +22.6384429     552.1332     72.39767      1.660     4.16     4.082753     20.45687     46.05466        11     1.042     0.746  17.77   0
       131    494.4529    718.0040 300.1394270 +22.7376206     716.6717      72.4901      1.222     2.13      4.27102     20.45687     96.23866         8     0.716     0.657 -48.04   0
       132    620.4229    713.2721 300.1801829 +22.7740411     338.6359      72.5455      1.228     3.49     3.690522     20.45687     28.07873         5     0.772     0.455  72.03   0
       133    486.1539    710.0554 300.1394285 +22.7328506     3171.947      72.5455      1.344     2.37     4.306461     20.45687     415.6825        26     1.102     1.007  80.84   0
       134    476.2752    703.7269 300.1384117 +22.7280717     1322.445     72.58241      1.288     2.28     4.326075     20.45687     187.5509        18     1.219     0.808  67.00   0
       135    870.2072    701.4031 300.2618699 +22.8455139     447.2001     72.32365      1.330     3.37     4.311369     20.45687     65.58759         9     0.925     0.764  42.33   0
       136    139.6166    700.1312 300.0348856 +22.6260290      668.402      72.5455      1.460     3.55     4.145366     20.45687     77.43487        13     1.001     0.915  -5.38   0
       137    154.0859    698.4827 300.0399180 +22.6298991     730.5898     72.63774      1.587     3.18     4.151809     20.45687     73.80104        12     0.953     0.892   3.87   0
       138    179.6449    695.3328 300.0488856 +22.6366667     615.3826     72.50858      1.628     4.21     4.223677     20.45687     75.30064        14     1.286     0.874 -67.39   0
       139    923.5239    694.8713 300.2806172 +22.8596160     452.1365     72.60086      1.333     1.98      4.16354     20.45687     66.63362         8     0.738     0.629  -5.30   0
       140    401.1677    693.6473 300.1183181 +22.7026504     1774.878      72.5455      1.385     2.53     4.314903     20.45687     219.0118        19     1.023     0.958 -23.20   0
       141    210.9255    695.2807 300.0586254 +22.6460392     297.2444      72.6193      1.175     2.33     4.325168     20.45687     55.48632         7     0.736     0.631   0.15   0
       142    499.7601    694.0508 300.1488668 +22.7323391     534.3427     72.52704      1.509     5.86     4.270332     20.45687     47.41007        10     1.127     0.918 -14.48   0
       143    435.4342    693.1865 300.1291294 +22.7127972     382.4254      72.4901      1.753     3.31     4.319991     20.45687     45.95049         5     0.827     0.572  45.14   0
       144     55.1251    688.7051 300.0123490 +22.5973921     19655.55     72.65617      1.578     2.88     4.381813     20.45687     2039.482        68     1.397     1.380  74.88   0
       145    977.0338    690.6997 300.2986611 +22.8744517     682.4647      72.4901      1.312     3.02     4.110866     20.45687     99.29446        13     1.014     0.799  81.36   0
       146    486.1765    688.9017 300.1463131 +22.7267875     995.5294     72.43466      1.331     2.26     4.317326     20.45687      150.495        12     0.846     0.792  89.67   0
       147    521.3098    687.9451 300.1575594 +22.7370500     418.5373     72.56396      1.352     3.88     4.213307     20.45687     53.21723         7     0.827     0.640  67.03   0
       148    402.9383    685.6766 300.1214603 +22.7008948     376.7294     72.56396      1.346     2.05     4.315389     20.45687     80.04572         5     0.755     0.548 -47.59   0
       149    568.8790    676.5256 300.1760806 +22.7480380     129.2274      72.6193      0.892     2.88     4.152872     20.45687     50.13527         6     0.874     0.597 -81.55   0
       150    904.1343    674.8422 300.2810833 +22.8480528     1026.445      72.4901      1.337     2.24     4.339529     20.45687     166.1776        16     1.048     0.871  22.16   0
       151      1.7359    673.0209 300.0008646 +22.5768689     959.9348     58.66523      1.488     4.79     4.696819     20.45687     105.1569        16     1.487     0.689 -84.20  24
       152    770.9786    672.9584 300.2401901 +22.8076047      505.192      72.5455      1.341     2.40     4.417238     20.45687     75.41319         9     0.801     0.709  20.28   0
       153     67.7737    673.5079 300.0212183 +22.5968320     338.7351     72.45315      1.436     2.01     4.370721     20.45687     54.57793         5     0.674     0.492  11.23   0
       154    449.1453    669.4708 300.1411057 +22.7101050     393.5672     72.52704      1.228     2.77     4.346684     20.45687     69.82513         7     0.820     0.651 -68.59   0
       155    242.0109    668.6412 300.0769490 +22.6477271     293.0013     72.50858      1.385     2.30     4.493142     20.45687     55.30862         5     0.734     0.560 -88.23   0
       156    844.3517    667.5284 300.2648233 +22.8280367     854.5283      72.4901      1.802     2.99     4.427151     20.45687     73.61784        11     0.974     0.761  70.58   0
       157    406.0833    661.9195 300.1301617 +22.6950220     672.9616     72.65617      1.271     2.89      4.31602     20.45687     88.26396        11     0.968     0.709  81.71   0
       158    553.9382    660.2879 300.1767077 +22.7388973     579.0977     72.60086      1.388     3.44     4.213617     20.45687     70.38087         9     0.974     0.704 -28.82   0
       159    601.6387    658.9769 300.1919856 +22.7528242     450.4426     72.52704      1.267     2.89     4.216456     20.45687     65.31447         7     0.842     0.551  58.04   0
       160    571.9154    658.5089 300.1828829 +22.7437774     615.2797     72.67461      1.358     2.84     4.216456     20.45687     77.75173        10     0.913     0.711 -83.68   0
       161    450.4580    657.6171 300.1453675 +22.7070974     841.6791      72.4901      1.285     2.40     4.403118     20.45687     106.6829        13     0.961     0.806  54.50   0
       162    884.2375    653.0803 300.2819545 +22.8358400     3214.193     72.47163      1.317     2.36     4.449163     20.45687     440.3554        28     1.127     1.038 -82.79   0
       163    415.8863    653.1954 300.1360476 +22.6954593     1598.798     72.43466      1.262     2.23      4.31602     20.45687     246.9209        20     1.028     0.928  80.03   0
       164    982.0439    651.0846 300.3131031 +22.8645724     625.4846     72.47163      1.213     2.29     4.433073     20.45687     115.1254         9     0.779     0.716  18.49   0
       165    780.8477    650.3994 300.2505992 +22.8040849        334.7     72.50858      1.181     3.46     4.439179     20.45687     36.57338         5     0.785     0.441 -19.23   0
       166    766.4716    648.9343 300.2465955 +22.7993553     354.6714      72.5455      1.453     4.97     4.432825     20.45687     44.73192         8     1.088     0.872 -86.87   0
       167    391.2692    648.5521 300.1298981 +22.6867430     307.0803      72.4901      1.324     3.46      4.31602     20.45687     42.73676         5     0.726     0.475 -15.45   0
       168    444.7546    643.7421 300.1481029 +22.7014053     186.0291      72.5455      1.214     4.92     4.449831     20.45687     41.88795         8     1.015     0.831  34.39   0
       169    923.7646    642.9808 300.2975621 +22.8447831     328.7229     72.52704      1.255     3.35     4.453411     20.45687     40.74255         7     0.720     0.685  62.27   0
       170    279.3374    639.9415 300.0978834 +22.6506945     8862.813     72.56396      1.361     2.38     4.474458     20.45687     1104.388        41     1.176     1.117  71.25   0
       171    401.7938    636.9080 300.1369572 +22.6865589      8993.24     72.41617      1.333     2.17      4.31602     20.45687     1339.854        44     1.200     1.113  70.38   0
       172    167.2408    634.5088 300.0648014 +22.6155016      388.108     72.50858      2.313     5.04      4.23364     20.45687     34.22256         8     1.067     0.673 -40.84   0
       173   1006.4103    632.0498 300.3268912 +22.8664035        987.2     72.52704      1.547     3.17     4.557568     20.45687     109.1501        14     1.011     0.914 -66.53   0
       174    898.1112    628.0974 300.2944011 +22.8328212     12222.95     72.69302      1.353     2.24     4.527159     20.45687     1723.027        53     1.235     1.170  71.60   0
       175    813.5002    630.7565 300.2671606 +22.8082301     1721.745      72.4901      1.212     2.19      4.48578     20.45687      260.937        17     0.974     0.860 -67.45   0
       176    462.3570    626.4941 300.1591866 +22.7017349     11520.45     72.50858      1.277     2.18     4.654864     20.45687     1403.538        46     1.199     1.089  79.73   0
       177    189.7533    621.9021 300.0758958 +22.6186414     1255.849      72.5455      1.366     2.67     4.416342     20.45687      170.393        16     0.976     0.930 -70.77   0
       178    631.9028    622.0864 300.2134013 +22.7513078     557.8119     72.69302      1.391     2.56     4.314118     20.45687     81.37327        10     0.888     0.717   7.70   0
       179    347.8069    621.3140 300.1252313 +22.6658910     265.0818     72.43466      1.257     4.14     4.329834     20.45687     38.77647         6     1.068     0.459   4.22   0
       180    436.8079    619.3105 300.1535710 +22.6920110     502.9013     72.41617      1.336     3.83     4.488013     20.45687      58.0307        10     1.049     0.827 -43.90   0
       181    394.0707    614.7034 300.1417713 +22.6778711     4500.424      72.6193      1.320     2.21      4.31602     20.45687     624.8317        27     1.093     0.984  57.13   0
       182    736.8528    614.3609 300.2486045 +22.7805497     843.4509      72.4901      1.324     2.23     4.418662     20.45687     113.8751        11     0.817     0.765  24.27   0
       183    372.4438    613.1019 300.1355638 +22.6709247     1317.004     72.50858      1.323     2.36      4.31602     20.45687     169.0538        17     1.036     0.883  73.12   0
       184    126.5470    612.4687 300.0593181 +22.5969693     852.6305     72.52704      1.718     3.13     4.095654     20.45687     76.72999        13     0.977     0.848  21.65   0
       185    813.9017    609.9565 300.2740464 +22.8023766     1476.526     72.50858      1.378     2.88     4.520679     20.45687     167.7733        19     1.124     0.909 -46.80   0
       186    510.6713    602.1829 300.1821249 +22.7092459     198034.6     72.52704      1.286     2.14     4.687857     20.45687     28522.22       212     1.468     1.427  89.56   0
       187     60.3934    610.5071 300.0394019 +22.5765533     333.8091     72.41617      1.370     3.41     4.328986     20.45687     48.12558         5     0.772     0.437 -22.47   0
       188    694.3415    607.1498 300.2377040 +22.7657368      893.298     72.56396      1.208     2.29     4.380271     20.45687     126.1373        14     0.983     0.831  47.18   0
       189    334.4621    608.2737 300.1253187 +22.6581466     414.7953      72.5455      1.439     3.45     4.378104     20.45687     47.59919         5     0.764     0.450  69.70   0
       190    898.1916    604.1281 300.3022170 +22.8259599     265.2728      72.4901      1.211     2.75     4.594964     20.45687     36.43781         6     0.736     0.561  46.80   0
       191    196.7859    602.2881 300.0844560 +22.6151259     3384.229     72.45315      1.365     2.48     4.494585     20.45687     426.7568        28     1.110     1.078 -29.57   0
       192    762.6523    598.2504 300.2618794 +22.7836557     499.9727      72.5455      1.229     2.87       4.4633     20.45687     71.30982         9     0.847     0.711  81.03   0
       193    376.6360    598.5740 300.1415894 +22.6680136     286.4743     72.52704      1.178     4.97     4.320147     20.45687     37.44832         6     0.984     0.711  79.59   0
       194    541.9651    588.7166 300.1962426 +22.7147638     326.7408     72.47163      1.403     2.95     4.426025     20.45687     51.45815         6     0.808     0.635 -37.96   0
       195    401.2695    582.7396 300.1543985 +22.6708579     2783.496      72.5455      1.433     2.55     4.326749     20.45687      313.855        26     1.470     0.976  84.64   0
       196    245.6394    584.9150 300.1052888 +22.6247996     383.4237      72.4901      1.170     2.35     4.679107     20.45687     59.72217         7     0.758     0.615 -65.85   0
       197    850.8872    582.6033 300.2944648 +22.8056029     178.6387     72.43466      0.961     3.40     4.542699     20.45687     34.77554         5     0.790     0.424  21.45   0
       198    812.8556    578.5488 300.2839278 +22.7930421        446.8      72.5455      1.334     2.77     4.514258     20.45687     65.60297         8     0.912     0.616 -41.99   0
       199    632.2821    578.0099 300.2278441 +22.7387671     246.9846     72.45315      1.179     4.28     4.386907     20.45687      43.2521         6     1.068     0.489  37.90   0
       200    718.2555    570.7946 300.2569689 +22.7624649     408.0919      72.4901      1.224     2.65     4.447356     20.45687     66.53226         9     0.891     0.635  61.41   0
       201    798.2429    568.5505 300.2826226 +22.7857915     1607.885      72.5455      1.209     2.18     4.504937     20.45687     255.7896        17     1.019     0.851 -75.27   0
       202    669.3871    566.2139 300.2432340 +22.7465024      2592.74     72.43466      1.234     2.01     4.396384     20.45687     362.0654        23     1.023     0.950  34.61   0
       203    913.7270    563.4348 300.3202859 +22.8189238     653.1633      72.4901      1.542     3.99     4.598103     20.45687     71.43517        11     1.037     0.911  49.33   3
       204    912.6185    559.1887 300.3213200 +22.8173717     660.0981     72.47163      1.347     2.63     4.596117     20.45687     84.26024        10     0.849     0.800 -53.64   3
       205    574.5068    562.6744 300.2148366 +22.7170442     424.5891     72.65617      1.404     2.92     4.428687     20.45687     57.62303         7     0.830     0.649  76.92   0
       206    456.8454    562.2226 300.1783582 +22.6816362     601.2385      72.5455      1.135     2.54     4.735528     20.45687     103.3048        10     0.919     0.661  79.16   0
       207    926.6245    560.1403 300.3253782 +22.8218411     1257.379     72.50858      1.255     2.55     4.617106     20.45687     179.0154        17     1.051     0.834  69.24   0
       208    798.5100    558.6656 300.2859180 +22.7830323     2250.963     72.63774      1.471     2.78      4.50588     20.45687     309.2829        23     1.467     0.874  79.30   0
       209    551.9040    556.7768 300.2097157 +22.7085748     600.1069     72.41617      1.306     2.30     4.458475     20.45687     118.9805        11     0.930     0.711 -75.92   2
       210    551.5788    552.5176 300.2109984 +22.7072546     369.5673     72.47163      1.348     2.56     4.466171     20.45687     55.71502         5     0.704     0.480 -72.64   3
       211    836.6705    553.7457 300.2994109 +22.7930535     4218.922      72.5455      1.228     2.06     4.512657     20.45687     636.0392        28     1.035     1.003 -88.71   0
       212    390.3387    555.7918 300.1597542 +22.6598464     407.6782      72.4901      1.138     2.33      4.33789     20.45687     76.30793         8     0.830     0.608 -78.35   0
       213    497.2106    549.4739 300.1950632 +22.6900803     352.8043     72.50858      1.231     2.63     4.854336     20.45687     54.56016         5     0.716     0.479  15.52   0
       214     68.7254    544.3959 300.0634717 +22.5600957     996.8102     72.41617      1.462     3.34     3.959355     20.45687     96.71418        18     1.099     1.029  12.25   0
       215    928.4043    544.1628 300.3311250 +22.8177836     723.7502      72.5455      1.230     2.75     4.620939     20.45687     103.3462        10     0.896     0.721  64.15   0
       216    729.6088    537.6691 300.2712699 +22.7563541      272.405      72.4901      1.076     3.32     4.495766     20.45687     43.17087         7     0.943     0.470 -80.64   0
       217    116.1913    536.2387 300.0808695 +22.5719991     277.2786     72.52704      1.099     3.12     3.983075     20.45687      36.4921         5     0.909     0.349 -46.40   0
       218     61.1166    534.4323 300.0643449 +22.5549550     407.3115      72.4901      1.373     3.32      3.94816     20.45687     59.92373         8     0.967     0.591  42.19   0
       219    924.7893    533.1931 300.3335621 +22.8135488     320.6452     72.37917      1.208     3.44     4.609237     20.45687      45.2002         6     0.744     0.576 -34.19   0
       220    668.7928    528.3104 300.2553648 +22.7354399     330.3086     72.41617      1.288     2.10     4.399915     20.45687     64.26342         6     0.687     0.579  55.74   0
       221    557.5960    525.9078 300.2215175 +22.7014190     384.0611     72.39767      1.267     3.67     4.459615     20.45687     55.09161         6     0.793     0.489 -86.52   0
       222    277.7479    526.4249 300.1342765 +22.6176507     251.9455     72.52704      1.182     3.68      4.57057     20.45687     42.89981         8     0.933     0.638 -16.34   0
       223    610.0421    524.1415 300.2384215 +22.7166333     894.2719      72.4901      1.372     2.20     4.398854     20.45687     127.3188        12     0.940     0.849 -68.76   0
       224   1017.6274    522.0076 300.3661524 +22.8381422     965.9671     72.50858      1.259     2.68     4.692388     20.45687     127.5847        15     0.959     0.935 -55.95  16
       225    924.6212    516.6302 300.3388911 +22.8087393     543.5759     72.50858      1.107     2.22     4.600142     20.45687     88.35639         9     0.866     0.599  84.35   0
       226    670.8024    516.5179 300.2598220 +22.7326556     811.4651     72.41617      1.206     2.21     4.390134     20.45687     124.6982        12     0.893     0.752 -66.28   0
       227    827.9984    512.7128 300.3100399 +22.7786676     927.5696     72.43466      1.131     2.07      4.50648     20.45687     179.8512        10     0.870     0.655 -66.64   0
       228    812.4124    508.8628 300.3064327 +22.7728918     534.7607      72.4901      1.151     2.37      4.50648     20.45687     91.74899         9     0.789     0.736  59.54   0
       229    792.9968    508.9919 300.3003395 +22.7671116     253.4951     72.32365      0.978     2.00      4.50648     20.45687     59.37498         5     0.646     0.494 -89.99   0
       230    556.6679    507.1100 300.2273356 +22.6957437     3222.104     72.65617      1.276     2.05     4.445493     20.45687     492.7653        27     1.117     0.970 -79.36   0
       231    916.9996    505.6170 300.3400926 +22.8032917     469.2012     72.39767      1.111     1.93     4.582235     20.45687     93.20474         8     0.735     0.636  73.34   0
       232    485.7385    501.7361 300.2070019 +22.6729370     690.6622      72.5455      0.531     2.25     4.635042     20.45687     543.8917         5     0.840     0.184  45.25   0
       233     32.4297    498.2682 300.0671814 +22.5359753     321.8029      72.4901      1.204     3.50     3.967972     20.45687     50.91817         5     0.832     0.424  69.09   0
       234    562.1085    495.2685 300.2328762 +22.6939746     370.7105     72.63774      1.558     3.02     4.429667     20.45687     47.17718         6     0.747     0.627 -61.23   0
       235    396.5639    494.2918 300.1816710 +22.6440626     310.7832     72.45315      1.307     3.38     4.352172     20.45687     51.77071         5     0.753     0.439 -67.81   0
       236    328.2527    494.4342 300.1603752 +22.6236184     358.2269     72.52704      1.279     3.01     4.438791     20.45687     43.07791         6     0.709     0.646 -74.06   0
       237    967.9398    486.0182 300.3623458 +22.8129177     1278.295     72.47163      1.282     2.17     4.624797     20.45687     194.3443        15     0.983     0.861  63.48   0
       238    839.8527    485.7715 300.3224874 +22.7744790      393.895     72.52704      1.195     2.36      4.50648     20.45687     91.31937         8     0.874     0.598 -85.67   0
       239    926.4060    484.8883 300.3497599 +22.8001529     989.9654     72.41617      1.321     2.12     4.583212     20.45687     136.0628        13     0.935     0.790   1.82   0
       240    576.1525    482.8098 300.2412959 +22.6946070     308.5381     72.52704      1.090     1.89     4.402121     20.45687     63.82107         6     0.708     0.514 -57.45   0
       241    667.2587    480.9532 300.2702717 +22.7213797     1081.697     72.56396      1.247     2.34     4.358424     20.45687     164.4379        15     0.909     0.862 -69.27   0
       242    462.9550    481.5846 300.2064572 +22.6603213     381.1975     72.52704      1.097     2.10     4.456876     20.45687     79.07129         8     0.758     0.623 -74.06   0
       243    171.3529    479.4766 300.1164508 +22.5722659     678.5518     72.50858      1.389     3.52     3.905226     20.45687     80.76331        10     0.979     0.768 -21.27   0
       244    233.6391    475.0779 300.1372414 +22.5896874     3689.094      72.4901      1.339     2.35      4.59305     20.45687     498.1075        29     1.136     1.037  75.80   0
       245    966.6075    473.2868 300.3660661 +22.8088598     4260.476     72.41617      1.288     2.28     4.516469     20.45687     512.4557        28     1.071     1.023  78.87   0
       246    180.8377    469.9139 300.1225047 +22.5723676     7435.662      72.4901      1.383     2.38     4.053223     20.45687     983.1555        44     1.257     1.160  57.29   0
       247    946.7348    464.2993 300.3627876 +22.8003249     1824.732     72.60086      1.298     2.34     4.384899     20.45687     216.3143        23     1.144     1.013 -51.09   0
       248    321.6303    464.0127 300.1681968 +22.6129017     4828.595     72.50858      1.279     2.19     4.467853     20.45687     680.4923        30     1.106     0.996  64.12   0
       249    565.7993    460.6534 300.2452692 +22.6851415     18153.46     72.47163      1.251     2.07     4.333279     20.45687     2824.241        55     1.160     1.120  87.54   0
       250    583.1326    460.7956 300.2506199 +22.6903777     826.3801      72.4901      1.848     6.00     4.315881     20.45687     69.69515        15     1.469     0.688 -39.65   0
       251    413.1920    462.1275 300.1972920 +22.6398159     495.8075      72.4901      2.073     3.70     4.354771     20.45687     46.43203         5     0.910     0.432  43.04   0
       252    809.7416    456.4122 300.3226385 +22.7570230      211.933     72.47163      1.465     3.28      4.44286     20.45687     33.13767         5     0.716     0.476 -13.57   0
       253    762.8251    450.7254 300.3098642 +22.7413332     262.0507     72.50858      1.069     2.03     4.489321     20.45687     63.84686         7     0.709     0.603   5.08   0
       254    899.2339    443.0557 300.3548753 +22.7799928     815.0959     72.52704      1.317     2.54     4.136731     20.45687      116.698        12     0.982     0.710 -14.68   0
       255    436.0096    442.1349 300.2108851 +22.6409177     359.2334     72.47163      1.287     2.95     4.385682     20.45687     49.47427         7     0.861     0.532  45.53   0
       256    120.3251    440.9504 300.1131048 +22.5459057     2040.558     72.50858      1.456     2.71     3.888109     20.45687     235.5751        22     1.125     1.030  73.62   0
       257    776.9048    432.4832 300.3201766 +22.7403106     353.7579     72.69302      1.808     4.23     4.461708     20.45687     33.66891         6     1.322     0.386  14.56   0
       258    506.4306    430.0917 300.2367129 +22.6585706     6491.723     72.45315      1.256     2.05     4.361221     20.45687     919.4706        33     1.163     0.969  72.80   0
       259    920.1253    430.2660 300.3655436 +22.7825744     1177.227     72.56396      1.344     2.40     3.962153     20.45687     170.5436        17     0.997     0.929  40.93   0
       260    221.1057    429.5365 300.1481353 +22.5728603     637.1357     72.60086      1.320     2.96     4.604758     20.45687     77.04489        11     0.956     0.768   9.23   0
       261     78.8178    422.9014 300.1060690 +22.5282758     476.0721     72.43466      1.276     3.21      4.12713     20.45687     65.04891         9     0.856     0.809  80.04   0
       262    766.4450    421.9487 300.3203383 +22.7341504     242.2527     72.52704      1.115     2.80     4.468413     20.45687     46.30373         6     0.768     0.483  78.89   0
       263    620.1450    420.3912 300.2752680 +22.6898667     489.9326     72.50858      1.251     2.40     4.152499     20.45687     81.39656         7     0.804     0.577  81.03   0
       264    710.6239    418.9328 300.3039246 +22.7165597     1170.287      72.4901      1.332     2.41     4.373532     20.45687     163.7713        14     0.947     0.801  80.42   0
       265    997.0984    417.3789 300.3937357 +22.8019216     289.2199     72.43466      1.371     4.10     3.785271     20.45687     40.62054         7     0.944     0.722  82.57   0
       266    413.0631    416.4588 300.2120835 +22.6266671     6128.542      72.5455      1.286     2.18     4.351767     20.45687     855.2896        31     1.096     1.000  78.34   0
       267    804.9581    410.9009 300.3359287 +22.7425136     1371.344      72.4901      1.294     2.03     4.360319     20.45687     238.9074        18     1.202     0.809 -85.49   0
       268    902.4283    410.8708 300.3663242 +22.7717001     635.6827     72.50858      1.239     2.16     3.856458     20.45687     85.97701         8     0.716     0.675  17.73   0
       269    397.6870    405.3939 300.2108925 +22.6188808     411.7294     72.43466      1.302     3.74     4.321122     20.45687     69.74603         9     1.065     0.645 -72.02   0
       270    480.8627    404.5384 300.2370529 +22.6435693     1678.378      72.5455      0.647    -0.31     4.385371     20.45687     1157.274        11     1.060     0.334  72.00   0
       271    758.5306    401.5218 300.3245055 +22.7259105     247.2676      72.6193      1.493     3.61     4.441991     20.45687     41.97414         5     0.944     0.496  -4.04   0
       272    777.6509    398.1451 300.3315605 +22.7306683     466.7576      72.5455      1.001     2.12     4.391504     20.45687     98.15927         6     0.726     0.477  89.33   0
       273    300.5731    395.7587 300.1838130 +22.5869976     2378.574      72.5455      1.257     2.25      4.47752     20.45687     337.3714        22     1.003     0.974  89.94   0
       274     19.3045    393.0442 300.0972758 +22.5018565     984.1249     72.52704      1.459     3.46     4.780172     20.45687     99.73123        17     1.162     0.949  37.12   0
       275    648.2682    390.0529 300.2938786 +22.6895799     295.8771     72.52704      1.124     3.10      4.14212     20.45687     54.67838         5     0.897     0.567  18.62   0
       276    269.9368    385.1083 300.1777441 +22.5747542     29571.53      72.6193      1.339     2.31     4.520646     20.45687     4083.198        71     1.309     1.180  68.67   0
       277    804.6265    382.4467 300.3450652 +22.7342381     1333.554      72.5455      1.161     2.07     4.261439     20.45687     184.5256        13     0.845     0.771 -55.44   0
       278    760.1566    380.0653 300.3319795 +22.7202328     265.4525      72.4901      1.281     2.73      4.38917     20.45687     50.71259         6     0.869     0.462  54.16   0
       279    719.9692    371.3264 300.3222950 +22.7056828     519.5628     72.52704      1.079     2.04      4.36082     20.45687     98.75326        10     0.794     0.707 -87.90   0
       280    144.4053    371.3314 300.1431935 +22.5331539     392.0783     72.47163      1.080     3.68     4.229968     20.45687     56.79729         8     1.003     0.746  85.67   0
       281    843.8248    371.0634 300.3609797 +22.7427078     319.9844      72.4901      1.287     5.33     4.035997     20.45687     43.45391         6     1.373     0.584 -30.86   0
       282    368.3234    370.1807 300.2131908 +22.5999685     508.4201     72.50858      1.195     2.30     4.251765     20.45687     78.66783         8     0.781     0.619 -56.51   0
       283    680.3194    364.6464 300.3121115 +22.6918847     1984.954      72.4901      1.229     2.19     4.174173     20.45687     288.1785        15     0.970     0.780 -85.11   0
       284    488.3994    359.2564 300.2541013 +22.6328255     275.5963     72.43466      1.065     2.92     4.172514     20.45687     46.79929         6     0.709     0.617 -50.15   0
       285    895.4315    357.5573 300.3814542 +22.7542817     615.9055     72.56396      1.213     2.26     3.929325     20.45687     82.35012         9     0.807     0.679 -80.66   0
       286    342.0809    349.3115 300.2118028 +22.5861098     2136.639     72.63774      1.476     2.88     4.251166     20.45687     272.9776        23     1.385     0.883  60.54   0
       287    554.4193    348.1248 300.2782669 +22.6494143     261.4739     72.50858      1.144     2.19     4.134781     20.45687     51.94093         5     0.693     0.457  69.10   0
       288    781.2844    341.9840 300.3509277 +22.7156191      685.235     72.47163      1.288     1.84     4.281655     20.45687     128.6661        12     0.909     0.762 -66.04   0
       289    663.3353    339.8112 300.3148839 +22.6796613     473.9842     72.43466      1.254     2.35     4.158553     20.45687     60.19024         7     0.763     0.600  64.59   0
       290    632.0025    339.0326 300.3053775 +22.6700500     377.3358     72.47163      1.194     2.77     4.146887     20.45687      48.6736         5     0.634     0.579  -0.07   0
       291    417.9605    328.8777 300.2420425 +22.6029894     1149.255      72.4901      1.246     2.35     4.139878     20.45687     169.8911        13     0.862     0.842   3.04   0
       292    225.0183    329.1521 300.1819437 +22.5452243     197.5788      72.5455      1.190     3.94     4.503568     20.45687     29.61208         6     0.929     0.477 -35.78   0
       293    929.2630    324.8331 300.4026278 +22.7550060     365.0068     72.50858      1.309     3.64     3.936322     20.45687     43.09323         9     0.929     0.660  19.48   0
       294    801.5371    321.7846 300.3637973 +22.7158802     240.9223     72.47163      1.155     2.67     4.295134     20.45687     54.52285         6     0.846     0.485 -44.52   0
       295    662.8633    320.6700 300.3209507 +22.6740207     2164.291      72.5455      1.196     1.93     4.197808     20.45687     363.1335        19     0.961     0.875  82.91   0
       296    924.0692    314.8319 300.4042548 +22.7505758     3204.433      72.4901      1.299     2.04     3.936865     20.45687     534.2095        25     1.137     0.923 -85.72   0
       297    985.2343    309.5597 300.4250427 +22.7673732     499.5287      72.5455      1.395     2.66     4.135439     20.45687     60.63865         8     0.807     0.668 -45.05   0
       298    371.0071    304.3959 300.2353809 +22.5818855     724.6197     72.34216      1.384     3.06     4.155496     20.45687     95.58496        15     1.106     0.879  80.82   0
       299    993.4475    302.7238 300.4298237 +22.7678666     1577.197     72.50858      1.366     2.19     4.225383     20.45687     227.4278        22     1.153     0.980  -1.40   0
       300     76.7987    298.6749 300.1457701 +22.4920284     617.0122     72.39767      1.358     2.84     4.544343     20.45687     76.29563        11     0.962     0.725  58.59   0
       301     46.0529    298.7015 300.1362096 +22.4828143     1300.762     72.60086      1.598     3.21     4.554464     20.45687     151.4561        20     1.289     0.936 -27.85   0
       302    939.8922    295.3084 300.4155268 +22.7497008     474.3758     72.67461      1.284     2.24     3.999457     20.45687     75.98321         7     0.702     0.633 -40.44   0
       303    783.3860    292.2145 300.3677387 +22.7019456     311.9349     72.43466      1.291     3.42     4.423009     20.45687     32.59254         5     0.729     0.464  74.70   0
       304    129.9485    290.9737 300.1647849 +22.5057582     540.9082     72.52704      1.390     2.03     4.396585     20.45687     86.95321         7     0.821     0.489  50.25   0
       305    806.0492    283.9915 300.3774712 +22.7063696     350.5851     72.50858      1.043     1.66      4.39593     20.45687       63.229         5     0.568     0.550  88.82   0
       306    734.4357    281.9344 300.3558215 +22.6843302     541.1118     72.50858      1.073     2.31     4.410896     20.45687     110.7347        10     0.839     0.715  16.63   0
       307    324.9833    281.5812 300.2284694 +22.5615388     296.6652      72.4901      1.121     3.76     4.182891     20.45687     49.06525         8     0.822     0.694 -79.64   0
       308    825.1803    274.8399 300.3864046 +22.7094684     475.4318      72.5455      1.247     2.26     4.282222     20.45687     66.12933         8     0.791     0.627  41.99   0
       309    832.5709    271.0776 300.3899295 +22.7106001     2054.443     72.50858      1.275     2.07     4.245855     20.45687     291.7889        22     1.078     0.914 -67.69   0
       310    251.1480    268.4633 300.2097651 +22.5356380     1994.139     72.56396      1.286     2.43     4.364896     20.45687     274.2326        21     1.068     0.881  68.36   0
       311    329.0594    263.6127 300.2355685 +22.5576014     1053.224      72.4901      1.462     3.17     4.190723     20.45687     113.9003        19     1.159     0.980  28.57   0
       312    730.8386    262.6574 300.3609571 +22.6777130     534.3646     72.50858      1.040     2.15     4.369741     20.45687     104.6628        10     0.779     0.767 -86.81   0
       313     81.0224    263.2347 300.1585838 +22.4831251     501.7804     72.52704      1.972     4.62     4.545177     20.45687      36.6253         7     0.824     0.736  54.69   0
       314    376.1301    260.7083 300.2511534 +22.5708763     416.0872     72.63774      1.753     3.50     4.137435     20.45687     33.76876         5     1.011     0.349  45.28   0
       315    837.5224    259.2274 300.3953189 +22.7086765     431.8474     72.50858      1.326     3.19     4.263651     20.45687     50.72663         6     0.777     0.498  86.87   0
       316    145.7525    255.7279 300.1811344 +22.5003817     820.7885      72.4901      1.409     2.85     4.448701     20.45687      108.348        12     0.998     0.783  41.08   0
       317    748.7568    251.9943 300.3700009 +22.6800150     548.7315     72.50858      1.306     3.60     4.372847     20.45687     79.63774        11     1.072     0.747  44.83   0
       318    683.6212    252.4604 300.3495556 +22.6606400     1690.188     72.45315      1.198     2.08     4.278512     20.45687     242.3949        17     0.968     0.830 -82.60   0
       319    167.1980    248.9654 300.1899942 +22.5048710     447.5157     72.47163      1.269     2.59     4.453733     20.45687     69.86236         8     0.782     0.665  53.34   0
       320    409.5953    248.4040 300.2655582 +22.5773726     127.1586     72.34216      1.127     3.94     4.136559     20.45687     30.18232         5     1.047     0.425 -14.86   0
       321    955.1428    244.7647 300.4366876 +22.7397344      850.589     72.52704      1.266     2.56     4.531298     20.45687     128.0634        13     0.921     0.853  85.97   0
       322    456.8453    244.8801 300.2814051 +22.5905204     405.3818      72.4901      1.485     2.42     4.299594     20.45687     63.12712         5     0.714     0.663 -24.65   0
       323    687.5969    243.9990 300.3535400 +22.6593993     702.5897     72.28661      1.227     2.02     4.280434     20.45687     117.8634        10     0.852     0.648  30.12   0
       324    608.2076    243.1928 300.3290741 +22.6353867     1341.504     72.36067      1.273     2.34     4.262796     20.45687     198.8483        19     1.037     0.892  54.80   0
       325    429.3803    239.8067 300.2745044 +22.5808328     408.9851     72.47163      1.133     3.06     4.188889     20.45687     42.77947         5     0.718     0.466 -75.48   0
       326    534.3936    234.8979 300.3087824 +22.6108894     1055.266     72.39767      1.361     2.63      4.27964     20.45687       117.81        18     1.128     0.877  71.10   0
       327    803.5968    234.5925 300.3927387 +22.6914363     1366.019     72.32365      1.257     2.19     4.425813     20.45687      215.448        16     0.952     0.871  73.06   0
       328    815.6872    233.7853 300.3967691 +22.6948247       805.32     72.45315      1.239     2.12     4.403239     20.45687      125.192        11     0.802     0.755  14.68   0
       329    976.5683    224.4063 300.4499768 +22.7402940     1625.766     72.50858      1.310     2.35     4.810608     20.45687     202.3276        21     1.035     0.994  38.14   0
       330    932.4641    223.9744 300.4363614 +22.7269672     1022.801      72.4901      1.277     2.21     4.640334     20.45687     144.5497        14     0.928     0.833  28.09   0
       331    166.5322    217.3322 300.2000513 +22.4955911     671.1747     72.56396      1.333     2.69     4.618706     20.45687     92.16503        12     0.959     0.781  67.32   0
       332     89.8443    217.5846 300.1761372 +22.4726694     132.4548     72.52704      1.395     4.85     4.584734     20.45687     29.28598         5     1.058     0.629  63.25   0
       333     28.3100    212.0350 300.1588205 +22.4526238     2217.608      72.4901      1.510     2.94     4.445594     20.45687     233.5789        24     1.342     0.985  66.22   0
       334    851.4548    208.7974 300.4160271 +22.6983508     653.1494     72.45315      1.193     2.22     4.468909     20.45687     106.8965         9     0.816     0.666  87.75   0
       335    185.7641    205.4668 300.2098788 +22.4979509     5427.468     72.50858      1.408     2.45      4.70493     20.45687     642.0807        31     1.179     1.027  76.66   0
       336    167.3614    206.1376 300.2039410 +22.4926262      283.122     72.50858      1.271     3.52     4.696777     20.45687      43.7179         5     0.818     0.437  73.22   0
       337    169.0818    196.3810 300.2076410 +22.4903412      517.212      72.4901      1.278     2.59      4.76792     20.45687     75.13929        12     0.976     0.735 -89.17   0
       338    984.6072    192.5782 300.4628118 +22.7335472     18208.98      72.4901      1.327     2.29     4.855775     20.45687     2396.042        58     1.288     1.149  83.27   0
       339    829.9275    186.7058 300.4164840 +22.6855543     3636.881     72.63774      1.316     2.24     4.593873     20.45687     527.9401        33     1.182     1.062 -68.57   0
       340    933.4833    185.4769 300.4491705 +22.7162024     2744.312      72.6193      1.286     2.20     4.784662     20.45687     337.5913        27     1.184     1.030 -64.00   0
       341    379.2136    181.9915 300.2776536 +22.5491938     650.9354     72.39767      1.331     2.67     4.536822     20.45687     84.60818        11     0.932     0.735  84.82   0
       342    132.4625    183.0108 300.2005971 +22.4755242     398.0036     72.43466      1.096     2.13     4.816322     20.45687     46.76348         6     0.730     0.498 -88.33   0
       343    493.5484    180.1718 300.3138237 +22.5829300     281.5599     72.52704      1.262     2.28     4.626414     20.45687     52.85505         5     0.693     0.472 -71.92   0
       344    303.4184    173.3466 300.2568812 +22.5239959     811.9638      72.4901      1.781     4.33     4.941205     20.45687     69.04671        11     1.246     0.664 -85.02   0
       345     69.3353    170.9649 300.1848889 +22.4531389     579.4216     72.50858      1.333     2.70     4.553867     20.45687     70.85778         8     0.831     0.653  82.24   0
       346    358.4893    169.7566 300.2751754 +22.5394692     391.5129     72.52704      1.230     3.12     4.893766     20.45687     65.68614         7     0.939     0.478  79.47   0
       347    492.4554    168.3805 300.3173087 +22.5792150     368.3264      72.4901      1.075     2.25       4.6794     20.45687     64.81174         5     0.676     0.463 -68.20   0
       348    173.9637    164.7436 300.2194216 +22.4827221     422.8179     72.50858      1.576     3.68     4.989066     20.45687     52.73532         8     0.875     0.765 -67.83   0
       349    646.8522    162.8481 300.3671780 +22.6238744     325.0119      72.5455      1.099     2.21     4.353717     20.45687     47.55348         6     0.737     0.529  46.50   0
       350    719.1498    158.4996 300.3911111 +22.6442759     303.3321     72.60086      1.094     2.77     4.402538     20.45687     52.17457         7     0.813     0.605 -75.27   0
       351    430.6231    169.2611 300.2977793 +22.5609422     1703.979      72.4901      1.279     2.29       4.3123     20.45687     207.9357        20     1.154     0.903  81.66   0
       352    303.9520    154.1961 300.2632592 +22.5186562      93.5916      72.4901      1.061     3.95     5.088889     20.45687     32.31981         5     0.847     0.527  49.76   0
       353    865.0031    152.8777 300.4383931 +22.6863290     226.2037     72.41617      1.195     2.39      4.75509     20.45687     50.96198         5     0.771     0.478  58.12   0
       354    995.0826    149.8608 300.4799381 +22.7243966     3536.584     72.60086      1.364     2.22     4.906111     20.45687      523.153        27     1.125     1.020  79.42   2
       355     55.6165    148.8465 300.1878011 +22.4426768     1061.261      72.5455      2.583     5.49     4.492225     20.45687     93.66193        17     1.582     0.871  83.78   0
       356    204.6764    149.2539 300.2339931 +22.4874815     5821.333      72.5455      1.386     2.39     5.034571     20.45687     685.7085        35     1.266     1.030  63.56   0
       357    220.2654    140.7307 300.2416041 +22.4897069     249.8232     72.56396      1.085     2.56     5.044812     20.45687     54.51317         6     0.845     0.547  29.21   0
       358    450.7525    134.5241 300.3153113 +22.5569942     5983.933     72.50858      1.288     2.26     4.613945     20.45687     865.7944        31     1.137     0.994  72.36   0
       359    336.3033    134.5991 300.2796780 +22.5227230     545.4748     72.39767      1.235     2.34     5.089794     20.45687     89.14047         9     0.918     0.573 -85.74   0
       360    507.6844    128.9543 300.3348379 +22.5724496     302.1819      72.4901      1.257     4.66     4.706159     20.45687     39.10576         8     1.065     0.578  64.27   0
       361    703.1390    124.0742 300.3972894 +22.6295860     883.6909      72.5455      1.529     2.62     4.559307     20.45687     98.19163        12     0.989     0.707  86.09   2
       362    644.6475    125.5760 300.3785813 +22.6125019     368.8035     72.52704      1.427     2.84     4.518884     20.45687     54.38192         7     0.840     0.640  70.84   0
       363    795.8922    122.8056 300.4266041 +22.6569926     423.7825     72.41617      1.204     2.06     4.857929     20.45687     91.47023        10     0.828     0.695 -88.10   0
       364    143.5244    118.1534 300.2250719 +22.4602210     464.5914     72.50858      1.353     3.35     5.033215     20.45687     63.96278        10     1.046     0.712 -82.37   0
       365    502.1421    117.2705 300.3369022 +22.5674322      454.713     72.52704      1.345     2.64      4.71161     20.45687     78.69733         9     0.884     0.678  74.45   0
       366    579.1360    114.6328 300.3617284 +22.5897365      6245.71     72.50858      1.280     2.10     4.656864     20.45687     947.3798        34     1.168     0.997  72.45   0
       367    353.9590    113.6348 300.2919695 +22.5219920     1573.536     72.56396      1.373     2.49     5.080078     20.45687     182.3089        21     1.223     0.889  70.08   0
       368    620.3319    112.1471 300.3753636 +22.6013601     781.5428     72.52704      1.297     2.74      4.61189     20.45687     116.7456        14     1.010     0.862  73.55   0
       369    689.9691    110.0761 300.3977265 +22.6216185      451.088     72.50858      1.424     5.40     4.604999     20.45687     55.86675         9     1.438     0.585  83.77   0
       370    636.1612    107.8765 300.3816787 +22.6048732     681.5895      72.4901      1.290     2.36     4.608117     20.45687     81.55376         9     0.839     0.645  69.98   0
       371    102.8300    106.0025 300.2163659 +22.4445332     844.2056     72.47163      1.639     4.50     5.011111     20.45687     75.84868        15     1.320     0.899 -31.99   0
       372    906.0201    105.2880 300.4666186 +22.6849214     571.4971     72.43466      1.423     2.49     4.957095     20.45687     71.95631        10     0.872     0.707 -79.80   0
       373    674.7498    103.4043 300.3951491 +22.6151433     371.0387      72.4901      1.063     2.67     4.603578     20.45687     73.38316         7     0.898     0.538 -73.37   0
       374    161.3300    104.3562 300.2350805 +22.4615970     267.5251     72.47163      1.473     3.89     5.066532     20.45687     32.01726         6     0.863     0.507 -45.17   0
       375    623.3611     99.5371 300.3803967 +22.5986430     2741.612     72.50858      1.264     2.27     4.648975     20.45687      375.222        21     1.088     0.843  88.25   0
       376    638.6539     98.5283 300.3854869 +22.6029327     930.8725     72.52704      1.825     4.13     4.642321     20.45687       108.41        14     1.430     0.724  50.11   0
       377    263.9586    100.1493 300.2683510 +22.4911487     427.5205     72.50858      1.325     2.98     5.106443     20.45687     51.66171         8     0.814     0.657  37.64   0
       378    709.7585     91.0352 300.4100671 +22.6220703     1422.705     72.56396      1.244     2.47     4.805673     20.45687     211.4443        17     1.022     0.816 -82.57   0
       379    869.6887     89.3829 300.4604486 +22.6694729     326.5136     72.43466      1.488     4.09     5.046332     20.45687     38.60844         5     0.986     0.484  -2.73   0
       380    787.8062     85.1853 300.4362852 +22.6437551     304.8311     72.39767      1.111     2.86      5.06236     20.45687     44.32748         6     0.765     0.531 -45.39   0
       381    647.5357     84.0781 300.3929396 +22.6014389     702.1801     72.60086      1.284     2.57     4.745932     20.45687     103.2901        10     0.958     0.618  53.39   0
       382    453.2321     83.5170 300.3326254 +22.5430823     1066.869      72.4901      1.241     2.34     4.834579     20.45687     138.0546        11     0.908     0.675  78.23   0
       383     26.2184     83.4833 300.1998659 +22.4151003     458.4108     72.45315      1.310     3.43      4.72315     20.45687     55.81207         6     0.705     0.660 -39.50   0
       384    357.1480     81.6480 300.3033347 +22.5137592     686.1039      72.5455      1.259     2.45     5.075788     20.45687     115.1362        13     0.943     0.799 -83.52   0
       385    739.7097     80.3535 300.4228635 +22.6279669     412.2161      72.4901      1.229     2.34     5.006156     20.45687     58.86679         6     0.676     0.606  64.11   0
       386   1000.0922     78.2826 300.5047171 +22.7053064     2174.003     72.65617      1.290     2.39     5.078823     20.45687     306.7187        22     1.089     0.966  73.39   0
       387    128.6192     71.8218 300.2354640 +22.4424504     3740.095     72.50858      1.502     2.63     5.256876     20.45687     404.3677        34     1.341     1.098  46.14   0
       388    696.6459     72.0390 300.4121421 +22.6126831     668.3688     72.56396      1.350     2.97     4.992881     20.45687     74.32868        11     0.940     0.756  13.80   0
       389    454.6709     68.9668 300.3377914 +22.5393326     236.1171     72.50858      1.194     3.83     4.869699     20.45687     47.59399         6     1.008     0.417 -76.41   0
       390    689.8528     64.0781 300.4126073 +22.6083605     854.6747      72.5455      1.276     2.31     5.071045     20.45687       135.53        13     0.880     0.823 -77.64   0
       391    244.5373     63.8563 300.2740807 +22.4749051     1141.181     72.56396      1.303     2.50     5.263964     20.45687      141.752        17     1.073     0.853  47.90   0
       392    655.6307     62.9499 300.4023124 +22.5977894     256.4506      72.5455      1.100     3.09     4.951787     20.45687     47.43891         5     0.751     0.425  68.25   0
       393    176.8213     63.5791 300.2531184 +22.4545313     311.5056     72.50858      1.530     3.45     5.334886     20.45687     29.53046         5     0.808     0.425  21.42   0
       394    471.0539     61.3543 300.3453587 +22.5420527     276.6887      72.5455      1.535     4.17     4.849305     20.45687     34.97425         5     1.072     0.462 -62.08   0
       395    727.7518     59.3433 300.4259506 +22.6183461      594.618      72.5455      1.583     4.17     5.210894     20.45687     64.00582        12     1.069     0.774  66.75   0
       396    651.3066     58.7606 300.4023240 +22.5952904     488.4583     72.52704      1.503     2.79     4.957153     20.45687     67.14664         9     0.840     0.760 -78.69   0
       397    747.8051     55.3642 300.4334895 +22.6232056     2141.342     72.52704      1.293     2.21     5.291708     20.45687     284.1345        21     1.084     0.914  74.34   0
       398    200.9038   1016.2211 299.9511038 +22.7350332     747.6476     72.41617      2.301     5.90     10.51517     20.45687     61.79223        18     1.539     1.000  87.38  16
       399    922.9036     48.6039 300.4902658 +22.6736709     759.0154     72.41617      1.347     2.60     5.084427     20.45687     126.4087        13     0.970     0.879  56.60   0
       400    696.1371     47.9002 300.4198109 +22.6055910     818.5225     72.60086      1.314     2.24     5.271961     20.45687      148.356        14     1.028     0.799  66.75   0
       401    403.4152     46.2868 300.3291953 +22.5174617     293.4705     72.45315      1.057     2.83     5.039494     20.45687     55.55976         6     0.881     0.450   3.61   0
       402    118.7568     46.6150 300.2405718 +22.4322565     237.0023     72.52704      1.169     2.75     5.461949     20.45687     40.89436         5     0.733     0.436  21.43   0
       403    130.9328     50.8440 300.2429847 +22.4371204     967.7159      72.4901      1.454     3.36     5.430832     20.45687     106.7844        15     1.096     0.907  61.30   0
       404    280.7720     37.4582 300.2939072 +22.4781809     541.4386     72.50858      1.663     4.57     5.141594     20.45687     42.51136        10     1.059     0.750 -55.72   0
       405    548.5071     32.8268 300.3787191 +22.5570522     754.3862     72.45315      1.265     2.48     4.715445     20.45687     119.4174        13     0.973     0.807  66.42   0
       406    780.8937     31.7772 300.4514490 +22.6263283     277.7404     72.41617      1.370     4.06     5.574372     20.45687     38.45189         7     0.976     0.632 -87.63   0
       407    158.0296     30.0101 300.2581610 +22.4392593     448.3607     72.50858      1.338     2.89     5.603034     20.45687     67.70437         9     1.008     0.591  76.11   0
       408    711.7524     27.7971 300.4311940 +22.6044861     731.1512     72.50858      1.345     2.97     5.531333     20.45687     92.67775        12     0.927     0.856 -58.68   0
       409    520.4333     25.9530 300.3722075 +22.5466690     1950.239      72.5455      1.294     2.25     4.797619     20.45687      255.761        19     1.049     0.873  88.92   0
       410    243.1100     23.3063 300.2867839 +22.4628307     607.2197     72.67461      1.328     2.97     5.488828     20.45687     70.65855        12     0.937     0.834   6.02   0
       411     72.9431   1016.9418 299.9111086 +22.6968081     852.7708     72.58241      6.482     7.05     43.73069     20.45687     27.83997        10     1.799     0.773 -54.66  17
       412    489.0728   1016.2660 300.0407131 +22.8215590     460.9326      72.5455      2.029     5.27     2.603147     20.45687     33.66758         8     0.977     0.802 -62.69   0
       413    178.1768     15.3608 300.2691724 +22.4410903     435.5772      72.5455      1.382     3.88     5.719013     20.45687     56.70003         9     0.920     0.756 -74.69   0
       414    227.2786     13.2827 300.2851109 +22.4552077     410.1385     72.63774      1.254     3.60     5.706528     20.45687      49.0137         6     0.730     0.623  89.85   0
       415     36.9394    990.6820 299.9084729 +22.6784706     2048.432     72.60086      7.012    21.65     42.52988     20.45687     54.74309       103     5.257     2.476 -20.17   3
       416    761.9960   1014.8442 300.1261634 +22.9030407     379.1177     72.52704      1.518     3.86     3.873113     20.45687     34.93322         5     0.834     0.513  59.58   0
       417     59.6084   1013.3574 299.9081332 +22.6917757     1225.002     72.52704      7.623     8.59     46.86134     20.45687     44.92266        18     1.861     1.109  74.08  19
       418     34.9567    978.5304 299.9118122 +22.6743939     2094.777     72.47163      5.964    26.99     35.95669     20.45687     59.59763       158     5.829     3.469 -43.47  19
