#   1 NUMBER                 Running object number                                     
#   2 X_IMAGE                Object position along x                                    [pixel]
#   3 Y_IMAGE                Object position along y                                    [pixel]
#   4 ALPHA_J2000            Right ascension of barycenter (J2000)                      [deg]
#   5 DELTA_J2000            Declination of barycenter (J2000)                          [deg]
#   6 FLUX_APER              Flux vector within fixed circular aperture(s)              [count]
#   7 FLUXERR_APER           RMS error vector for aperture flux(es)                     [count]
#   8 FLUX_RADIUS            Fraction-of-light radii                                    [pixel]
#   9 FWHM_IMAGE             FWHM assuming a gaussian core                              [pixel]
#  10 BACKGROUND             Background at centroid position                            [count]
#  11 THRESHOLD              Detection threshold above background                       [count]
#  12 FLUX_MAX               Peak flux above background                                 [count]
#  13 ISOAREA_IMAGE          Isophotal area above Analysis threshold                    [pixel**2]
#  14 A_IMAGE                Profile RMS along major axis                               [pixel]
#  15 B_IMAGE                Profile RMS along minor axis                               [pixel]
#  16 THETA_IMAGE            Position angle (CCW/x)                                     [deg]
#  17 FLAGS                  Extraction flags                                          
         1    481.9196     15.8905 300.3326209 +22.5431965     985.3069     72.37146      1.688     3.09     7.081165     20.38705     122.6965        15     1.064     0.917 -68.61   0
         2    385.9784     13.8733 300.3033970 +22.5139054     854.8549     72.26111      1.729     3.35     6.180174     20.38705     75.66126        14     1.034     0.886 -47.08   0
         3    681.0096     10.0640 300.3965469 +22.6010815      278.683     72.22429      1.545     3.64     6.853738     20.38705     29.56757         5     1.002     0.381  58.00   0
         4    725.2389      4.9714 300.4119861 +22.6128447     651.2952     71.55827      1.665     3.90     7.033874     20.38705     57.22818        13     1.019     0.940  24.96  16
         5    157.0627      3.8086 300.2354198 +22.4424865     3829.989     68.09154      1.825     3.55     7.434994     20.38705     313.1872        38     1.472     1.316  22.82  24
         6    160.4933    990.1288 299.9163780 +22.7266635     2098.061     72.38983      8.502    13.22     74.18305     20.38705     56.64021        47     2.245     2.165 -15.86   3
         7     71.1118   1010.8080 299.8818623 +22.7057723     5622.199     72.16902     15.965   105.17     71.74879     20.38705     161.8156      2384    17.759    17.281  35.11  27
         8    223.3621    973.7466 299.9412593 +22.7408267      7052.09     72.26111      7.491    30.99     51.13919     20.38705     146.3497       655     9.692     4.972  58.61  18
         9    624.4562    985.1236 300.0624370 +22.8643666     9828.673     72.27951      2.528    14.02     4.813563     20.38705     406.9666        76     3.195     1.710 -11.73   3
        10    719.0586    988.0787 300.0909618 +22.8935694     631.1766     72.29791      2.418     7.17     4.717666     20.38705     36.51458        11     1.491     1.021  14.03   0
        11     61.5781    917.4100 299.9092692 +22.6761333      3834.93     72.26111     14.496    61.06     16.30502     20.38705     90.04478      1135    14.902     6.943 -28.05  19
        12    153.1675    978.3192 299.9179404 +22.7210791     2050.227     72.26111     10.400    16.44     63.32113     20.38705     66.74899        37     4.071     1.845  73.15   3
        13    910.5017    971.7886 300.1559671 +22.9462536     332.4077     72.15059      1.675     4.90     4.780691     20.38705     29.44247         5     0.969     0.703  62.17   3
        14    185.6654   1000.2816 299.9209045 +22.7371273     1373.273     72.37146      6.685     9.00     80.04849     20.38705     47.86014        20     1.842     1.339  14.71   3
        15    912.9417    971.2330 300.1569092 +22.9468249     575.3386     72.27951      1.914     4.95      4.77893     20.38705     39.41801         8     1.753     0.396  71.91   2
        16    123.3604    962.9910 299.9136564 +22.7077406      567.317     72.26111      3.925     4.56     49.74371     20.38705     39.70051         5     1.079     0.548  10.49   1
        17    215.3829   1001.1250 299.9298734 +22.7462848     551.9668     72.26111      1.718     6.71     77.27979     20.38705     56.63999        12     1.429     0.974 -86.29   0
        18    637.1974    954.2363 300.0764527 +22.8593191     6870.436     72.26111      2.121     5.04     4.804017     20.38705     339.9779        55     1.687     1.573 -10.86   0
        19    147.6970    947.9984 299.9260989 +22.7107429     976.1893     72.16902      9.775    12.04      36.1663     20.38705     36.72015        18     2.152     1.877  81.36   0
        20    137.6727    951.0994 299.9219735 +22.7086247     781.9388      72.4082      3.761     4.40     38.88178     20.38705     43.57829         5     1.324     0.416  58.83   1
        21    532.3610    991.7085 300.0316027 +22.8386481     2227.756     72.26111      2.103     5.82     4.825542     20.38705     105.4495        38     1.614     1.512  10.87   0
        22    229.3700    948.1600 299.9514485 +22.7352903    -23.27907     72.26111      1.108     4.51     25.33993     20.38705     35.29556         5     1.424     0.407  78.99   0
        23    545.8092    944.6929 300.0510819 +22.8291861     1569.591     72.18745      2.151     5.95     4.787406     20.38705     79.72122        31     1.670     1.317  37.41   0
        24    152.3846    943.8829 299.9288948 +22.7109691     647.1464     72.22429      4.192     6.54     32.54566     20.38705     29.50905         9     2.281     0.527  -6.51   1
        25    440.1195    941.8490 300.0190906 +22.7966837     1067.321     72.29791      2.187     7.12     4.610033     20.38705     59.87792        19     1.432     1.169  50.85   2
        26    370.1551    939.2897 299.9981415 +22.7749701     6633.859      72.2427      2.154     4.87     4.815411     20.38705     380.6668        55     1.662     1.628  63.69   0
        27    341.3132    999.0507 299.9697301 +22.7834651      691.954     72.26111      3.330     6.04     4.865366     20.38705     45.02188         7     1.572     0.653 -54.55   0
        28    185.5073    985.8494 299.9255490 +22.7329412     3958.113     72.29791      8.273    22.43     67.23303     20.38705     77.94541       268     5.055     4.683  50.10   3
        29    204.5269    984.8748 299.9317816 +22.7383677      4898.07     72.31631      8.634    27.50     63.77954     20.38705     93.10344       385     6.450     4.865 -58.43  19
        30    402.9501    926.8074 300.0124091 +22.7812225     500.9885     72.26111      1.998     5.46     4.666232     20.38705     36.93169         7     1.162     0.723  18.46   0
        31    916.3506    918.3450 300.1751722 +22.9326538     2193.978     72.29791      2.223     5.99     4.732352     20.38705     111.4127        37     1.671     1.497 -18.22   0
        32    706.0000    908.0088 300.1129293 +22.8666659     787.6024     72.05836      2.404     3.64     4.776318     20.38705     48.73954         8     1.042     0.761  75.25   2
        33    156.8606    998.6048 299.9124917 +22.7280041     2997.921     72.22429      6.169    22.13      82.3295     20.38705     65.70335       161     5.170     3.117  39.46  18
        34    740.0357    901.2588 300.1257349 +22.8749260     1062.634     72.27951      2.062     6.06     4.811015     20.38705     62.57211        25     1.540     1.251   1.15   0
        35    619.6636    987.0492 300.0603173 +22.8634827     8020.006     72.31631      2.178     6.38     4.814094     20.38705     410.6436        36     1.692     1.409  74.22   3
        36    762.4091    894.9550 300.1347604 +22.8798192     11580.43     72.27951      2.075     4.85      4.84253     20.38705     610.9723        61     1.685     1.571 -34.61   0
        37    807.8026    894.5636 300.1490433 +22.8933065     520.3033     72.26111      2.067     6.97     4.849403     20.38705     33.06645        10     1.519     0.897  34.83   0
        38    190.1515    894.3543 299.9567430 +22.7080933     732.4804     72.29791      4.659     4.50      10.7844     20.38705     26.22417         5     1.160     0.496  56.21   0
        39     74.5672    885.6221 299.9236409 +22.6709152     677.4144     72.26111      3.015     5.90     11.81526     20.38705     44.28619        12     1.724     0.616  77.12   0
        40    467.4140    882.9666 300.0467343 +22.7879682     491.5049      72.2427      1.811     6.20     4.796262     20.38705     42.55659        10     1.331     0.812 -50.16   0
        41    814.1260    883.0164 300.1547697 +22.8918842     376.2258     72.26111      1.856     6.26     4.900379     20.38705     30.03609         9     1.292     0.853 -19.41   0
        42    772.0000    878.0037 300.1432622 +22.8778242     797.9635     72.02143      1.647     4.55     4.919404     20.38705     93.53054        10     1.525     0.511 -75.79   3
        43    769.6891    877.0712 300.1428448 +22.8768641     715.7104     72.42657      1.617     5.90     4.923681     20.38705     65.25546        14     1.330     0.854 -73.58   3
        44    622.7324    874.7520 300.0977889 +22.8321641     414.4451     72.26111      1.698     5.70     4.867048     20.38705     32.10477         8     1.489     0.615  25.50   0
        45    808.9921    870.4847 300.1572427 +22.8867466     881.9234     72.18745      2.517     7.69     4.955603     20.38705     47.63357        19     1.649     1.109  65.12   0
        46    184.1597   1005.0011 299.9189013 +22.7380289     1295.201     72.27951      4.295     7.39     84.87624     20.38705     46.21217        14     1.697     0.901  40.94   3
        47    857.4522    861.6129 300.1752420 +22.8987143     521.7111     72.29791      1.984     5.41     4.982488     20.38705     44.68147         8     1.328     0.623  51.09   0
        48    707.4707    861.1595 300.1286189 +22.8536531     760.7545     72.22429      2.282     4.08     4.890699     20.38705     56.82681         9     1.023     0.800  88.41   2
        49    421.2693    856.9766 300.0408145 +22.7666752     4248.891     72.27951      2.004     4.58     4.892069     20.38705     267.3736        41     1.535     1.450  41.36   0
        50    720.1970    858.2880 300.1335198 +22.8566415     582.4461     72.18745      1.834     5.64     4.934647     20.38705     47.36177        11     1.222     0.732  -3.05   0
        51    147.3245    842.8185 299.9601756 +22.6804648     800.5818     72.26111      2.498     6.29     7.969122     20.38705     55.03856        17     1.614     0.885 -71.24   2
        52    123.7271    839.4172 299.9539433 +22.6724110     1735.492     72.26111      2.256     5.15     7.958515     20.38705      108.281        36     1.667     1.521 -24.41   0
        53    995.6108    828.9233 300.2289793 +22.9306970     2196.441     72.26111      2.265     5.73     4.907405     20.38705     109.7711        40     1.674     1.567  28.66   0
        54    949.8743    827.6501 300.2151186 +22.9166359     2099.331     72.26111      2.090     5.70     4.965597     20.38705     114.0105        36     1.571     1.500  15.94   0
        55    733.8290    821.6747 300.1496710 +22.8502100     516.1114     72.27951      1.636     4.35     5.013986     20.38705     48.76353         8     1.080     0.500  55.24   0
        56    156.0899    821.2608 299.9699078 +22.6769100      295.949     72.35308      1.341     4.82     6.740273     20.38705     40.60971         7     1.025     0.641   5.97   0
        57    601.4362    815.2196 300.1105038 +22.8086886      4824.03     72.27951      1.884     4.02     4.899366     20.38705     332.7369        41     1.475     1.371  24.56   0
        58     91.5636    815.8429 299.9516046 +22.6560014     265.6259     72.33469      1.126     3.48     6.656815     20.38705     46.67874         5     1.044     0.335 -68.27   0
        59    403.7621    812.7014 300.0497543 +22.7487192     578.2012     72.26111      2.086     5.24     4.993833     20.38705     44.02908         9     1.276     0.608  -8.68   0
        60    149.6074    809.7049 299.9716473 +22.6716507     424.6053     72.15059      1.391     4.44      6.18723     20.38705       54.187        11     1.225     0.708  86.84   3
        61    152.4143    808.7877 299.9728182 +22.6722295     904.4114     72.18745      1.507     4.00     6.128614     20.38705     84.31569        17     1.401     0.811  78.60   3
        62    622.1118    807.5257 300.1194471 +22.8126747     785.1184      72.4082      1.967     6.36     4.921518     20.38705     49.60841        14     1.205     0.943 -31.75   0
        63    170.8189    806.7851 299.9791927 +22.6771748     450.6699      72.2427      1.892     5.43     5.963706     20.38705     38.23915         7     1.154     0.721   7.17   0
        64    994.1979    795.3762 300.2394420 +22.9206328     1031.458     72.20587      2.339     6.39     4.954739     20.38705     55.82701        22     1.481     1.374 -10.86   0
        65    777.4569    795.0463 300.1719289 +22.8556302      4137.32     72.29791      1.901     4.22     5.050584     20.38705     240.2971        39     1.443     1.405  10.10   0
        66    187.1664    788.7192 299.9901478 +22.6768945     397.9391     72.22429      1.702     4.54     5.650118     20.38705     50.98711         6     1.005     0.583  77.07   0
        67    494.3150    787.6910 300.0860794 +22.7686822     528.3176     72.42657      1.769     4.39     4.906992     20.38705     51.68723        11     1.078     1.006   8.83   0
        68    140.9152    785.2296 299.9768976 +22.6620225     1009.464     72.26111      2.070     5.62     5.646705     20.38705     78.41365        22     1.424     1.307 -80.19   0
        69    556.1230    780.6997 300.1076041 +22.7851978     470.0817      72.4082      1.845     5.75     5.013973     20.38705     35.24169        11     1.145     1.011  33.18   0
        70    290.4654    777.2737 300.0260035 +22.7045852     53803.46     72.29791      1.959     4.15     5.655681     20.38705     3739.868       103     1.663     1.596  18.16   0
        71    961.3655    776.5491 300.2353132 +22.9053915     701.8173     72.27951      1.738     5.42     5.012102     20.38705     59.31154        19     1.303     1.115 -28.50   0
        72    548.3556    776.4208 300.1065748 +22.7816415     1626.421     72.31631      1.813     3.88     5.060706     20.38705     149.1155        23     1.258     1.173  22.45   0
        73    220.0000    774.8032 300.0048826 +22.6827478     348.8195     72.02144      1.650     3.44     5.604869     20.38705      50.0057         4     1.185     0.289 -90.00   2
        74    217.2526    774.5566 300.0041081 +22.6818532     389.5248     72.29791      2.023     4.45     5.604018     20.38705     31.55566         5     1.171     0.481  32.64   2
        75    577.4813    772.5928 300.1168927 +22.7892700     913.9777     72.18745      1.750     4.68     4.997491     20.38705     75.52994        16     1.147     1.006  59.58   0
        76    588.3410    771.4558 300.1206458 +22.7921976     667.4691     72.33469      1.872     5.44     4.970758     20.38705     56.56901        10     1.197     0.697 -45.47   2
        77    693.8839    767.3047 300.1548875 +22.8226267     457.0528     72.44493      1.858     5.25     5.014675     20.38705     47.40102        10     1.427     0.866 -33.32   0
        78    340.2202    754.5784 300.0488618 +22.7129881     31894.78     72.26111      1.879     4.01     5.431005     20.38705      2634.06        83     1.561     1.550  50.87   0
        79    731.7228    757.6923 300.1698074 +22.8312004     767.3303      72.4082      1.705     6.06     5.039125     20.38705      49.3629        13     1.102     0.953 -20.60   0
        80    354.5408    755.0165 300.0531768 +22.7174068     2019.312     72.22429      2.003     3.97     5.367938     20.38705     143.1746        27     1.297     1.253 -29.37   0
        81    863.3967    750.7660 300.2131229 +22.8686468      2810.62     72.26111      1.854     4.10     5.244476     20.38705     175.3709        34     1.424     1.343  45.21   0
        82    351.4555    749.2642 300.0540855 +22.7148308     691.0259     72.31631      2.808     4.94     5.418051     20.38705     46.22476        13     1.224     0.827  -4.44   0
        83    621.6122    746.8126 300.1390206 +22.7950892     971.7082     72.18745      1.843     5.02     4.926563     20.38705      74.9921        19     1.244     1.168  89.45   0
        84    222.5173    746.6035 300.0148281 +22.6754109     794.9525     72.18745      1.843     5.53     5.507496     20.38705      47.1277        18     1.391     0.954  -2.33   0
        85    468.4191    741.5925 300.0929934 +22.7476861     790.1942     72.22429      1.683     4.88       4.9211     20.38705     64.53485        18     1.256     1.022  11.09   0
        86     28.6479    741.9875 299.9560440 +22.6159454     320.1584     72.27951      1.662     4.92      5.55228     20.38705     32.00797         7     1.024     0.668  74.99   0
        87    870.1417    739.0349 300.2190389 +22.8672956     498.5508     72.26111      1.733     2.82     5.267744     20.38705     43.22286         5     0.797     0.473  27.87   0
        88    371.0198    738.0386 300.0638224 +22.7174732      453.017     72.29791      2.111     5.55     5.332066     20.38705     34.65687         8     0.987     0.879  38.13   0
        89    458.2899    746.5369 300.0882326 +22.7460700     570.9306     72.35308      2.027     6.81     4.931881     20.38705     37.60783        12     1.658     0.784  -5.04   0
        90    414.4908    735.9818 300.0780239 +22.7299125     467.6219     72.18745      1.646     5.75     5.014181     20.38705     40.39327        11     1.021     0.912  50.35   0
        91     55.6860    735.7755 299.9664666 +22.6222734     435.8026     72.20587      1.774     5.74       5.4953     20.38705     53.24135         8     1.254     0.864  12.84   0
        92    846.9108    733.1947 300.2136895 +22.8586609     495.8584     72.16902      2.209     5.20     5.283698     20.38705     30.01477         7     1.097     0.825  11.44   0
        93    220.7737    730.9011 300.0193871 +22.6703821     456.9738     72.20587      1.943     5.01     5.474789     20.38705     32.19563         6     1.024     0.694   0.94   0
        94    543.8934    721.6973 300.1229652 +22.7645903     504.4755     72.44493      1.725     4.61      5.35431     20.38705      43.6272         9     0.997     0.871 -18.86   0
        95    513.0162    719.6651 300.1140071 +22.7547546     513.5553      72.2427      1.453     3.52     5.212092     20.38705     66.24281        11     0.996     0.814  35.15   0
        96    929.8052    716.1132 300.2451019 +22.8785726     4588.551     72.18745      1.956     4.13     5.296466     20.38705     289.2906        44     1.534     1.415  21.69   0
        97    535.2914    716.9344 300.1218329 +22.7606451     1433.656     72.38983      1.738     3.72     5.327937     20.38705     122.3974        24     1.285     1.170  35.07   0
        98    918.2566    707.4806 300.2443028 +22.8726338     1778.766     72.29791      1.893     4.76     5.404692     20.38705     115.2056        32     1.488     1.392  47.71   0
        99    281.1438    700.9793 300.0478898 +22.6798942     888.8883     72.27951      1.824     4.41     5.589855     20.38705     73.58149        18     1.290     1.119  -1.86   0
       100    744.6193    698.7872 300.1929665 +22.8181404      2564.23     72.22429      1.793     3.69     5.301672     20.38705     195.6044        32     1.326     1.280 -21.37   0
       101    949.5864    697.6282 300.2572803 +22.8791816     1626.302     72.26111      2.074     4.93     5.290642     20.38705     101.6699        32     1.517     1.381 -38.76   0
       102    827.3943    685.1414 300.2232133 +22.8390079     613.6569     72.22429      1.865     5.25      5.52649     20.38705     49.48439         9     1.243     0.626  35.69   0
       103    130.0666    685.3275 300.0059792 +22.6301065     622.6787     72.29791      2.035     5.83     5.502359     20.38705      42.6284        11     1.184     0.878 -41.83   0
       104    863.1080    675.7089 300.2374178 +22.8469907     147979.1     72.42657      1.833     3.81      5.68337     20.38705     9364.288       164     1.661     1.602 -48.44   0
       105    625.7628    680.3297 300.1619125 +22.7772369     200.2585     72.22429      1.464     3.47     5.407321     20.38705     25.69364         5     1.233     0.282  54.97   0
       106   1009.9846    677.8120 300.2825692 +22.8915651     1338.798     72.20587      2.105     5.45     4.772504     20.38705     72.74306        26     1.576     1.161  60.34   0
       107    715.5495    676.3078 300.1912054 +22.8029754     735.6434     72.31631      1.728     4.84     5.440478     20.38705     49.92009        14     1.054     0.940  -3.85   0
       108    895.8080    668.9424 300.2498176 +22.8548362     431.1341      72.2427      1.606     5.60     5.726452     20.38705     36.98234         9     1.378     0.642  41.36   0
       109    549.3185    664.4059 300.1432657 +22.7497621     1629.289     72.18745      1.620     3.34     5.531219     20.38705     167.3337        23     1.230     1.118 -16.16   0
       110    730.6086    661.7977 300.2006135 +22.8033165     9393.216     72.07681      1.720     3.55     5.476583     20.38705     750.3323        47     1.375     1.367   4.35   0
       111    231.9846    656.4423 300.0470604 +22.6523742     5032.734     72.27951      1.886     4.15     5.542482     20.38705     405.9699        45     1.515     1.439 -79.88   0
       112    314.2469    654.5958 300.0732566 +22.6765028     1081.059      72.2427      1.733     4.16     5.609534     20.38705     85.50439        21     1.274     1.090  88.00   0
       113    189.4603    652.5759 300.0350879 +22.6385161     467.1589      72.2427      1.922     5.39     5.543166     20.38705     41.92553         8     1.316     0.623   9.86   0
       114    522.2968    650.2498 300.1394458 +22.7376006     763.7993     72.33469      1.744     4.45     5.600983     20.38705      62.1358        18     1.224     1.075  41.07   0
       115    513.9528    642.4921 300.1393662 +22.7328727     3168.085     72.27951      1.662     3.45     5.640032     20.38705     276.0312        34     1.319     1.291 -39.55   0
       116    504.2004    636.3130 300.1383353 +22.7281762     1580.726     72.15059      1.755     3.61     5.669259     20.38705     135.1454        24     1.297     1.141  14.44   0
       117    897.7656    635.0990 300.2614208 +22.8456944     394.3402      72.2427      1.398     4.48     5.872384     20.38705     37.51271         7     1.114     0.513  25.61   0
       118    167.5908    632.5839 300.0347782 +22.6262219     710.4541     72.18745      1.904     5.86     5.580981     20.38705     47.29025         9     1.276     0.758 -16.96   0
       119    182.1059    631.0061 300.0398051 +22.6301207     629.6938     72.15059      1.742     5.57     5.580349     20.38705     52.92701        11     1.114     0.784  14.01   0
       120    950.8496    627.6197 300.2804147 +22.8594348     452.7916      72.2427      1.758     4.32     5.735241     20.38705     40.80499         8     1.160     0.867  53.84   0
       121    429.0468    626.0712 300.1182567 +22.7027170     1674.179      72.2427      1.604     3.34     5.726955     20.38705     149.0968        25     1.247     1.135  61.86   0
       122    238.9819    627.8149 300.0585341 +22.6462548     320.5276      72.2427      1.450     3.97      5.58295     20.38705     28.58062         6     0.957     0.471 -38.99   0
       123    207.5957    626.9316 300.0490569 +22.6365927     501.8484     72.22429      1.767     6.18     5.578554     20.38705     45.87793        13     1.183     1.043 -79.69   0
       124    528.9445    626.8243 300.1491243 +22.7328641     341.5806     72.27951      1.314     2.92     5.715504     20.38705     53.72578         6     0.891     0.444 -39.22   0
       125   1004.8850    623.9396 300.2984754 +22.8745500     750.6772     72.37146      1.762     5.29     5.495401     20.38705     53.33308        17     1.350     1.035  26.00   0
       126    463.2008    625.5869 300.1290494 +22.7128116     302.1022     72.07681      1.522     4.52     5.721344     20.38705     44.09541         7     1.180     0.492   0.59   0
       127     82.9248    620.5270 300.0123658 +22.5973769     19961.63     72.33469      2.003     4.02     5.669808     20.38705     1663.728        75     1.681     1.581  42.97   0
       128    514.0845    621.2648 300.1463008 +22.7268154     1014.444     72.37146      1.629     3.34      5.74473     20.38705      89.2932        20     1.140     1.053 -72.47   0
       129      4.2530    621.8895 299.9874685 +22.5741766     583.2226     69.67483      1.619     4.46     6.018297     20.38705      56.0269         7     1.192     0.476  67.34  16
       130    549.2816    620.2163 300.1576057 +22.7370586      354.542      72.2427      1.845     6.41     5.737747     20.38705     32.40885         9     1.464     0.788   4.98   0
       131    267.9515    612.4932 300.0725227 +22.6505401     278.5973     72.29791      1.342     4.32     5.617924     20.38705     35.56115         5     0.763     0.696 -74.91   0
       132    932.0203    607.7235 300.2810000 +22.8480787     1027.199     72.26111      1.776     4.39     5.908021     20.38705     88.13092        22     1.300     1.209  49.20   0
       133    798.7324    605.7584 300.2400565 +22.8076119     504.4156      72.2427      1.827     4.29     5.899446     20.38705     47.26324         8     1.221     0.851  41.36   0
       134     96.0978    605.3979 300.0213738 +22.5969853     348.6418     72.16902      1.574     5.74       5.6631     20.38705     42.10946         7     1.155     0.803  84.78   0
       135     29.0338    604.5850 300.0007894 +22.5766430     1508.357      72.2427      2.363     6.18     5.953795     20.38705     78.23058        27     1.530     1.377 -49.87   0
       136    477.3486    601.9212 300.1411403 +22.7102537     489.1764     72.26111      1.579     3.61     5.819582     20.38705     48.90774        10     1.018     0.702  47.87   0
       137    872.2363    600.4755 300.2647000 +22.8280992     840.3608     72.22429      1.981     3.94     6.035224     20.38705     59.41262        17     1.186     0.945 -10.35   0
       138    434.1980    594.1392 300.1302296 +22.6950904     791.8461      72.2427      1.870     4.80     5.829444     20.38705     61.82145        16     1.315     0.931 -57.26   0
       139    581.7494    593.1088 300.1765238 +22.7389973       587.64     72.29791      2.130     4.12     5.731198     20.38705     57.90489        11     1.140     0.720 -16.65   0
       140    629.2659    591.4462 300.1918706 +22.7527517     492.4471     72.26111      1.533     3.83     5.653728     20.38705     43.70805         7     0.959     0.469 -11.30   0
       141    599.8167    590.7693 300.1829132 +22.7437368     821.1297      72.2427      1.803     4.30     5.688776     20.38705     58.88784        13     0.992     0.967 -15.89   0
       142    478.3213    590.1389 300.1452690 +22.7071611     1075.393     72.33469      1.778     3.47     5.845551     20.38705     97.27776        15     1.142     0.892 -28.43   0
       143    912.2286    585.6480 300.2819926 +22.8358081     3195.019     72.27951      1.772     3.97     5.947762     20.38705     229.9005        36     1.427     1.298 -74.39   0
       144    443.7948    585.4147 300.1360507 +22.6954601     1724.402     72.13215      1.631     3.73     5.847095     20.38705     160.7569        22     1.197     1.131 -25.73   0
       145   1010.3680    584.3536 300.3130422 +22.8648083     643.7198     72.29791      1.847     3.80      5.68517     20.38705     63.18628        11     1.078     0.917 -41.71   0
       146    419.3047    580.7903 300.1299264 +22.6867944     245.1448     72.18745      1.334     4.67     5.846254     20.38705     38.27264         5     0.850     0.728  21.55   0
       147      5.6882    578.6777 300.0019445 +22.5622090      4958.17      72.4082      2.064     4.24       6.1092     20.38705     387.5147        50     1.675     1.535  25.19  24
       148    951.3425    575.9045 300.2973623 +22.8447139     401.9995     72.33469      1.785     6.99     5.851314     20.38705     31.87247        10     1.395     0.981  59.42   0
       149    473.7487    576.2166 300.1483653 +22.7017924     399.7403     72.26111      1.670     5.24     5.874261     20.38705     41.82699         7     1.081     0.717 -32.74   0
       150    307.2271    572.0012 300.0978918 +22.6506862     9365.621     72.20587      1.723     3.36      5.76247     20.38705      802.634        47     1.401     1.386  61.34   0
       151    564.9371    573.4794 300.1776591 +22.7283224     258.3306     72.35308      1.371     3.71     5.846453     20.38705     31.76788         6     0.799     0.497   4.98   0
       152    429.7066    569.1699 300.1369381 +22.6865737     9092.278     72.18745      1.651     3.25     5.869109     20.38705     831.6502        53     1.445     1.319  36.13   0
       153    676.3120    566.3115 300.2146949 +22.7596189      310.932     72.42657      1.334     3.13     5.733131     20.38705     47.88589         5     0.945     0.398  15.98   0
       154    841.4504    563.4827 300.2671078 +22.8082493      1894.27     72.27951      1.736     3.79     5.981688     20.38705     176.0166        27     1.303     1.201  87.07   0
       155    926.1517    560.8279 300.2943962 +22.8328395     12569.13     72.27951      1.790     3.66     5.916813     20.38705      864.231        57     1.545     1.410 -59.31   0
       156    490.2754    558.8151 300.1591621 +22.7017451     11719.34     72.26111      1.612     3.23     5.914135     20.38705     1123.311        48     1.346     1.299 -22.45   0
       157    659.8483    555.0530 300.2132184 +22.7514535     644.7779     72.29791      1.791     4.22     5.792926     20.38705     50.59633        11     0.998     0.883  74.67   0
       158    217.6365    554.0641 300.0758389 +22.6186858       1256.8     72.26111      1.708     3.94     5.660411     20.38705     104.4961        23     1.307     1.110  10.44   0
       159    464.5421    551.9070 300.1533903 +22.6920519     446.7237     72.31631      1.738     4.28     5.919144     20.38705      35.8801         8     0.979     0.621 -48.35   0
       160    421.8701    546.9263 300.1417194 +22.6778373     4407.536     72.33469      1.650     3.39     5.898993     20.38705     371.5193        36     1.289     1.266  60.34   0
       161    765.0878    547.3917 300.2485155 +22.7807632     662.9775     72.18745      1.497     3.50     5.890756     20.38705     74.18289        13     1.076     0.814  -8.97   0
       162    400.3111    545.3412 300.1355215 +22.6709229     1295.047     72.33469      1.706     3.32     5.893212     20.38705     125.0719        23     1.218     1.149  -1.51   0
       163    154.8540    544.8035 300.0593169 +22.5972090     821.7162     72.22429      2.059     4.53     6.002659     20.38705     60.43104        12     1.098     0.974 -30.52   0
       164    841.8702    542.6741 300.2739945 +22.8023931      1565.83     72.33469      1.767     3.99     5.973337     20.38705     114.7686        25     1.347     1.182  25.37   0
       165    538.6631    534.5665 300.1821067 +22.7092735     206876.8     72.26111      1.646     3.13     5.976851     20.38705     21291.41       202     1.589     1.531 -32.25   0
       166    362.8081    541.1088 300.1252203 +22.6584707     364.8464     72.16902      1.454     5.52     5.882344     20.38705     41.80338         9     1.017     0.844 -57.11   0
       167    722.1918    539.5121 300.2376983 +22.7656553     740.9879     72.16902      1.511     3.03     5.870357     20.38705     94.94867        15     1.030     0.950 -14.17   0
       168    224.6499    534.2957 300.0844379 +22.6151127     3565.962     72.33469      1.765     3.48     5.673832     20.38705     323.4594        36     1.384     1.282  28.42   0
       169    790.4283    531.2695 300.2616520 +22.7837154     511.5047     72.26111      1.444     4.55     5.901445     20.38705     43.90559         8     1.006     0.584 -14.44   0
       170    273.3731    517.2938 300.1051160 +22.6248329     482.3627     72.18745      1.333     3.91     5.822491     20.38705     57.71543        10     1.068     0.821 -51.80   0
       171    429.2941    514.7828 300.1544651 +22.6708291     2809.118     72.18745      1.772     3.16       5.9374     20.38705     248.4981        28     1.247     1.180 -70.23   0
       172    878.3909    514.7872 300.2944407 +22.8053071      225.499     72.15059      1.463     5.61      5.95334     20.38705     31.32351         7     1.600     0.555  62.26   0
       173    840.8331    511.8468 300.2836785 +22.7932202     464.2779     72.29791      1.776     3.49     5.936346     20.38705     54.35357         5     1.108     0.317  -9.25   0
       174    746.1390    503.9656 300.2567039 +22.7626081     489.8396     72.27951      2.049     5.56     5.887244     20.38705     39.96151         9     1.005     0.867 -59.27   0
       175    826.2141    501.3222 300.2825347 +22.7858187       1707.6     72.27951      1.602     3.18     5.912416     20.38705     169.0269        23     1.201     1.109  80.77   0
       176    697.4365    498.8553 300.2431782 +22.7465583     2478.388     72.27951      1.558     2.94     5.873281     20.38705      248.478        27     1.173     1.143  51.12   0
       177    940.5055    492.2585 300.3211354 +22.8174184     1009.232     72.33469      2.655     4.45     5.963983     20.38705     56.17081        13     1.234     0.958  13.91   2
       178    602.1810    495.6585 300.2145265 +22.7171171     502.2559      72.2427      1.632     4.21     6.188301     20.38705     44.08343         6     0.810     0.624  37.06   0
       179    907.1649    495.4224 300.3097044 +22.8083507     281.8686     72.27951      1.578     4.16     5.917575     20.38705     34.50419         5     1.144     0.432 -13.10   0
       180    484.7268    494.7685 300.1782241 +22.6816847     769.4682     72.26111      1.517     2.99     6.060251     20.38705     83.87477        13     0.947     0.877  23.38   0
       181    954.5414    493.0998 300.3252427 +22.8218605      1175.66     72.35308      1.717     4.27     6.023569     20.38705     106.6741        20     1.196     1.156  33.97   0
       182    826.5782    490.9893 300.2860021 +22.7829570       2343.8      72.2427      2.019     5.72     5.904443     20.38705     174.6502        37     1.843     1.183  75.96   0
       183    579.7298    488.3784 300.2098935 +22.7083019      784.907     72.26111      2.191     6.70     6.193325     20.38705      62.0421        13     1.787     0.704  88.95   0
       184    366.0524    489.3616 300.1430266 +22.6445812     227.8851     72.27951      1.605     4.60     5.891056     20.38705     42.30562         7     1.252     0.479  -1.69   0
       185    864.7808    486.4057 300.2994071 +22.7930733     4316.756     72.22429      1.661     3.35     5.917876     20.38705     403.2137        37     1.336     1.267 -74.57   0
       186    418.4983    487.7338 300.1598829 +22.6598254      355.459     72.35308      1.653     5.02     5.941817     20.38705     36.54667         7     1.019     0.699  44.89   0
       187    525.4287    483.3230 300.1946168 +22.6905871     378.8958      72.2427      1.719     5.68     6.129047     20.38705     38.38873         7     1.078     0.844 -36.46   0
       188    956.4100    477.1385 300.3310066 +22.8178294     741.3538     72.18745      1.644     4.42     6.066914     20.38705     67.40581        16     1.362     0.842  33.95   0
       189     96.8173    476.3755 300.0634788 +22.5601703     967.8323     72.26111      1.891     4.11     6.180487     20.38705     81.38152        21     1.241     1.195  45.06   0
       190    952.6458    466.0085 300.3334441 +22.8135022     394.9878     72.27951      1.721     5.78     6.035902     20.38705      33.5204         8     1.180     0.799  52.30   0
       191     89.9443    466.1311 300.0646662 +22.5551695     430.9126     72.27951      1.628     3.55     6.195736     20.38705     36.81012         5     0.788     0.507  62.97   0
       192    696.7572    460.9549 300.2552673 +22.7354613     359.4958     72.31631      1.440     3.73     5.954462     20.38705     45.10824        10     1.001     0.742 -12.15   0
       193    586.3534    458.4083 300.2216840 +22.7016732     342.0253     72.27951      1.956     4.20     6.285613     20.38705     34.20292         5     1.302     0.386  53.07   0
       194    306.2461    459.3369 300.1341555 +22.6180397     184.5292     72.29791      1.303     3.45     5.880806     20.38705     35.88393         5     0.755     0.456  12.00   0
       195    638.2922    456.6839 300.2384294 +22.7167295     838.6309     72.44493      1.659     3.75      6.19107     20.38705     75.83137        14     1.090     0.869 -72.25   0
       196    952.6989    449.5750 300.3387940 +22.8087917     538.6094     72.20587      1.760     3.14     6.016242     20.38705     61.60417        10     1.019     0.742 -32.90   0
       197    698.9083    449.0192 300.2598113 +22.7326744     814.0168     72.18745      1.535     3.55     5.995515     20.38705     84.24514        15     1.101     0.982 -23.10   0
       198    856.4350    445.4196 300.3101053 +22.7787905     895.5361     72.27951      1.628     3.82     5.909123     20.38705     100.6771        18     1.293     0.974 -16.81   0
       199    840.5496    441.7839 300.3063296 +22.7729910     625.2349     72.27951      1.538     4.01     5.914999     20.38705     64.83276        13     1.187     0.801 -51.25   0
       200    821.1105    442.1797 300.3001376 +22.7672870      311.579     72.20587      1.659     3.69     5.922541     20.38705     54.34843         6     0.949     0.448 -30.50   0
       201    584.7578    439.5133 300.2273184 +22.6957654     3216.414      72.2427      1.555     2.96     6.318407     20.38705     349.4177        28     1.182     1.162 -26.25   0
       202    945.1779    439.2476 300.3397982 +22.8035711      553.686     72.27951      1.565     4.14     5.970366     20.38705     53.66545         9     0.981     0.713  48.58   0
       203     47.8024    430.6524 300.0630767 +22.5323533     226.7568     72.26111      1.313     4.42     6.241349     20.38705     27.84651         5     1.176     0.473  59.28   0
       204    590.2937    427.6923 300.2328792 +22.6940258     197.2669     72.42657      1.154     4.60     6.373117     20.38705      33.8531         6     1.032     0.583 -50.24   0
       205    996.1844    418.9511 300.3623046 +22.8129939     1295.612     72.29791      1.700     4.05     6.111641     20.38705       97.896        23     1.312     1.146 -24.01   0
       206    867.9367    418.7767 300.3223391 +22.7745710     514.3295      72.2427      1.566     2.84     5.903646     20.38705     50.46025         7     0.753     0.622  10.03   0
       207    954.5016    417.9172 300.3496297 +22.8002258     999.3088     72.42657      1.592     3.20     5.983037     20.38705     102.1142        14     1.085     0.848   3.88   0
       208    695.3690    413.5868 300.2702054 +22.7214295     1103.228      72.2427      1.596     2.85     6.106414     20.38705     124.0553        18     1.095     0.997 -32.32   0
       209    490.9425    414.1846 300.2063104 +22.6603935     519.7018      72.2427      1.856     5.15     6.154699     20.38705     42.25998         8     1.031     0.728  -9.18   0
       210    199.2955    411.5834 300.1163731 +22.5722805     777.0514     72.18745      1.800     4.27      6.19366     20.38705     65.55301        13     1.100     1.000  81.96   0
       211    261.6040    407.1214 300.1372059 +22.5896683     3862.314     72.16902      1.757     3.32     6.000738     20.38705     332.0668        38     1.371     1.339  56.09   0
       212    994.8312    406.0812 300.3660582 +22.8088869     4353.766     72.26111      1.785     3.54     6.101834     20.38705     340.4785        38     1.463     1.321 -70.04   0
       213    208.8400    401.8357 300.1225046 +22.5723412      7596.36     72.31631      1.730     3.35     6.184016     20.38705        627.6        49     1.473     1.373  55.15   0
       214    974.6057    397.0027 300.3626906 +22.8002246      1956.67     72.07681      1.846     3.58     6.046744     20.38705     170.4606        31     1.472     1.293 -69.36   0
       215    349.6594    396.1132 300.1681817 +22.6128858     4890.509     72.35308      1.651     3.24     6.152586     20.38705      458.837        37     1.316     1.273  62.27   0
       216    593.9155    393.0255 300.2452556 +22.6851467     18817.73      72.2427      1.529     3.00     6.407538     20.38705     1797.685        60     1.392     1.281  83.44   0
       217    611.5131    393.1951 300.2506844 +22.6904641     903.2544     72.18745      2.047     6.30     6.472902     20.38705     63.80008        18     1.555     0.894 -40.18   0
       218    220.8480    391.0026 300.1297547 +22.5728281     294.4444     72.26111      1.422     3.18     6.177206     20.38705     39.24566         6     0.899     0.456  55.18   0
       219    837.1792    389.9109 300.3221098 +22.7570658     302.2996     72.18745      1.226     3.79     5.954523     20.38705     38.65151         5     0.853     0.484 -27.49   0
       220    453.9297    390.0128 300.2026252 +22.6423636     364.4877     72.26111      2.010     4.46     6.215539     20.38705     38.38444         6     1.361     0.416 -15.46   0
       221    790.5434    383.8615 300.3095263 +22.7413700     475.6927     72.33469      1.529     3.84     6.052172     20.38705     45.88039         7     0.877     0.601  16.37   0
       222    213.7569    379.9835 300.1311233 +22.5675390     420.3505     72.27951      1.939     4.70     6.201982     20.38705     33.11789         8     1.026     0.610  19.24   0
       223    927.5831    375.8577 300.3548754 +22.7800743     941.3809      72.2427      1.896     4.05     5.938047     20.38705      66.9763        15     1.086     0.973 -54.41   0
       224    464.8276    375.3847 300.2107647 +22.6414240     337.4542     72.27951      1.240     2.81     6.275726     20.38705     47.11669         5     0.751     0.419 -23.33   0
       225    148.5053    372.9609 300.1131048 +22.5459706     2088.385     72.26111      1.802     3.54     6.303475     20.38705     195.9878        29     1.396     1.215  56.47   0
       226    534.5528    362.4942 300.2366646 +22.6585981     6793.988     72.27951      1.602     2.82     6.216819     20.38705     726.0892        43     1.349     1.255  79.00   0
       227    948.2945    363.0685 300.3654880 +22.7825918     1186.028      72.4082      1.691     3.81     5.993195     20.38705     106.1759        22     1.291     1.113 -39.47   0
       228    249.3825    361.8188 300.1480994 +22.5729954     759.4382      72.2427      1.654     3.55     6.168271     20.38705     85.36082        15     1.176     0.960  -1.81   0
       229    106.7767    355.1096 300.1059185 +22.5283404     637.8925     72.18745      2.196     4.60      6.46681     20.38705     44.17755         8     1.087     0.781  37.57   0
       230    738.7045    351.6989 300.3037944 +22.7166076     1154.367     72.44493      1.589     3.11      6.19073     20.38705     124.6919        16     1.104     0.889  82.91   0
       231    648.2159    353.1397 300.2751175 +22.6899375     561.5023     72.22429      1.377     2.30      6.22962     20.38705     65.05099         8     0.763     0.655 -44.29   0
       232    441.1569    348.6243 300.2120737 +22.6266458     6087.243     72.31631      1.595     3.05     6.326285     20.38705     635.2175        37     1.296     1.228  51.13   0
       233    930.8392    344.0089 300.3662234 +22.7718871      643.342     72.26111      1.712     4.18     5.981393     20.38705     63.98038        12     1.211     0.796  30.30   0
       234    833.3765    343.3707 300.3360217 +22.7425435     1330.154     72.26111      1.578     3.29     6.035206     20.38705     128.7276        22     1.233     1.018 -15.99   0
       235    425.6912    337.5107 300.2108626 +22.6188209     532.7403     72.42657      1.715     5.14     6.321953     20.38705     44.92691         9     0.951     0.785 -10.18   0
       236    508.4699    335.5968 300.2372640 +22.6430581     504.8074     72.20587      2.462     4.27     6.296741     20.38705     55.05669         7     1.015     0.797 -23.01   0
       237    786.7901    334.4042 300.3243995 +22.7260247     267.1237     72.09527      1.353     4.93     6.144857     20.38705     32.66871         6     0.949     0.725   3.22   0
       238    805.6536    331.2525 300.3313051 +22.7307630     594.5144     72.29791      1.514     3.84     6.125553     20.38705     54.51345        10     1.004     0.779  22.52   0
       239    328.8620    327.8447 300.1838528 +22.5870442     2606.829     72.27951      1.624     3.32     6.235492     20.38705      252.947        27     1.244     1.169  72.43   0
       240     46.9447    324.9124 300.0971100 +22.5017400     963.4642     72.29791      1.738     4.09     6.772173     20.38705     79.71331        18     1.250     1.047  12.95   0
       241    676.1688    323.0385 300.2935942 +22.6896504     348.8217     72.26111      1.426     3.99     6.083574     20.38705     29.95756         6     0.978     0.466  52.34   0
       242    298.0988    317.1977 300.1777314 +22.5747712     30059.59     72.15059      1.641     3.12     6.207316     20.38705     2744.012        81     1.500     1.397  64.21   0
       243    832.9585    315.2130 300.3450244 +22.7343200      1333.87     72.27951      1.538     3.17     6.121974     20.38705     126.5057        22     1.291     1.018  85.36   0
       244    748.4124    304.0868 300.3222646 +22.7058217     617.6959     72.20587      1.509     2.93     6.189888     20.38705     77.99765        12     1.027     0.756   0.89   0
       245    172.7815    303.8370 300.1430746 +22.5333932     403.6812     72.26111      1.546     5.14     6.425342     20.38705     42.41351        10     1.134     0.845 -27.24   0
       246    396.8824    302.6996 300.2131826 +22.6001907     461.2394     72.42657      1.242     2.39     6.339028     20.38705     81.21786        10     0.895     0.707  34.70   0
       247    708.5592    297.2898 300.3120428 +22.6919407     1859.091     72.26111      1.570     3.13     6.132847     20.38705     200.9797        24     1.196     1.118  19.87   0
       248    923.6672    290.3232 300.3813979 +22.7542974     609.3743     72.35308      1.608     5.01     6.102773     20.38705     49.39811        13     1.180     0.874  -5.41   0
       249    370.3684    281.6821 300.2117436 +22.5862114     2198.447     72.26111      1.775     3.78     6.347281     20.38705     204.3512        28     1.416     1.140  77.85   0
       250    582.3132    280.3768 300.2781785 +22.6492923     396.7948     72.20587      1.787     5.75     6.283891     20.38705     40.97952         8     1.500     0.620  49.83   0
       251    809.8417    274.7990 300.3509204 +22.7157794      620.697     72.26111      1.647     4.16     6.176012     20.38705     66.48111        14     1.118     1.001  12.41   0
       252    691.6973    272.4545 300.3148398 +22.6797530      392.943     72.35308      1.429     5.20     6.102008     20.38705     38.14119         8     0.957     0.797 -23.21   0
       253    446.3487    261.2597 300.2420233 +22.6030935     1171.518     72.31631      1.527     4.05     6.376615     20.38705      117.632        22     1.287     1.073  22.74   0
       254    829.8183    255.4655 300.3634208 +22.7161948     427.9641      72.2427      1.333     2.36     6.130291     20.38705     44.67875         5     0.700     0.472 -18.17   0
       255    691.1067    253.0679 300.3209420 +22.6740014      2303.95      72.4082      1.553     3.05     6.113288     20.38705     232.5842        25     1.212     1.099 -70.89   0
       256    952.4724    247.5827 300.4042474 +22.7506162     3231.169     72.26111      1.739     3.39     6.122725     20.38705     289.4933        35     1.338     1.273  84.09   0
       257   1013.7534    242.6838 300.4249644 +22.7675336     473.8098      72.2427      1.710     5.85     6.388792     20.38705     42.75369        11     1.261     0.835 -40.45   0
       258    399.3604    236.8198 300.2353159 +22.5820005     638.0985     72.29791      1.605     4.48     6.357234     20.38705     67.91565        13     1.142     0.948 -88.36   0
       259   1021.9294    235.5031 300.4298452 +22.7679121      1598.97     65.23857      1.736     4.38     6.472404     20.38705     135.9131        25     1.338     1.197  53.28  24
       260     74.3194    230.9852 300.1360762 +22.4829707     1434.124      72.2427      1.946     4.68     6.714939     20.38705      97.8056        24     1.525     1.186 -31.43   0
       261    105.1107    231.1844 300.1455857 +22.4922529     555.7811     72.18745      1.599     3.94     6.640491     20.38705      63.5797        12     1.215     0.907 -15.27   0
       262    968.1014    228.0519 300.4154581 +22.7496705     437.2795     72.35308      1.450     3.43      6.22565     20.38705     48.95705         9     0.877     0.740 -71.63   0
       263    811.8808    225.2069 300.3676366 +22.7021244     335.0675     72.18745      1.392     3.18     6.100866     20.38705     53.14095         5     1.065     0.330  13.42   0
       264    157.7441    223.1093 300.1645720 +22.5057008     536.1332     72.31631      1.771     6.00     6.614226     20.38705     58.42516        11     1.200     0.875  -0.13   0
       265    953.6145    221.1566 300.4131721 +22.7433538     274.6445     72.27951      1.444     3.27     6.176585     20.38705     43.30383         5     0.944     0.357   4.54   0
       266    834.5562    217.4512 300.3772242 +22.7066766     445.0905     72.29791      1.297     3.71     6.076402     20.38705      42.5024         6     0.958     0.413 -18.75   0
       267    762.8421    214.5043 300.3558121 +22.6843747     653.2659     72.27951      1.671     4.05     6.132609     20.38705     73.04739        14     1.146     0.996 -47.23   0
       268    353.6067    213.6832 300.2285724 +22.5616515      375.971     72.18745      1.385     3.73     6.351124     20.38705      56.2833         6     1.064     0.376  71.77   0
       269    860.8953    203.7961 300.3898679 +22.7106269     2198.622     72.16902      1.621     3.10     6.092119     20.38705     219.3437        28     1.282     1.157  66.29   0
       270    279.2907    200.4277 300.2097390 +22.5355886     2172.638      72.2427      1.737     3.56     6.369723     20.38705     225.9129        31     1.406     1.199  82.17   0
       271    759.7193    194.8336 300.3612152 +22.6777823     523.6631     72.22429      1.556     5.64     6.143229     20.38705     50.05236        12     1.143     0.827 -74.87   0
       272    357.6270    195.7146 300.2356487 +22.5576913     1069.837     72.26111      1.600     3.64     6.367146     20.38705     95.14263        16     1.102     0.977 -42.16   0
       273    109.1515    196.0014 300.1582472 +22.4833579     379.9946      72.2427      1.694     4.70     6.873268     20.38705     33.69383         7     1.012     0.619 -89.49   0
       274    866.3284    192.9397 300.3950824 +22.7091284     387.4112     72.29791      1.510     2.40     6.136838     20.38705     43.38901         7     0.692     0.666  87.52   0
       275    174.4192    187.8566 300.1811859 +22.5005685     750.4602     72.26111      1.899     3.98     6.682456     20.38705     63.92196        13     1.208     0.748 -37.03   0
       276    776.9828    185.0890 300.3697578 +22.6801438     691.9438     72.18745      1.742     2.62     6.139909     20.38705     77.48036        11     0.914     0.769  33.20   0
       277    712.0718    184.9999 300.3495458 +22.6606983     1922.151     72.13215      1.579     3.16     6.159334     20.38705     175.0292        24     1.179     1.101  70.21   0
       278    292.2511    186.6724 300.2182311 +22.5355171      384.949     72.26111      1.856     4.51     6.378308     20.38705     30.98475         6     1.328     0.435   8.09   0
       279    195.8620    181.2735 300.1899899 +22.5050996     471.2631     72.29791      1.522     4.30     6.572701     20.38705     54.24042        10     0.967     0.789 -22.34   0
       280    983.4330    177.8117 300.4365310 +22.7397971     813.2678      72.2427      1.575     4.50     6.687579     20.38705     78.88156        15     1.185     0.955 -35.54   0
       281    716.0860    176.8869 300.3534272 +22.6595658     802.8308     72.38983      1.765     3.00     6.164725     20.38705        85.01         9     0.876     0.729  10.07   0
       282    485.0284    177.0790 300.2813604 +22.5904751     329.7545     72.27951      1.431     4.95     6.379346     20.38705     38.31654         8     0.941     0.736  82.40   0
       283    636.5919    175.6729 300.3290398 +22.6354310     1202.942      72.2427      1.452     2.77     6.241948     20.38705     148.5744        16     1.044     0.888  66.56   0
       284    458.2491    172.2743 300.2745772 +22.5810778     394.7831     72.26111      1.777     4.10     6.387203     20.38705     37.26018         7     1.121     0.657  -7.01   0
       285    832.0223    167.3184 300.3926852 +22.6914955     1425.924     72.22429      1.570     3.37     6.186318     20.38705     145.1479        24     1.271     1.116  57.99   0
       286    562.8438    167.2836 300.3087770 +22.6109490     1029.897     72.22429      1.608     3.04     6.290666     20.38705     119.3862        19     1.156     1.047 -41.76   0
       287    844.1269    166.5520 300.3967097 +22.6948956     997.1523     72.26111      1.841     3.53     6.207598     20.38705     88.48105        16     1.129     0.989 -50.83   0
       288   1005.0331    157.3003 300.4499223 +22.7403523     1548.792      72.2427      1.735     3.71     7.005008     20.38705     159.4922        25     1.369     1.146 -69.32   0
       289    960.8116    156.7507 300.4362968 +22.7269714       1063.4     72.27951      1.696     4.00     6.651234     20.38705     106.5482        23     1.395     1.149  64.54   0
       290    194.9839    149.5499 300.1999983 +22.4957219     714.9928     72.27951      1.737     4.64     6.706122     20.38705     84.55395        11     1.167     0.880  76.00   0
       291     56.6515    143.9822 300.1587830 +22.4526889      2195.08      72.2427      1.836     3.88     7.184102     20.38705       162.62        31     1.392     1.300  26.22   0
       292    879.9298    141.9474 300.4158545 +22.6985239     706.5397      72.2427      1.503     3.55     6.311742     20.38705     75.39322        10     0.898     0.768 -83.38   0
       293      6.1507    141.3730 300.1439298 +22.4368107     502.7591     72.27951      1.850     5.58     7.218354     20.38705     42.56232        10     1.147     0.764   1.35  16
       294    214.0461    137.3368 300.2098864 +22.4979213     5670.737     72.29791      1.794     3.51     6.720877     20.38705      508.871        45     1.481     1.354  69.82   0
       295   1013.1165    125.3709 300.4627943 +22.7335785     18333.46     72.26111      1.832     3.60      7.10161     20.38705     1637.359        65     1.586     1.462 -78.36   0
       296    197.7108    128.4495 300.2076846 +22.4904758     566.2545     72.26111      1.494     3.22     6.865972     20.38705     76.04016         5     0.829     0.486 -47.67   0
       297    196.5371    125.1596 300.2083856 +22.4891790     376.3115      72.2427      1.663     5.06     6.893386     20.38705     32.01068         5     1.157     0.627 -30.24   0
       298    858.3545    119.3226 300.4164555 +22.6855609     3564.789      72.2427      1.721     3.25     6.264786     20.38705      383.941        36     1.429     1.274 -82.86   0
       299    961.9543    118.1629 300.4491597 +22.7162069      2707.66     72.29791      1.705     3.29     6.760431     20.38705     275.5732        32     1.408     1.222 -87.27   0
       300    407.7152    114.4254 300.2775886 +22.5493207     656.7226     72.22429      1.559     3.16     6.396092     20.38705     68.77903        13     0.949     0.924 -88.85   0
       301    521.9965    112.7317 300.3137303 +22.5830382      380.636      72.2427      1.835     3.77     6.416174     20.38705     31.77776         5     0.817     0.501 -52.99   0
       302    331.6453    105.9436 300.2566549 +22.5241107     735.5135     72.29791      1.947     4.06     6.599606     20.38705      56.1105        12     1.111     0.753   9.48   2
       303    459.0551    101.6417 300.2977186 +22.5610122     1768.012     72.22429      1.598     2.93     6.395542     20.38705     166.1125        27     1.309     1.130  61.67   0
       304    387.3076    102.0156 300.2752557 +22.5396445     685.2574     72.18745      1.952     5.04     6.396092     20.38705     47.49033        11     1.183     0.743 -64.26   0
       305     98.0359    103.1978 300.1848661 +22.4533690     592.9919     72.26111      1.734     4.42      6.94573     20.38705     56.71051         7     0.919     0.731  77.90   0
       306    520.6661    101.1006 300.3170848 +22.5792954      442.732     72.35308      1.596     4.42     6.438884     20.38705     36.98974         6     0.996     0.559  14.63   0
       307    747.7334     91.3881 300.3910041 +22.6444375      419.336      72.2427      1.386     2.69     6.484431     20.38705     60.64305         8     0.869     0.635   8.23   0
       308   1023.0095     82.7185 300.4797047 +22.7242576      2660.45     59.88105      1.540     4.10     7.164445     20.38705     266.1969        25     1.554     0.912 -88.64  24
       309    233.0738     81.3092 300.2339608 +22.4875184     6001.018     72.42657      1.771     3.25       7.1712     20.38705     557.2081        48     1.515     1.359  71.87   0
       310    739.4713     82.3191 300.3913663 +22.6393569      457.924     72.38983      2.397     3.83     6.570363     20.38705     35.87883         6     0.905     0.465  -2.78   0
       311     84.4885     81.0927 300.1878156 +22.4429607     738.8151     72.42657      2.051     4.55     6.914474     20.38705       63.631        11     1.171     0.940 -25.32   0
       312    862.7039     79.6320 300.4306739 +22.6754396     247.3823     72.22429      1.225     4.67     6.431095     20.38705     27.09269         6     1.103     0.561  55.83   0
       313    205.2484     75.0286 300.2273387 +22.4773819     373.3772     72.27951      1.592     5.54     7.200084     20.38705     31.12398         9     1.030     0.841 -39.38   0
       314    248.7214     72.4738 300.2416921 +22.4896642     366.1607     72.37146      1.789     5.07     7.182884     20.38705     28.55312         7     1.024     0.710 -86.72   0
       315    479.2255     66.7769 300.3152972 +22.5570238     6202.247     72.22429      1.643     3.22     6.639575     20.38705     555.1137        45     1.427     1.289 -84.92   0
       316    364.3879     66.4623 300.2796394 +22.5225629     708.6985     72.22429      1.691     3.95     6.315448     20.38705      80.8373        14     1.197     0.931  23.68   0
       317    672.9496     57.6848 300.3786077 +22.6123712     252.0513      72.2427      1.390     4.51     6.594537     20.38705     36.92499         5     1.133     0.510  53.97   0
       318    731.5039     56.9077 300.3971152 +22.6296625     888.7794     72.44493      1.819     2.95     6.727104     20.38705     99.08346        13     1.009     0.865  25.03   0
       319    824.0452     56.0738 300.4262466 +22.6570993     377.6002      72.2427      1.201     3.84     6.665606     20.38705      55.5853         5     0.682     0.619  -2.33   0
       320    172.4527     50.4257 300.2251070 +22.4604916     434.8918     72.27951      1.694     4.92     7.295017     20.38705     45.22922         9     1.206     0.834 -45.89   0
       321    530.9222     49.5085 300.3369955 +22.5675276     497.8963      72.4082      1.726     5.20     6.810582     20.38705     44.80072         9     1.248     0.611 -76.87   0
       322    607.6563     46.9335 300.3617396 +22.5897455     6393.626     72.31631      1.617     3.12     6.650677     20.38705     589.8569        42     1.410     1.246  88.93   0
       323    382.4787     45.6977 300.2919986 +22.5220081     1482.053     72.37146      1.703     3.36      6.26342     20.38705     136.2324        24     1.353     1.190 -58.07   0
       324    648.5259     44.5938 300.3752355 +22.6012990     887.8517     72.20587      1.575     3.39     6.657391     20.38705     94.97281        14     1.001     0.938 -76.98   0
       325    664.3118     40.7630 300.3813972 +22.6049191     630.0721      72.2427      1.483     3.18     6.676731     20.38705     70.26223        11     0.994     0.791  24.28   0
       326    131.2577     38.4954 300.2161588 +22.4447277     699.3027     72.33469      1.722     3.34     7.140846     20.38705     64.99873        11     1.108     0.701 -10.56   0
       327    934.8404     38.5353 300.4664981 +22.6851799     440.5367     72.22429      1.351     2.30     6.865737     20.38705     55.16451         6     0.734     0.493  -7.91   0
       328    703.2490     35.7882 300.3951474 +22.6151348     443.6547     72.27951      1.615     4.99     6.782281     20.38705     52.04121         8     0.977     0.768  33.82   0
       329    651.8088     31.7895 300.3804068 +22.5985975      2758.79     72.15059      1.653     3.27     6.720245     20.38705     251.4599        30     1.325     1.196  82.61   0
       330    667.1451     30.8001 300.3855079 +22.6029004     956.1998     72.16902      2.004     5.50      6.72508     20.38705     66.35123        21     1.706     0.998  36.52   0
       331    292.8748     32.2107 300.2684755 +22.4913097     434.8488     72.27951      1.877     2.87     7.106502     20.38705     42.08869         6     0.746     0.556 -55.48   0
       332    738.2374     23.6906 300.4099757 +22.6221187     1436.504      72.2427      1.603     3.33      6.95301     20.38705     150.7682        22     1.210     1.104 -52.36   0
       333    898.2284     22.6382 300.4602227 +22.6696578     200.8055     72.27951      1.384     3.38     6.943242     20.38705     31.39665         5     0.750     0.442 -18.18   0
       334    676.3405     16.8070 300.3929072 +22.6016250     626.1101      72.2427      1.472     3.16     6.802393     20.38705     74.60385        13     1.084     0.822 -29.22   0
       335     64.1180    954.2495 299.8980810 +22.6874583     5730.531     72.27951     23.381    33.71     32.84842     20.38705     1215.064      3406    21.844    13.443 -20.83  19
       336     55.1825     16.2826 300.1996982 +22.4155633     519.1014     72.22429      1.699     4.94     6.914474     20.38705     55.33519         9     1.099     0.830  24.28   0
       337    719.3853   1016.2947 300.0818858 +22.9017679     262.6555     72.18745      0.997     3.03     4.722616     20.38705     32.80055         4     0.883     0.305 -30.58   2
       338    767.5343     13.1415 300.4225288 +22.6278448     488.5764     72.29791      1.717     4.28     7.055552     20.38705     37.32723         8     0.895     0.675  32.68   0
       339    280.9836   1012.2258 299.9466712 +22.7691481     717.4252     72.27951      1.944     7.20     15.78603     20.38705     57.82457        20     1.499     1.434 -50.18   0
       340    117.9140   1007.2626 299.8975656 +22.7188004     1324.394     72.37146      2.910    12.10     89.57079     20.38705     50.45895        25     2.386     1.707  43.16   2
