#   1 NUMBER                 Running object number                                     
#   2 X_IMAGE                Object position along x                                    [pixel]
#   3 Y_IMAGE                Object position along y                                    [pixel]
#   4 ALPHA_J2000            Right ascension of barycenter (J2000)                      [deg]
#   5 DELTA_J2000            Declination of barycenter (J2000)                          [deg]
#   6 FLUX_APER              Flux vector within fixed circular aperture(s)              [count]
#   7 FLUXERR_APER           RMS error vector for aperture flux(es)                     [count]
#   8 FLUX_RADIUS            Fraction-of-light radii                                    [pixel]
#   9 FWHM_IMAGE             FWHM assuming a gaussian core                              [pixel]
#  10 BACKGROUND             Background at centroid position                            [count]
#  11 THRESHOLD              Detection threshold above background                       [count]
#  12 FLUX_MAX               Peak flux above background                                 [count]
#  13 ISOAREA_IMAGE          Isophotal area above Analysis threshold                    [pixel**2]
#  14 A_IMAGE                Profile RMS along major axis                               [pixel]
#  15 B_IMAGE                Profile RMS along minor axis                               [pixel]
#  16 THETA_IMAGE            Position angle (CCW/x)                                     [deg]
#  17 FLAGS                  Extraction flags                                          
         1    409.6853     13.8970 300.3032583 +22.5138129     831.7278     72.22798      1.532     3.69     5.620039     20.33115     104.1517        13     1.190     0.756  42.16   0
         2    181.1018      3.7996 300.2353868 +22.4424860     3812.177     67.80737      1.593     2.90     6.219303     20.33115     399.2495        38     1.403     1.245  44.93  24
         3    749.1609      4.8701 300.4119696 +22.6127772     567.7639     71.06487      1.307     3.03     5.743357     20.33115     87.65656        10     0.973     0.762 -50.46  16
         4    311.6646      4.4226 300.2758119 +22.4817511      238.238     69.95808      0.975     3.51     5.375237     20.33115     38.92271         5     0.764     0.466 -15.62  16
         5    603.2630      1.3100 300.3676395 +22.5681136     233.9013     56.01371      1.148     2.98     5.719234     20.33115     53.28069         5     0.727     0.452   9.71  24
         6    209.3838    986.6546 299.9251161 +22.7331468     4042.937     72.02625      7.772    23.86     67.41235     20.33115     85.56874       279     5.343     4.642  57.56   3
         7     96.6548   1011.6173 299.8819392 +22.7064808     4598.619     72.04462     18.342   110.16     88.66689     20.33115       158.68      2503    23.252    16.501  59.55  27
         8     88.0647    951.0168 299.8989809 +22.6865276     6489.676     72.04462     24.781    48.27     28.02874     20.33115     1313.909      3034    18.731    12.894 -13.98  19
         9    648.5871    984.5865 300.0625381 +22.8642591     9546.426     71.98952      2.066     4.95     4.028184     20.33115     485.9649        52     1.624     1.506  23.21   3
        10     86.7600    916.5850 299.9097732 +22.6762627     4404.184     72.08133     23.532    69.28     9.459101     20.33115     83.36289      1414    16.372     8.133 -14.25  19
        11    556.5690    991.6104 300.0315806 +22.8386909     2424.723     72.06297      1.972     4.57     4.203348     20.33115     135.3001        33     1.439     1.379  32.18   0
        12    743.5330    987.9982 300.0910251 +22.8936951      671.497     72.06297      2.064     6.09     4.004385     20.33115     54.20976        14     1.537     0.805  -1.46   0
        13    176.5212    977.0575 299.9180165 +22.7205353     1930.941     72.09968      5.852    18.53     62.89941     20.33115     54.53769        72     4.717     2.023  82.97   3
        14    507.8612    975.6853 300.0215889 +22.8195173     417.9347     72.17302      1.677     4.30     4.241009     20.33115     27.70491         6     1.239     0.424  32.82   0
        15     12.8368    972.9295 299.8684700 +22.6702355      896.765     72.04462      4.756     4.56     -8.43511     20.33115     32.78915         5     0.841     0.703 -35.69   1
        16    935.1887    970.2104 300.1565934 +22.9460105     765.7191     71.95276      2.099     7.29     4.461926     20.33115     43.37747        13     1.715     0.868  -1.50   2
        17      2.8277    992.5923 299.8589634 +22.6728682     2359.019      63.8696      7.320    17.41    -24.41934     20.33115     62.61572        81     3.954     2.129 -88.14  27
        18    643.1050    986.8406 300.0600963 +22.8632630     8644.156     72.08133      2.058     4.86     4.044449     20.33115     472.3967        48     1.572     1.481   3.10   3
        19    153.7438    956.6924 299.9175570 +22.7078614     1684.768     72.11802      8.728    15.98     46.92181     20.33115     49.99707        53     3.390     2.095  40.35   3
        20    661.4019    953.9575 300.0764959 +22.8593070     6831.008     72.06297      1.965     4.36     3.979058     20.33115     397.4378        47     1.573     1.428  44.16   0
        21    140.9666   1007.8090 299.8969560 +22.7186856     1738.022     72.06297      3.299    11.99     89.60793     20.33115     66.16753        38     2.570     1.557   7.67  18
        22    222.4358    951.1467 299.9407260 +22.7268783      528.753     72.08133      1.861     4.98     32.16484     20.33115     29.87262         5     1.421     0.494 -88.12   0
        23    173.6599    949.2310 299.9261777 +22.7116966     702.3727     72.09968      4.051     7.25     38.93049     20.33115     37.76366        12     1.424     1.033 -38.68   0
        24    812.6696    948.0628 300.1255760 +22.9029441     304.8049     72.09968      1.870     5.70      4.28861     20.33115     37.25864         6     1.229     0.787  77.54   0
        25    540.9605    949.0160 300.0405742 +22.8217863     517.0399     72.08133      1.888     5.42     4.173994     20.33115     38.36094         8     1.355     0.771  -0.93   0
        26    252.6965    947.9269 299.9511872 +22.7350319     436.3654     72.19135      1.720     7.02     18.77759     20.33115     45.95867        12     1.291     1.069 -36.67   0
        27    158.3670    955.3206 299.9194409 +22.7088550     1002.036     72.04462      4.389     6.78     45.88278     20.33115     50.85877        11     1.351     0.955 -29.85   3
        28    570.0028    944.6468 300.0510431 +22.8292383     1599.273     72.04462      1.942     4.95     4.076417     20.33115     114.8653        29     1.390     1.354 -89.17   0
        29    464.4542    941.3268 300.0192465 +22.7966425      1016.33     72.04462      1.891     4.30     4.344572     20.33115      79.2046        14     1.309     0.759  81.96   2
        30    394.3187    939.0789 299.9981401 +22.7749676     6567.875     72.19135      1.926     4.28     4.616624     20.33115     476.4629        47     1.493     1.469  18.80   0
        31    705.0620    929.5966 300.0980291 +22.8653971     285.7549     72.06297      1.956     4.94     3.978931     20.33115     23.36897         5     1.407     0.491   0.32   0
        32    427.2075    926.1602 300.0125813 +22.7811223     504.9458     72.09968      1.790     5.16     4.554241     20.33115     43.24575         9     1.135     0.829  -2.96   0
        33      4.9085   1014.0725 299.8526224 +22.6796501      3480.37     71.32498     16.957    67.95    -30.98136     20.33115     75.97815       739    16.820     7.616 -82.13  26
        34    940.7220    918.1000 300.1752711 +22.9326978     2268.689     72.19135      2.056     5.19     4.630774     20.33115     133.0145        31     1.527     1.308  34.63   0
        35    591.2106    915.4249 300.0671551 +22.8272068     413.1938     72.06297      1.830     4.21     3.953158     20.33115     35.05225         6     0.754     0.671 -40.78   0
        36    439.5962    913.7802 300.0204651 +22.7812841     297.5959     72.02625      1.367     3.48     4.532245     20.33115     29.68959         5     0.797     0.438  70.66   0
        37    729.4823    907.0289 300.1129823 +22.8662344     854.5134     72.08133      2.115     7.48     4.117076     20.33115     57.47308        19     1.605     1.261  23.14   0
        38    229.3258    985.0601 299.9318381 +22.7386721     5462.078     72.09968      9.253    27.32     59.88884     20.33115     96.44307       465     6.682     5.492 -56.96  19
        39    158.5146   1007.4583 299.9025270 +22.7238505     605.9648     72.17302      2.500     7.98     90.66499     20.33115     32.54133        11     1.412     1.260 -73.88   0
        40    764.3480    901.1454 300.1257668 +22.8749916     1017.264     72.09968      1.969     6.15     4.281636     20.33115     60.84104        20     1.387     1.143 -44.14   0
        41    220.6989    897.6316 299.9575897 +22.7110069     837.2393     72.04462      5.276     5.24     8.917291     20.33115     37.16547         6     1.107     0.701  -9.41   1
        42    786.5826    894.7620 300.1347763 +22.8798199     11442.58     72.06297      1.900     4.28      4.40802     20.33115     638.0845        55     1.511     1.477  29.51   0
        43    247.9312    974.1256 299.9411831 +22.7411172       8454.2     72.13636     10.925    37.33     36.40569     20.33115     175.4143       957    12.785     5.197  66.14  19
        44    170.6497    998.3906 299.9092508 +22.7248913     867.3818     72.08133      1.513    14.90     81.99348     20.33115     33.72842        21     3.087     2.000   7.24   3
        45    185.9033   1005.2485 299.9117639 +22.7314345     1305.768     72.09968      2.811    16.82     86.41655     20.33115     43.81364        38     5.182     1.517 -69.30  19
        46     98.2443    885.9932 299.9232914 +22.6709353     1295.035     72.08133      6.214     6.26      7.78453     20.33115     51.52502        18     1.374     1.175 -83.06   2
        47    153.3431    892.2437 299.9383918 +22.6892573     639.0076     72.06297      4.005     4.12     14.33984     20.33115     31.91076         5     1.171     0.415 -77.81   0
        48    182.2889    992.0048 299.9149481 +22.7265522     1945.812     71.97114      5.038    14.53     75.39738     20.33115     64.77057        52     3.069     2.060  18.87   3
        49    491.4584    883.2398 300.0465473 +22.7880668      428.584     72.06297      1.711     4.85     4.465649     20.33115     38.46916         7     1.092     0.611 -18.92   0
        50    795.1184    877.0101 300.1432113 +22.8772784     1495.934     72.00789      1.909     4.52     4.519298     20.33115     92.81245        26     1.392     1.223  63.85   0
        51    182.9504   1000.2810 299.9124615 +22.7291241     1318.662     72.08133      2.935     8.33     82.33313     20.33115     63.61753        21     2.246     0.863 -49.24   3
        52    180.5555    996.6602 299.9128946 +22.7273672     2441.639     72.08133      4.808    13.39       79.925     20.33115     69.57248        47     2.444     2.039 -32.47   3
        53    978.7979    876.7568 300.2006001 +22.9322226     300.9752     72.06297      1.661     4.61     4.667558     20.33115     37.80408         6     1.076     0.560  24.79   0
        54    647.4941    874.0831 300.0981390 +22.8322055     668.3941     72.24629      2.445     5.91     4.045978     20.33115     33.84344         9     1.107     0.888 -11.31   0
        55    832.9814    870.3983 300.1571706 +22.8867218     927.9929     71.98952      2.186     6.96     4.568248     20.33115     64.19503        17     1.482     1.119  58.09   0
        56    171.6674    870.1108 299.9512873 +22.6884056     587.6569     72.20966      2.655     5.75     9.236188     20.33115     32.49003         8     1.252     0.743 -15.27   0
        57    881.9258    862.5630 300.1749867 +22.8991317     417.6827     72.00789      1.437     4.69     4.594258     20.33115     37.83583         8     1.046     0.597  21.61   0
        58    733.2277    860.6985 300.1292164 +22.8540512     714.6344     71.98952      1.724     4.36     4.399688     20.33115     59.70935        15     1.121     1.020   5.58   0
        59    445.5597    856.8441 300.0408364 +22.7667309     4177.843     72.13636      1.746     4.09     4.692274     20.33115     327.7708        33     1.334     1.270  36.44   0
        60    744.3944    857.5480 300.1337225 +22.8564919     663.7432     72.04462      1.930     7.36     4.434784     20.33115     43.60733        15     1.441     1.052  51.21   0
        61    170.9455    842.1259 299.9601613 +22.6801614     804.0153     72.08133      2.230     4.99     7.147311     20.33115     70.09578        15     1.507     1.064  50.49   0
        62    147.9679    839.3859 299.9539061 +22.6724834     1520.655     72.06297      1.931     3.93     6.992839     20.33115     144.7742        24     1.362     1.240  14.39   0
        63   1019.8165    828.8339 300.2289869 +22.9307334     2179.637     71.69492      2.053     4.77     4.664408     20.33115     118.9985        31     1.434     1.352 -67.88  16
        64    365.8495    998.2379 299.9700342 +22.7834033       381.89     72.08133      1.550     5.03     4.383055     20.33115     37.83733         9     1.018     0.704  81.06   0
        65    975.0000    828.0085 300.2152661 +22.9170769     1177.824     71.86078      1.611     4.38     4.646358     20.33115     121.8245        14     1.602     0.809 -69.89   3
        66    973.0000    827.5073 300.2148048 +22.9163339     1524.157     71.93437      1.557     3.67     4.645573     20.33115     153.7985        17     1.305     0.804 -87.50   3
        67    679.2235    827.2191 300.1232663 +22.8282553     513.6962     72.06297      2.001     6.30     4.373263     20.33115     33.19912         8     1.249     0.907  65.63   0
        68    757.5255    821.1222 300.1496602 +22.8499632     581.7789     72.17302      1.611     4.66      4.50361     20.33115     47.23178        15     1.085     0.975 -76.80   0
        69    179.9940    820.7192 299.9699346 +22.6767343     454.6888     71.98952      1.826     6.11     6.016081     20.33115     38.81973        10     1.158     0.905 -73.76   0
        70    625.5986    815.0118 300.1105214 +22.8086816     4990.644     71.87919      1.677     3.49      4.26368     20.33115     424.0774        36     1.306     1.258  48.16   0
        71    115.7814    815.5658 299.9516407 +22.6559962     522.3556     72.06297      2.012     4.48     5.646359     20.33115     46.27026         8     1.065     0.903 -85.26   0
        72    427.6307    812.0531 300.0498157 +22.7484996     657.0928     72.08133      1.596     4.44     4.738764     20.33115     55.04683        12     1.077     0.776  -1.15   0
        73    646.0213    807.6813 300.1192693 +22.8126959     739.1396     72.02625      1.762     4.54     4.367816     20.33115     62.86236        16     1.164     1.024 -14.13   0
        74    175.7640    808.3578 299.9726372 +22.6719193     1388.957     72.11802      1.872     4.65     5.531893     20.33115     133.5455        26     1.430     1.295  13.66   0
        75    195.0156    805.9334 299.9794132 +22.6769974     369.2051     72.04462      1.674     5.38     5.311491     20.33115       37.735         6     1.211     0.675  50.27   0
        76   1018.5168    795.1111 300.2395450 +22.9206518     1066.978     72.17302      1.722     4.71     4.716387     20.33115     75.19202        22     1.326     1.182 -87.50  16
        77    801.5138    794.7014 300.1719672 +22.8555501     4916.969     72.22798      1.622     3.07     4.599913     20.33115     636.5317        35     1.298     1.205  25.37   0
        78    518.6828    787.1093 300.0862805 +22.7686299     552.7223     72.19135      1.673     4.37       4.5554     20.33115     55.28996        10     1.042     0.797  38.10   0
        79    165.2061    784.8073 299.9770084 +22.6619964     977.7487     71.91598      1.786     4.76     5.114727     20.33115     87.25421        20     1.366     1.133  44.17   0
        80    580.1868    780.7518 300.1075076 +22.7852356     508.8704     72.08133      1.739     6.06     4.446251     20.33115     40.72678        13     1.301     1.046  56.25   0
        81    314.6413    777.1379 300.0259923 +22.7046051     54270.13     72.04462      1.743     3.69     4.879996     20.33115     4208.689        96     1.503     1.463  42.44   0
        82    572.5399    776.1921 300.1066072 +22.7816348     1646.903     72.02625      1.637     3.38     4.473116     20.33115     171.2132        23     1.178     1.140  88.20   0
        83    985.7497    775.8279 300.2355851 +22.9052990     780.4666     72.08133      1.723     5.83     4.876674     20.33115     55.93083        16     1.199     1.023   5.58   0
        84    243.7285    775.1169 300.0045835 +22.6827632     516.1004     72.19135      1.945     5.48     4.905987     20.33115     45.02383         9     1.142     0.742  81.10   0
        85    601.3991    772.5464 300.1167844 +22.7892354      890.694     72.02625      1.606     3.55     4.417608     20.33115     95.39484        16     1.148     0.919 -31.31   0
        86      1.8474    771.6406 299.9304997 +22.6092201     458.9629      59.0038      1.360     4.12     5.267899     20.33115     61.35978        12     1.183     0.686  74.94  24
        87    612.5629    770.9003 300.1207982 +22.7921077     527.3436     72.06297      1.411     3.01     4.414111     20.33115     71.72402        13     0.957     0.889   8.88   0
        88    932.8691    768.3702 300.2215054 +22.8873223     290.7389     72.04462      1.429     4.00     4.865214     20.33115     31.73868         6     0.935     0.650  29.96   0
        89    717.9539    767.0891 300.1548868 +22.8225878     487.1641     72.06297      1.699     5.44     4.493634     20.33115      36.9251        10     1.266     0.661 -54.91   0
        90    755.3508    757.6393 300.1696184 +22.8310753     776.0428     72.09968      1.824     3.78     4.514812     20.33115     73.44385        13     1.109     0.866  60.22   0
        91    364.3973    754.4327 300.0488583 +22.7130046     31681.49     72.02625      1.693     3.34      4.76856     20.33115     3106.146        69     1.415     1.384  15.90   0
        92    378.6197    754.9423 300.0531200 +22.7174143     2072.686     72.06297      1.721     3.73     4.767719     20.33115     185.4001        27     1.327     1.135   4.47   0
        93    887.6456    750.5581 300.2131839 +22.8686617     2850.571     72.13636      1.773     3.78     4.849864     20.33115     215.5344        34     1.363     1.326 -38.87   0
        94    253.9961    752.8603 300.0150114 +22.6794549     211.3763     72.04462      1.242     3.92     4.792436     20.33115     28.69384         5     0.845     0.521  58.33   0
        95    375.5717    748.8325 300.0541568 +22.7147468     720.7642     72.06297      3.086     6.36      4.76722     20.33115     41.18544        12     1.079     1.052 -34.32   0
        96    645.3828    746.5010 300.1389567 +22.7949333     979.2904     71.97114      1.663     4.47     4.520659     20.33115     80.72065        17     1.105     1.049  -4.14   0
        97    481.9489    746.7655 300.0879516 +22.7460373     538.3007     72.08133      1.880     5.24     4.507066     20.33115     44.52694        10     1.097     0.708   5.27   0
        98    247.5763    746.1389 300.0151984 +22.6756012     680.8152     72.06297      1.543     4.26     4.742776     20.33115     89.24882        14     1.261     0.820  17.39   0
        99    666.8679    744.4175 300.1463303 +22.8007715     949.5759     72.06297      0.669     0.85     4.541803     20.33115     448.3784         5     0.496     0.397  80.54   0
       100    492.4887    741.4506 300.0929615 +22.7476699     743.2528     72.06297      1.415     3.14     4.504207     20.33115     91.71072        14     1.080     0.802  37.25   0
       101     52.1285    741.6058 299.9558888 +22.6156879      495.918     72.00789      1.814     5.04     5.174296     20.33115     42.86442         8     1.039     0.716  53.13   0
       102    893.7540    738.7194 300.2189375 +22.8670886     444.2891     72.04462      1.622     6.55     4.906579     20.33115     42.76558        11     1.335     0.901  38.45   0
       103    394.6685    737.7928 300.0636896 +22.7173019     270.5542     72.04462      1.235     4.16     4.765406     20.33115     32.19508         6     0.750     0.658 -23.48   0
       104    646.9676    735.3489 300.1430750 +22.7922049     307.4418     72.08133      1.407     3.83     4.552289     20.33115     36.74761         9     0.886     0.784  86.87   0
       105    438.5246    735.8079 300.0779896 +22.7298769     415.6002     72.04462      1.747     5.27     4.671889     20.33115     33.69319         8     1.142     0.686 -53.63   0
       106     80.8371    735.5837 299.9667706 +22.6225711      514.114     72.06297      1.655     3.02     5.117033     20.33115     62.49908         8     1.042     0.595  83.11   0
       107    870.9772    733.2399 300.2136122 +22.8586935     537.0118     72.09968      1.845     4.99     4.837653     20.33115     44.83497         8     1.089     0.790   5.75   0
       108    244.6256    730.3771 300.0194024 +22.6701931     522.3334     72.02625      1.562     4.06     4.714357     20.33115      62.1894        12     1.202     0.826 -20.84   0
       109    567.9224    721.2050 300.1230394 +22.7644601     320.4655     71.97114      1.295     4.73     4.633364     20.33115      42.0881         8     0.847     0.749   9.05   0
       110    537.4710    719.3826 300.1141447 +22.7548125     571.3428     72.08133      1.297     2.85     4.652038     20.33115     74.72011        11     0.921     0.782 -48.75   0
       111    447.1411    719.0507 300.0861182 +22.7276481     271.3166     72.11802      1.245     3.79     4.694611     20.33115     41.88074         6     0.940     0.438 -39.40   0
       112    953.9723    715.8815 300.2451508 +22.8785546      4579.59     72.08133      1.743     3.79     5.185482     20.33115     294.7741        38     1.400     1.298 -28.68   0
       113    559.3563    716.7894 300.1218055 +22.7606254     1254.854     72.06297      1.499     3.30      4.66275     20.33115     146.0895        19     1.095     0.997 -16.80   0
       114    478.9361    716.1606 300.0969590 +22.7363468     377.9314     72.04462      1.513     5.22     4.605721     20.33115     44.57802         7     1.106     0.697  26.59   0
       115    942.3598    707.4217 300.2442759 +22.8726464     1640.992     72.09968      1.658     3.88     5.182917     20.33115     132.7767        23     1.310     1.083  49.38   0
       116    305.5807    700.8680 300.0479581 +22.6799978     975.6497     72.06297      1.774     4.04     4.824963     20.33115      94.6393        18     1.283     0.992  53.84   0
       117    973.6007    697.5353 300.2572388 +22.8791572     1672.722     72.08133      1.780     4.31     5.275706     20.33115     118.2221        25     1.324     1.219  79.27   0
       118    768.8503    698.4608 300.1930601 +22.8181159     2504.109     72.11802      1.734     3.38     4.691782     20.33115     221.0581        33     1.392     1.240   7.98   0
       119    987.8398    688.7980 300.2645225 +22.8809080     298.8856     72.08133      1.881     5.21      5.32121     20.33115     31.55924         5     1.224     0.627  18.51   0
       120    851.0597    684.6067 300.2232026 +22.8387530     567.0518     72.02625      1.697     4.60     4.957243     20.33115     50.65919        11     1.175     0.898  40.21   0
       121    154.2419    684.4857 300.0061986 +22.6299232      618.988     72.02625      1.820     5.55     5.026413     20.33115     60.70526        13     1.245     0.981  48.46   0
       122    887.2482    675.4849 300.2374566 +22.8469667     148971.1     72.04462      1.677     3.44     5.118836     20.33115     12680.54       156     1.515     1.494 -24.72   0
       123    649.7792    678.8870 300.1622986 +22.7768282     378.8629     71.98952      1.671     4.65     4.805336     20.33115     35.82745         6     0.974     0.630  12.41   0
       124    739.7278    675.9499 300.1912935 +22.8029259     888.4268     72.06297      1.683     2.92     4.737218     20.33115      87.7141        13     1.034     0.791  -8.94   0
       125    919.9020    668.4044 300.2499459 +22.8547077     372.9569     71.97114      1.521     4.81     5.242165     20.33115     46.79819         9     1.112     0.918 -14.01   0
       126    573.4340    664.2939 300.1432486 +22.7497658     1579.726     72.02625      1.421     2.93     4.916199     20.33115     165.9989        19     1.029     0.969  31.87   0
       127    754.7050    661.5411 300.2006450 +22.8032710      9506.87     72.13636      1.561     3.07       4.7924     20.33115     990.3883        44     1.295     1.242 -83.42   0
       128    256.1378    656.4905 300.0469904 +22.6524380     4920.412     72.15469      1.636     3.07     4.979423     20.33115     553.0637        33     1.262     1.209  17.18   0
       129    338.1057    654.6140 300.0731084 +22.6764689       1111.4     71.98952      1.516     3.23     4.925384     20.33115     143.1231        19     1.189     0.983  13.66   0
       130    213.8532    652.1108 300.0352579 +22.6385048     360.5988     72.09968      1.563     5.51     5.052065     20.33115     42.72232         9     1.114     0.770   9.59   0
       131    546.5054    650.1644 300.1394491 +22.7376398     819.5388     72.06297      1.664     3.47      4.97185     20.33115     78.05843        16     1.082     0.994 -74.35   0
       132    538.1663    642.2891 300.1394095 +22.7328794     3234.485     72.04462      1.446     2.78     4.975046     20.33115     362.7645        25     1.132     1.051 -53.01   0
       133    528.3245    636.0051 300.1383850 +22.7281260     1431.922     71.97114      1.441     2.90     4.970205     20.33115     157.0398        20     1.153     0.996  32.54   0
       134    457.1706    635.4192 300.1164132 +22.7066388     191.0627     72.06297      1.288     3.48     4.906651     20.33115       33.265         5     0.774     0.452  18.44   0
       135    922.0598    633.7349 300.2618830 +22.8453875     363.0509     72.09968      1.657     5.88     5.274652     20.33115     39.62182         9     1.077     0.904  12.11   0
       136    192.1288    631.8459 300.0350828 +22.6261756     697.0412     72.04462      1.588     5.83     5.101443     20.33115     69.18225        11     1.424     0.672  79.68   0
       137    439.2860    632.6586 300.1117405 +22.7004870      185.534     72.17302      1.117     3.44     4.910317     20.33115      41.3654         5     0.737     0.465  -9.49   0
       138    206.0309    630.4802 300.0398508 +22.6299512     735.2276     72.06297      1.695     3.81     5.098138     20.33115      75.4881        12     1.035     0.872   4.12   0
       139    975.3121    627.7064 300.2804609 +22.8595946     505.5017     72.24629      1.857     4.50     5.282013     20.33115     51.11549         9     1.113     0.643  -6.01   0
       140    263.6268    627.9751 300.0585835 +22.6464975     324.9016     72.02625      1.390     2.99     5.046993     20.33115     47.47095         5     0.814     0.495  36.64   0
       141    231.8375    627.4801 300.0488536 +22.6368263     546.7439     72.02625      1.450     4.25     5.087866     20.33115     58.72607        11     1.013     0.890  60.92   0
       142    552.5498    626.4590 300.1490329 +22.7326415     442.0989     72.11802      1.426     3.67     5.012221     20.33115     48.97366         7     0.876     0.633 -74.40   0
       143    453.2662    625.7456 300.1183396 +22.7026908     1808.841     72.11802      1.534     3.01     4.921255     20.33115     197.0056        23     1.145     1.081   3.27   0
       144    487.0398    625.3801 300.1289767 +22.7127052     273.9127     72.09968      1.368     3.86     4.933099     20.33115     37.76376         5     0.897     0.475   7.38   0
       145    107.1010    620.5032 300.0123234 +22.5974276     19841.14     72.24629      1.783     3.45     5.186215     20.33115     2187.434        65     1.519     1.413  39.43   0
       146     28.2019    622.3099 299.9872078 +22.5742874     746.1913     71.98952      2.067     5.04     5.197467     20.33115      77.2831        15     1.492     1.078  17.32   0
       147    538.2538    621.1140 300.1463154 +22.7268234     1169.192     72.11802      1.655     3.69     5.007682     20.33115     111.0653        20     1.225     1.059  -3.82   0
       148    573.3770    620.1326 300.1575769 +22.7370634       472.08     72.04462      1.449     4.41     5.035712     20.33115     50.73306         9     0.982     0.676 -35.17   0
       149    956.1381    607.5223 300.2810331 +22.8480523     1049.439     72.13636      1.680     3.74     5.273248     20.33115     109.3884        17     1.154     1.011  57.72   0
       150    822.7247    605.4477 300.2400808 +22.8075178     447.4105     72.06297      1.426     4.38     5.055498     20.33115     49.88463        10     1.082     0.820 -57.26   0
       151     53.3193    604.5168 300.0007945 +22.5767139     1539.558     72.20966      1.993     4.60      5.20404     20.33115     129.6709        28     1.534     1.273  75.94   0
       152    501.4194    601.7755 300.1411226 +22.7102337     550.4722     72.08133      1.433     3.75     5.019855     20.33115     75.13285        10     1.169     0.633  -6.66   0
       153    896.3333    600.3245 300.2647085 +22.8280815      954.583     72.13636      2.219     3.44     5.275073     20.33115     73.58163        13     1.004     0.931  86.95   0
       154    294.3398    600.8856 300.0769394 +22.6479262     388.2194     72.17302      1.531     3.82     5.055105     20.33115      40.7395         6     0.758     0.625  19.91   0
       155    458.4320    594.0414 300.1302460 +22.6951332     772.6447     72.11802      1.510     2.98     4.993135     20.33115      94.0619        13     1.045     0.798  42.78   0
       156    606.2689    592.8120 300.1767001 +22.7390670     544.8939     72.09968      1.521     3.42     5.217511     20.33115     60.30416         9     0.978     0.742 -54.09   0
       157    653.3945    591.0841 300.1919483 +22.7526850     365.3687     71.98952      1.438     4.88     5.190286     20.33115     44.88533         8     0.922     0.732  21.28   0
       158    623.9889    590.6983 300.1829088 +22.7437671     635.2956     71.95276      1.467     3.43     5.219326     20.33115     63.96468        13     1.029     0.860 -64.58   0
       159    502.5124    589.8611 300.1453327 +22.7071388     919.1139     72.15469      1.574     3.16     5.091562     20.33115     111.0602        13     1.017     0.856  38.99   0
       160    936.2976    585.5731 300.2819706 +22.8358031     3374.062     72.00789      1.620     3.33     5.303288     20.33115     304.9001        32     1.271     1.201   9.84   0
       161    467.9327    585.2633 300.1360558 +22.6954584     1736.277     72.11802      1.455     3.26     5.037111     20.33115     182.8839        21     1.092     1.021  26.90   0
       162    833.3057    582.5262 300.2508263 +22.8040970     279.1265     72.20966      1.443     5.56     5.094345     20.33115     40.14361         6     1.094     0.797  34.80   0
       163     29.8879    578.7256 300.0018866 +22.5622871     5067.393     72.20966      1.795     3.58     5.287805     20.33115      545.033        44     1.488     1.431 -19.51   0
       164    975.6169    576.1340 300.2973080 +22.8448573     337.2642     72.04462      1.609     5.40     5.087862     20.33115     31.02719         6     1.314     0.626  14.91   0
       165    496.8120    576.0542 300.1480412 +22.7014652     370.5483     72.08133      1.959     5.54     5.151796     20.33115     34.58498         8     1.337     0.648  36.25   0
       166    331.4117    571.8547 300.0979054 +22.6507010     9287.365     72.06297      1.526     3.00     4.994057     20.33115     1121.032        41     1.313     1.176  67.94   0
       167    589.1431    573.4045 300.1776666 +22.7283617     158.3728     72.02625      1.205     4.30     5.354116     20.33115     26.69422         5     0.955     0.551 -47.04   0
       168    453.8677    569.0242 300.1369494 +22.6865803     9124.105     72.04462      1.446     3.10     5.053946     20.33115     971.9052        38     1.194     1.179  81.74   0
       169    699.9030    565.4352 300.2147762 +22.7592425     277.4261     72.06297      1.328     3.55      5.16055     20.33115     44.28102         6     0.778     0.615  49.65   0
       170    865.6436    563.2303 300.2671812 +22.8082307     1948.918     72.09968      1.548     3.06     5.135761     20.33115     203.5218        23     1.126     1.110 -73.40   0
       171    950.2537    560.6238 300.2944291 +22.8328066     12700.95     72.08133      1.622     3.26     5.208884     20.33115     1244.857        49     1.330     1.289 -65.17   0
       172    514.4344    558.6571 300.1591802 +22.7017469     11579.57     72.08133      1.455     2.66     5.315567     20.33115     1497.073        43     1.206     1.189  68.44   0
       173    683.7021    554.8311 300.2131693 +22.7513437     647.9294     72.02625      1.463     3.39     5.257412     20.33115     74.30396         8     0.853     0.690  59.01   0
       174    241.9093    554.0667 300.0758294 +22.6187703     1361.192     72.19135      1.477     3.31     5.055945     20.33115     132.9703        18     1.091     0.988  44.40   0
       175    399.5655    553.4779 300.1250892 +22.6658458     306.3708     72.02625      1.241     3.62     4.960804     20.33115     36.92859         6     0.917     0.414  20.01   0
       176    488.9818    551.7947 300.1534805 +22.6921509     448.7501     72.02625      1.457     3.22     5.241849     20.33115     58.96657         9     0.924     0.843  60.96   0
       177    446.1818    546.8127 300.1417688 +22.6778979     4420.168     72.02625      1.426     2.92     5.078034     20.33115     503.0888        34     1.185     1.166  22.17   0
       178    788.7460    547.0210 300.2484587 +22.7805508     787.7632     72.06297      1.398     3.70     5.074192     20.33115     89.97598        14     1.181     0.837  13.41   0
       179    424.4400    545.3339 300.1354787 +22.6709594     1337.497     72.02625      1.527     2.90     4.986649     20.33115     146.7969        18     1.064     0.973  39.15   0
       180    178.6833    544.5978 300.0592352 +22.5971011     846.9604     71.97114      1.727     4.14     5.110769     20.33115     82.43613        16     1.154     1.066 -25.14   0
       181    865.9877    542.5602 300.2740012 +22.8023913     1708.032     72.06297      1.585     3.23     5.077919     20.33115     150.5042        24     1.230     1.098 -36.54   0
       182    562.7730    534.3968 300.1821173 +22.7092561     208666.2     72.02625      1.455     2.63     5.564904     20.33115     26212.77       193     1.477     1.394  -9.45   0
       183    386.3954    540.7214 300.1251311 +22.6582361     315.8803     71.97114      1.293     3.45     4.977614     20.33115     54.08228         7     1.037     0.467 -27.95   0
       184    746.4348    539.6205 300.2376673 +22.7657560     919.8156     72.08133      1.479     3.07     5.090241     20.33115     118.1695        15     1.016     0.875  44.41   0
       185    248.8940    534.2084 300.0844506 +22.6151622     3520.855     71.97114      1.539     3.10     4.961882     20.33115     328.9602        30     1.219     1.198 -11.32   0
       186    814.8159    530.8962 300.2618260 +22.7837201     605.8779     71.97114      1.458     3.36     5.039654     20.33115     66.26698        10     0.909     0.746 -10.66   0
       187    594.4440    521.3010 300.1962379 +22.7149787     173.9185     72.06297      1.097     3.50     5.564904     20.33115     37.54637         5     0.760     0.465  73.08   0
       188    453.3948    514.8871 300.1543812 +22.6708883     2793.937     71.98952      1.575     2.78      5.18716     20.33115     318.9626        30     1.514     1.064  88.33   0
       189    297.5547    517.0437 300.1051657 +22.6248161     524.0438     72.09968      1.612     3.75     4.829427     20.33115      61.0234         9     0.959     0.878  15.92   0
       190    610.0016    512.9185 300.2038077 +22.7172291     374.5872     71.97114      2.218     3.70     5.562829     20.33115     34.14261         5     0.679     0.580  89.94   0
       191    864.9517    511.2378 300.2838488 +22.7930757     428.3658     72.08133      1.422     4.10     4.983713     20.33115     48.29995         7     0.873     0.678  66.34   0
       192    684.2231    510.8000 300.2276293 +22.7388456     368.2616     71.97114      2.025     4.39     5.394551     20.33115     25.08815         5     0.766     0.716  39.72   0
       193    770.8281    503.5945 300.2569717 +22.7627035     446.8928     72.06297      1.689     4.12     5.077802     20.33115     55.65089         6     1.008     0.481   6.23   0
       194    850.3723    501.0462 300.2826096 +22.7857816     1680.633     72.09968      1.451     2.86     4.955743     20.33115     168.2259        21     1.122     1.001 -78.12   0
       195    721.5802    498.5790 300.2432437 +22.7465180     2607.102     72.06297      1.410     2.74     5.281166     20.33115     320.0309        21     1.065     1.016  86.89   0
       196    360.2344    498.3949 300.1307294 +22.6382415      143.481     72.04462      1.056     3.47       5.1626     20.33115     28.54877         5     0.752     0.463  15.42   0
       197    965.6055    496.4114 300.3200718 +22.8189355     694.2208     71.93437      2.072     5.63     4.783852     20.33115     48.86212        12     1.278     0.869  54.68   3
       198    964.5612    491.8587 300.3212240 +22.8173137     828.4166     72.08133      1.872     4.18     4.766867     20.33115     77.12679        11     1.207     0.733  48.66   3
       199    930.8970    496.4375 300.3092310 +22.8085565     288.2033     72.06297      1.342     4.01     4.899915     20.33115     44.62395         5     0.870     0.555 -42.77   0
       200    626.4066    495.3318 300.2146302 +22.7170879     465.5608     72.02625      1.381     4.79     5.543848     20.33115     60.65731        10     1.195     0.776  47.20   0
       201    508.7833    494.4947 300.1782532 +22.6816211     987.4779     71.98952      1.738     3.15     5.408595     20.33115     83.66877        13     0.974     0.884   1.45   0
       202    979.1520    492.7845 300.3254776 +22.8219460     1316.083     72.09968      1.606     3.44     4.731201     20.33115     129.9927        19     1.202     0.950   8.13   0
       203    850.6926    491.1256 300.2859304 +22.7830251     2269.605     72.22798      1.725     3.43     4.927772     20.33115     228.3432        26     1.423     1.053  73.56   0
       204    604.0067    489.2257 300.2096318 +22.7086254      558.084     72.06297      1.417     3.03     5.564904     20.33115     68.01453        12     0.953     0.842  -2.80   0
       205    390.0051    489.4270 300.1429088 +22.6445850     277.2083     72.02625      1.120     2.23     5.200098     20.33115     50.60497         6     0.767     0.493   3.61   0
       206    442.3036    487.9884 300.1596601 +22.6598388     254.1579     71.97114      1.180     2.73     5.238836     20.33115     63.41909         7     0.740     0.674  -7.81   0
       207    888.8298    486.2559 300.2994098 +22.7930391     4305.977     72.08133      1.467     2.72     4.873772     20.33115     483.9896        29     1.195     1.098  13.82   0
       208    603.6022    485.1948 300.2108144 +22.7073459     303.5204     71.87919      1.386     2.40     5.564904     20.33115     37.71285         5     0.695     0.466 -73.17   1
       209    549.5506    482.1208 300.1949703 +22.6902757     363.0895     72.06297      1.490     3.24     5.564904     20.33115     55.30596         6     0.887     0.534  23.45   0
       210    980.5532    476.7238 300.3311292 +22.8177462     873.0606     72.06297      1.680     3.50     4.691801     20.33115     84.16649        15     1.051     0.984  30.25   0
       211    120.9481    476.2460 300.0634697 +22.5601737     1012.043     72.09968      1.605     3.66     4.910564     20.33115     108.0838        20     1.184     1.092  65.44   0
       212    782.0157    470.7152 300.2711352 +22.7566004     326.2039     72.02625      1.403     4.46     5.002516     20.33115     34.43797         6     1.063     0.533  47.92   0
       213    977.6840    465.9923 300.3337176 +22.8138011     324.8297     71.98952      1.495     5.19     4.700609     20.33115     50.42386         8     1.570     0.607  -1.84   0
       214    114.0223    466.3969 300.0645130 +22.5552704     397.9425     72.00789      1.431     2.85     4.926136     20.33115     44.26942         5     0.770     0.542  87.43   0
       215    720.9781    460.8897 300.2552915 +22.7355040     354.8411     71.98952      1.222     3.03     5.276885     20.33115     65.45985        10     0.920     0.736  66.54   0
       216    662.3617    456.6845 300.2383830 +22.7167463     779.9421     72.04462      1.277     2.60     5.470664     20.33115     109.6618        15     0.983     0.887  44.12   0
       217    976.8758    449.1615 300.3389290 +22.8087183     599.4867     72.02625      1.479     3.69     4.709919     20.33115     77.79063        10     1.045     0.755  -9.88   0
       218    722.9858    448.7917 300.2598446 +22.7326273     781.7159     71.97114      1.337     3.57     5.230622     20.33115     101.5973        12     1.022     0.832  67.94   0
       219    880.2479    445.2809 300.3100340 +22.7786880     982.6234     72.08133      1.421     3.24     4.881511     20.33115     109.0268        15     1.088     0.833  40.12   0
       220    838.1885    443.3932 300.2975252 +22.7655579     250.4101     71.93437      1.252     3.45     4.899802     20.33115     30.18802         5     0.759     0.452  17.60   0
       221    864.5587    441.1898 300.3064670 +22.7728164     638.9707     72.06297      1.567     3.33     4.899802     20.33115     71.04868        13     1.088     0.879  80.12   0
       222    845.1271    441.8483 300.3001912 +22.7671903     385.5923     72.06297      1.275     2.52     4.899802     20.33115     43.36004         6     0.735     0.553 -41.19   0
       223    608.9108    439.3411 300.2273534 +22.6957577     3373.789     72.13636      1.394     2.60     5.524343     20.33115     444.1785        26     1.103     1.069 -86.44   0
       224    969.5351    438.4524 300.3401140 +22.8034417     489.2949     72.09968      1.419     4.11     4.732259     20.33115     62.74813         9     1.158     0.696  31.88   0
       225     85.1514    430.5246 300.0671787 +22.5363186     390.5576     72.06297      1.275     3.06     5.052804     20.33115      48.3902         6     0.776     0.497  -4.60   0
       226    380.4189    427.2569 300.1601045 +22.6238547     231.0891     72.06297      1.042     3.19     5.287252     20.33115     37.75362         6     0.727     0.643 -35.82   0
       227    448.6776    426.0357 300.1817548 +22.6439496     334.4544     72.02625      1.503     3.81     5.295933     20.33115     48.88068         6     0.998     0.417 -76.52   0
       228   1020.1578    418.6737 300.3623364 +22.8128975     1351.525     71.06487      1.626     3.36     4.593493     20.33115      129.591        22     1.212     1.121 -84.34  16
       229    892.1088    418.4050 300.3224583 +22.7745083     559.2226     71.97114      1.367     3.67      4.88726     20.33115     60.62178        10     1.092     0.656 -29.20   0
       230    978.6511    417.3738 300.3498012 +22.8001060     1007.696     72.08133      1.534     3.08     4.718082     20.33115     114.8807        18     1.090     1.030 -56.60   0
       231    628.4451    415.2784 300.2412512 +22.6946903     355.5025     72.06297      1.453     3.41     5.444421     20.33115      42.8085         5     0.742     0.452  69.51   0
       232    719.5206    413.3861 300.2702561 +22.7214115     1205.099     72.04462      1.458     2.67     5.124207     20.33115     148.1716        17     1.062     0.902  37.58   0
       233    515.1792    414.1788 300.2063159 +22.6604590     426.8534     72.06297      1.408     2.94      5.32172     20.33115     52.63209         6     0.720     0.579  32.19   0
       234    223.4193    411.0515 300.1165023 +22.5721639     599.0601     72.04462      1.525     4.50      4.80445     20.33115     82.07919        11     1.120     0.829  60.83   0
       235    285.7523    407.0262 300.1372039 +22.5896838     3788.369     72.08133      1.475     3.04     5.139419     20.33115      401.143        29     1.217     1.106  54.21   0
       236   1018.9907    405.8746 300.3661261 +22.8088663     4473.777     72.06297      1.619     3.17     4.701465     20.33115     396.4964        33     1.313     1.208 -72.53  16
       237    233.0037    401.8139 300.1224820 +22.5723827     7817.177     71.91598      1.505     2.97     4.903686     20.33115     852.6664        41     1.283     1.188  57.88   0
       238    737.9757    402.6948 300.2794802 +22.7238619     210.2133     71.97114      1.174     3.34     5.030649     20.33115     40.13602         7     0.724     0.688 -22.35   0
       239    611.5830    401.4162 300.2404950 +22.6856574     356.0558     72.02625      1.264     3.06     5.441585     20.33115     47.26992         5     0.731     0.456 -70.86   0
       240    998.9048    397.0306 300.3627260 +22.8003133     1763.485     72.00789      1.467     2.99     4.809256     20.33115     189.4217        23     1.128     1.105  76.38   0
       241    373.7897    396.1269 300.1681434 +22.6129260     4818.992     72.06297      1.389     2.81     5.318247     20.33115     557.8481        28     1.118     1.072  36.66   0
       242    618.0344    392.9117 300.2452655 +22.6851444     18713.64     72.04462      1.389     2.83     5.387168     20.33115     2290.043        55     1.250     1.163  73.59   0
       243    635.8806    392.7902 300.2508669 +22.6904524     904.0648     72.00789      1.780     6.34     5.304515     20.33115     69.08902        15     1.457     0.774 -43.04   0
       244    465.5679    394.6409 300.1972037 +22.6399875     276.5799     72.11802      2.905     3.82     5.302737     20.33115     29.89017         5     1.026     0.407  15.60   0
       245    861.8402    389.1879 300.3224968 +22.7570481     277.4048     72.06297      1.561     3.64     4.900854     20.33115     38.95515         5     0.896     0.429 -45.85   0
       246    815.0947    383.5915 300.3097306 +22.7414501     281.7966     71.95276      1.149     2.71     4.888986     20.33115     45.59256         6     0.785     0.485   7.52   0
       247    238.1375    380.3808 300.1310342 +22.5677653     350.6302     72.04462      1.295     3.94     5.071795     20.33115     50.03879         7     0.987     0.588 -48.40   0
       248    951.5471    375.5110 300.3549276 +22.7799550     778.4929     72.08133      1.518     3.42     4.917662     20.33115     93.02685        15     1.179     0.888 -67.92   0
       249    488.4963    374.9995 300.2107186 +22.6412098     423.5215     71.93437      1.364     2.31     5.305179     20.33115     44.78743         6     0.743     0.496 -83.43   0
       250    172.6146    372.7752 300.1131184 +22.5459487     2024.085     72.08133      1.579     3.36     5.037883     20.33115     234.0903        26     1.260     1.184 -48.38   0
       251    828.8367    365.0329 300.3200395 +22.7402253     261.5541     72.08133      1.553     3.91     4.888418     20.33115      29.4083         6     0.915     0.479 -54.51   0
       252    558.6752    362.2950 300.2367035 +22.6585722     6564.224     72.20966      1.365     2.49     5.311389     20.33115     871.6396        34     1.177     1.060  76.49   0
       253    972.3394    362.8009 300.3655418 +22.7825189      1222.69     72.02625      1.519     3.28     5.003211     20.33115     126.3362        17     1.077     0.975  82.37   0
       254    273.2888    361.6550 300.1480479 +22.5729177     684.3954     72.09968      1.591     4.35     5.301144     20.33115     70.81035        13     1.165     0.888  60.19   0
       255    131.0663    354.5077 300.1061231 +22.5282529     411.7475     72.20966      1.371     3.77     5.086508     20.33115     71.99147        10     1.122     0.789  47.01   0
       256    818.9649    354.2608 300.3204555 +22.7341733     262.2769     72.08133      1.128     4.24     4.881113     20.33115     39.51652         6     1.095     0.467 -27.82   0
       257    672.4907    352.6469 300.2753046 +22.6898715     466.3776     72.04462      1.240     2.51     4.805159     20.33115     76.38273        10     0.882     0.753   1.07   0
       258    762.7278    351.4323 300.3038337 +22.7165304     1199.333     72.06297      1.475     2.54     4.889635     20.33115     166.1049        17     1.089     0.865  73.77   0
       259    465.3188    348.5783 300.2120726 +22.6266764     6193.301     72.02625      1.382     2.48     5.310335     20.33115     801.8468        34     1.173     1.081  71.23   0
       260    954.6359    343.2879 300.3663478 +22.7716093     617.6564     72.04462      1.491     4.31     5.011797     20.33115     59.36253        12     1.122     0.818 -31.03   0
       261    857.3820    343.2442 300.3360144 +22.7425002     1417.171     72.08133      1.410     2.77     4.922316     20.33115     156.4697        17     0.994     0.973 -43.07   0
       262    449.9969    337.5080 300.2108925 +22.6189069     471.4749     71.97114      1.362     3.88     5.325349     20.33115     57.75946         7     0.818     0.793 -56.69   0
       263    532.6851    335.4398 300.2373194 +22.6430718     505.7538     72.04462      1.224     2.71     5.307847     20.33115     63.49259         8     0.774     0.724  56.54   0
       264    810.9989    334.3756 300.3244228 +22.7260706     266.6073     72.00789      1.368     4.50     4.932838     20.33115     45.55418         5     1.188     0.485 -29.42   0
       265    830.1121    330.9175 300.3315067 +22.7307952     628.5552     72.17302      1.452     2.71     4.944882     20.33115     77.65969        10     0.891     0.726  85.44   0
       266    352.8650    327.7358 300.1838198 +22.5870098     2619.333     72.11802      1.486     2.76     5.391739     20.33115     316.5368        28     1.200     1.099  51.27   0
       267     71.2526    324.9505 300.0971128 +22.5018417     1124.843     72.09968      1.659     3.03     5.437341     20.33115     141.4663        21     1.470     1.078  78.04   0
       268    300.0283    321.2385 300.1694817 +22.5693174    -192.8091     72.08133     -6.189     3.35     5.391739     20.33115     40.28571         5     0.906     0.624  30.57   0
       269    322.2169    317.0867 300.1777345 +22.5747706     30202.46     72.00789      1.440     2.85     5.391739     20.33115     3136.192        68     1.363     1.221  67.83   0
       270    856.8629    315.1520 300.3449668 +22.7342646     1376.513     72.09968      1.307     2.62     4.985586     20.33115     189.8081        18     1.081     0.888  13.51   0
       271     18.5079    304.8210 300.0872453 +22.4802553     4893.596     71.98952      1.726     3.65     5.638086     20.33115     515.3409        40     1.472     1.274  47.29   0
       272    772.3975    303.6410 300.3223545 +22.7056804     591.3741     72.06297      1.436     3.53     4.942602     20.33115     60.30421        11     0.992     0.791  53.83   0
       273    420.6100    302.9199 300.2129620 +22.6001672     447.2208     72.02625      1.223     3.40     5.352985     20.33115     71.54264         8     1.024     0.695 -84.53   0
       274    196.5266    303.4003 300.1430633 +22.5331883     413.0367     71.93437      1.187     3.65     5.475974     20.33115     49.94733         9     1.003     0.600  -7.25   0
       275    732.7733    297.1368 300.3121081 +22.6919524     1971.368     72.06297      1.374     2.63     4.828505     20.33115     223.2179        22     1.065     1.022 -83.93   0
       276    540.9474    291.7533 300.2540658 +22.6329882     370.2208     72.09968      1.583     4.22     5.308245     20.33115     47.96572         7     0.945     0.615   9.36   0
       277    947.5958    290.2930 300.3813437 +22.7542567     627.7546     71.95276      1.426     3.41     5.090301     20.33115     69.20715        11     1.002     0.760  29.40   0
       278    394.3764    281.5007 300.2117414 +22.5861562     2155.581     72.00789      1.597     3.38     5.367709     20.33115     253.8787        25     1.333     0.996  67.77   0
       279      1.2093    281.6819 300.0893736 +22.4684274     2083.558     55.32465      0.666     0.90     5.609025     20.33115     1091.441         5     0.493     0.405 -81.15  24
       280    606.9391    280.6783 300.2782210 +22.6495588     225.2533     72.11802      1.057     2.38     4.819453     20.33115     53.03997         5     0.749     0.405  21.69   0
       281    833.6035    274.5096 300.3508950 +22.7156150     589.4836     71.97114      1.504     3.93     5.116262     20.33115     67.06486        13     1.126     0.856 -46.48   0
       282    825.8455    275.1180 300.3482775 +22.7134689     243.8923     72.04462      1.330     4.69     5.118336     20.33115     36.76052         7     0.993     0.628  87.83   0
       283    715.8119    272.3090 300.3148731 +22.6797367     366.6827     72.00789      1.227     3.22     4.794206     20.33115     58.74911         7     0.854     0.574  25.16   0
       284    684.2729    271.2405 300.3053868 +22.6699910     415.1915     72.04462      1.719     3.96     4.744524     20.33115     36.69792         5     0.881     0.509  44.12   0
       285    470.2153    260.9141 300.2420352 +22.6029475     1134.155     72.00789      1.303     2.91      5.38472     20.33115     156.1898        15     0.990     0.895 -34.71   0
       286    277.6894    261.5636 300.1818860 +22.5454818     294.8878     72.04462      1.320     2.97      5.39669     20.33115      49.4614         5     0.882     0.463  13.60   0
       287     43.2291    261.4303 300.1090034 +22.4752042     301.3326     72.06297      1.449     3.33     5.610312     20.33115     40.16323         5     0.724     0.481  12.54   0
       288    853.4315    254.2912 300.3636385 +22.7157308      266.096     72.00789      1.287     4.33     5.209078     20.33115     35.77664         7     0.940     0.568  31.39   0
       289    715.1365    252.8058 300.3209883 +22.6739257     2392.322     72.02625      1.472     2.78     4.806909     20.33115     283.0164        27     1.200     1.068 -77.00   0
       290    976.5147    247.4105 300.4042796 +22.7505674     3142.782     72.00789      1.570     2.74     5.367881     20.33115     392.2617        29     1.226     1.157 -81.40   0
       291    347.6700    238.4897 300.2111501 +22.5598097     159.5975     72.22798      1.543     4.32     5.337149     20.33115     22.67583         6     1.120     0.474   9.03   0
       292    423.5284    236.9681 300.2352616 +22.5820867      639.825     72.06297      1.193     2.57     5.332019     20.33115     98.35945        10     0.950     0.639  -8.83   0
       293    128.9069    230.8174 300.1455712 +22.4920823     555.2581     71.98952      1.382     3.04     5.507512     20.33115       75.219         9     0.892     0.800  11.51   0
       294     98.4850    230.7418 300.1361353 +22.4829466     1330.688     72.17302      1.738     3.57     5.604854     20.33115     139.5989        21     1.440     0.902 -26.56   0
       295    992.3406    228.0934 300.4154847 +22.7497415     536.6931     72.13636      1.492     3.56     5.495085     20.33115     61.82391         7     0.845     0.653  36.51   0
       296    836.1797    224.6249 300.3678779 +22.7020354     335.2775     72.06297      1.284     1.80     5.336306     20.33115     51.02932         5     0.673     0.446 -21.85   0
       297    182.4006    223.1929 300.1646819 +22.5059167     395.8151     71.87919      1.327     2.66      5.40388     20.33115     65.63326         8     0.931     0.558 -19.46   0
       298    977.5997    220.8040 300.4132472 +22.7432354     344.4363     71.87919      1.583     4.21     5.476716     20.33115     38.53649         5     0.912     0.556 -40.05   0
       299    858.2509    216.7318 300.3773231 +22.7063669     316.4717     72.04462      1.474     5.14     5.336481     20.33115     44.63958         8     0.972     0.768 -85.99   0
       300    787.1055    214.3141 300.3559143 +22.6843881     602.5826     72.24629      1.417     3.49     5.226429     20.33115     76.08067        11     0.986     0.798 -29.89   0
       301    377.4572    214.1614 300.2283125 +22.5617374     455.2018     72.06297      1.323     3.57     5.323973     20.33115     57.35146         8     0.887     0.647  31.71   0
       302    922.8053    207.6449 300.4004127 +22.7230611      143.667     72.06297      1.001     2.20     5.378246     20.33115     41.06726         5     0.722     0.428  21.59   0
       303    884.9548    203.4781 300.3899528 +22.7105412     2121.993     72.04462      1.455     2.68     5.342407     20.33115     287.8772        20     1.098     0.984  51.53   0
       304    303.5426    200.4868 300.2097380 +22.5356746     2104.274     72.15469      1.421     2.49     5.418145     20.33115     315.0529        21     1.205     0.959  72.01   0
       305    381.4575    195.7188 300.2355379 +22.5576345     1055.071     72.09968      1.499     3.40     5.327694     20.33115     119.2668        15     1.056     0.897 -74.50   0
       306    133.5527    196.2370 300.1582288 +22.4835408     372.8945     72.09968      1.738     4.89      5.58677     20.33115     41.42048         8     1.255     0.539 -14.41   0
       307    783.2767    195.1508 300.3609342 +22.6777300     592.4383     72.06297      1.415     3.16     5.230196     20.33115     82.00751         7     0.843     0.645 -85.28   0
       308    890.5040    192.3672 300.3952872 +22.7090040     428.6978     72.04462      1.498     2.94     5.349336     20.33115     46.88991         9     0.961     0.619   5.97   0
       309    198.0623    187.9183 300.1809915 +22.5004736     782.2224     72.15469      1.531     3.59     5.539707     20.33115     88.82255        11     1.094     0.795  15.72   0
       310    735.9360    184.8085 300.3495244 +22.6605917     1744.157     72.04462      1.450     2.55     5.057065     20.33115     242.4445        24     1.181     1.055 -87.31   0
       311    800.8371    184.5879 300.3698363 +22.6799445     460.8858     72.04462      1.226     2.80     5.320352     20.33115     69.44426         9     0.925     0.666  16.22   0
       312    219.6904    181.1268 300.1899220 +22.5050000     640.6855     72.22798      1.424     2.38     5.540692     20.33115     89.55665         9     0.873     0.626  38.64   0
       313   1007.6154    177.8582 300.4365433 +22.7398513     796.1473     72.04462      1.420     2.64     5.551146     20.33115     95.60907        14     1.008     0.823  -6.69   0
       314    740.0624    176.0768 300.3536422 +22.6593145     928.8324     72.11802      1.754     3.79      5.11853     20.33115     91.57406        14     1.126     0.898  53.96   0
       315    660.6033    175.3934 300.3290905 +22.6353436     1210.977     71.87919      1.332     2.42     5.128437     20.33115     188.1819        16     1.120     0.836  73.08   0
       316    856.1343    167.2536 300.3927064 +22.6914979     1399.411     72.09968      1.413     2.83     5.276485     20.33115     178.1541        17     1.004     0.924  63.84   0
       317    586.7339    167.3617 300.3086716 +22.6109287      919.044     72.04462      1.392     3.41     5.220764     20.33115      104.931        15     1.088     0.849  68.57   0
       318    868.2762    166.2739 300.3968122 +22.6948476     839.2981     72.15469      1.483     3.46       5.2773     20.33115     86.68158        15     1.134     0.865 -22.75   0
       319    984.8684    156.4670 300.4363779 +22.7268927       1172.7     72.11802      1.542     3.23     5.571894     20.33115     141.2012        21     1.227     1.074  76.53   0
       320      8.8692    153.1557 300.1334287 +22.4338140     511.4146     72.02625      1.561     4.72     5.927008     20.33115     58.31033         9     1.313     0.744 -34.05  18
       321    218.8913    149.6233 300.1998865 +22.4957085     669.3351     71.98952      1.355     3.66     5.654736     20.33115     80.28527        10     1.094     0.671  -9.56   0
       322     80.6755    143.9230 300.1587451 +22.4526734     2316.258     72.15469      1.748     3.57     5.783155     20.33115     228.1847        29     1.408     1.144  49.04   0
       323    904.0164    141.5645 300.4159750 +22.6984260     741.3295     72.06297      1.508     2.52     5.391546     20.33115     100.9592        12     0.952     0.772  28.32   0
       324     30.9527    141.1265 300.1441927 +22.4369750     387.9908     72.06297      1.284     4.70     5.876819     20.33115     51.92142         8     1.300     0.483 -38.83   0
       325    238.2138    137.3078 300.2098906 +22.4979560     5744.506     71.98952      1.516     3.02     5.696873     20.33115     679.9335        33     1.273     1.145  65.93   0
       326    220.3550    138.2897 300.2040158 +22.4928901     411.2706     72.04462      1.506     3.45     5.703043     20.33115     44.37133         5     0.732     0.470  80.87   0
       327     22.5587    131.7348 300.1446275 +22.4317627     1305.956     72.02625      1.621     3.23     5.887289     20.33115     155.2186        21     1.189     1.121   5.55   0
       328    221.6471    128.2202 300.2076818 +22.4903835     591.7242     72.11802      1.457     3.95     5.740489     20.33115     69.42452        10     0.916     0.859  -1.48   0
       329    882.2983    119.0938 300.4164826 +22.6854645     3765.324     72.24629      1.507     2.90     5.311639     20.33115      449.692        32     1.336     1.139  70.33   0
       330    985.9861    117.9704 300.4492068 +22.7161462      2801.99     72.08133      1.586     3.16     5.895628     20.33115     275.9521        28     1.288     1.144  74.72   0
       331    431.7192    114.4600 300.2775312 +22.5493224      669.584     72.11802      1.467     2.53     5.330144     20.33115     90.19535        10     0.977     0.644 -17.24   0
       332    184.8503    114.9837 300.2005245 +22.4755606     298.5909     72.08133      1.317     3.06     5.882273     20.33115     50.57889         6     0.963     0.625 -89.62   0
       333    355.9332    106.0128 300.2566722 +22.5242078     920.9928     72.04462      2.519     2.67     5.346332     20.33115     83.11461        10     0.874     0.723  21.68   0
       334    483.1701    101.4535 300.2977711 +22.5609822     1876.802     72.06297      1.449     2.49     5.313243     20.33115     226.1115        22     1.236     0.973  80.72   0
       335    122.1683    103.0661 300.1848907 +22.4533639     639.3435     72.06297      1.474     4.14     5.913085     20.33115     58.04168         9     0.916     0.769  72.75   0
       336    411.2852    102.2742 300.2751177 +22.5397025      343.983     72.17302      1.339     3.40     5.344711     20.33115      50.7688         7     0.956     0.538 -21.28   0
       337    544.5946    101.0004 300.3170532 +22.5792343     383.2274     71.87919      1.429     3.42     5.229822     20.33115     50.99021         6     0.944     0.502  13.30   0
       338    226.7926     97.1565 300.2193510 +22.4829975     328.4918     72.08133      1.288     3.75     5.861471     20.33115     47.44173         8     0.929     0.624   4.94   0
       339    917.3323     85.8447 300.4381920 +22.6863715     257.0565     72.04462      1.426     3.49     5.526155     20.33115     45.66009         5     0.919     0.663  -3.23   0
       340    257.1026     81.2117 300.2339497 +22.4874904     5981.811     71.95276      1.511     2.99     5.847702     20.33115     665.7806        37     1.346     1.147  63.42   0
       341    763.3683     81.7886 300.3914750 +22.6391600     327.7685     72.06297      1.466     3.49     5.398099     20.33115     56.95299         7     1.063     0.576  70.18   0
       342    107.7733     80.0821 300.1878628 +22.4424489     737.3359     72.04462      1.877     5.97     5.958622     20.33115     87.84427        18     1.697     1.066  57.97   0
       343    886.1459     79.3281 300.4305724 +22.6751706     338.0951     72.06297      1.318     2.80     5.382955     20.33115      41.3694         7     0.738     0.634  10.16   0
       344    228.8704     75.4626 300.2270280 +22.4773850     278.0451     72.09968      1.033     2.51     5.943976     20.33115     57.87515         5     0.719     0.463 -19.63   0
       345     19.2633     71.8420 300.1630139 +22.4135713     295.0617     72.06297      1.151     2.65     5.676295     20.33115     58.18052         6     0.760     0.519 -33.52   0
       346    503.3106     66.6857 300.3153128 +22.5570118     6181.007     72.22798      1.464     2.68     5.546172     20.33115     731.4711        37     1.246     1.145  82.50   0
       347    388.8157     66.3538 300.2797627 +22.5226496     600.8458     72.08133      1.424     4.15     5.432911     20.33115     74.86977        13     1.251     0.819  55.58   0
       348    559.6188     61.4219 300.3345614 +22.5723473     478.5359     72.06297      1.668     4.22     5.430585     20.33115     45.68598         7     0.980     0.519  30.59   0
       349    697.5662     58.3942 300.3785383 +22.6127464     341.6896     72.06297      1.394     3.62     5.480104     20.33115     44.93639         6     0.926     0.413 -70.74   0
       350    755.6876     56.6466 300.3972277 +22.6296284      797.447     72.04462      1.671     2.73     5.515973     20.33115     98.98701        10     0.846     0.772  15.18   0
       351    848.4507     55.7124 300.4264648 +22.6571017      587.146     72.08133      1.504     2.63     5.339845     20.33115       72.023         9     0.917     0.640   9.17   0
       352    871.2797     51.5344 300.4349412 +22.6627257     210.6637     72.17302      1.114     4.50     5.311402     20.33115     35.61469         5     0.790     0.730  52.69   0
       353    196.1345     50.6006 300.2248998 +22.4604378     409.2834     72.06297      1.339     2.87     6.085634     20.33115     59.32592         8     0.837     0.673 -44.83   0
       354    631.6825     46.8205 300.3617509 +22.5897079     6307.752     72.02625      1.473     2.83     5.524109     20.33115     762.8494        36     1.285     1.128 -88.71   0
       355    554.4330     49.3274 300.3368649 +22.5673170      464.705     72.06297      1.493     3.20     5.488073     20.33115     61.53215         7     0.960     0.578  18.09   0
       356    406.5565     45.7620 300.2919594 +22.5220390     1444.451     72.15469      1.495     2.75     5.510876     20.33115     181.5978        21     1.157     1.075  48.84   0
       357    673.0440     44.4507 300.3754118 +22.6013994     833.3187     72.09968      1.478     3.46     5.537451     20.33115     91.00661        12     1.098     0.761 -43.93   0
       358    742.9314     42.0318 300.3979858 +22.6216078     495.0169     72.04462      1.489     4.06      5.55944     20.33115     38.77383         7     0.898     0.524 -47.99   0
       359    688.8381     40.0973 300.3817463 +22.6048714     741.1768     72.06297      1.624     4.14     5.553836     20.33115     62.04403        13     1.083     0.912 -34.50   0
       360    958.9410     38.3395 300.4665735 +22.6851372     491.3233     72.13636      1.455     4.01     6.112624     20.33115     56.32273        12     1.223     0.748 -10.89   0
       361    155.6128     38.2678 300.2162908 +22.4447600      836.711     72.08133      1.651     3.38     6.131724     20.33115     73.47799        12     1.035     0.739 -36.77   0
       362    997.7100     37.7281 300.4788736 +22.6965510      148.117     72.22798      1.185     4.06     6.151773     20.33115     35.59379         6     1.082     0.436  -5.17   0
       363    727.3932     35.7945 300.3951617 +22.6151656     536.9634     71.91598      1.367     4.60     5.570221     20.33115     58.21728        13     1.080     0.999 -89.63   0
       364    675.9156     31.7365 300.3804269 +22.5986005     2814.096     72.15469      1.494     2.79     5.586606     20.33115     346.8104        27     1.243     1.058  74.82   0
       365    691.0747     30.3744 300.3855942 +22.6027430     984.7853     72.06297      1.767     5.05     5.594798     20.33115     77.21468        18     1.566     0.912  60.44   0
       366    316.5978     32.3985 300.2682834 +22.4912705      266.851     71.84237      1.246     2.70     5.466539     20.33115     55.61517         5     0.712     0.481 -79.44   0
       367    762.2731     23.5111 300.4100188 +22.6220630     1632.308     72.22798      1.453     2.37     5.695671     20.33115     217.5216        21     1.081     1.034  75.47   0
       368    700.3764     16.7885 300.3928963 +22.6016162     780.3954     72.06297      1.356     2.74     5.648049     20.33115     81.63459        13     0.951     0.827   7.93   0
       369    505.9277     15.8064 300.3326147 +22.5431623     915.3995     72.00789      1.352     2.49     5.958826     20.33115     149.8858        12     0.942     0.826  34.65   0
       370     79.0438     15.7953 300.1997595 +22.4153733     508.0614     72.08133      1.389     3.16     5.961994     20.33115      68.9828         7     0.818     0.705   5.93   0
       371    259.1937   1015.8556 299.9311117 +22.7564646     1454.951     72.04462      4.851    14.93     47.43199     20.33115     40.67703        32     3.138     1.975  85.08  19
       372    791.8671     12.8808 300.4226931 +22.6278540     341.7419     72.17302      1.319     3.48     5.857576     20.33115     46.46356         8     0.858     0.635 -34.70   0
       373    305.6201   1012.3739 299.9466902 +22.7693929      1607.81     72.04462      3.950     5.90     6.757031     20.33115     95.32232        20     1.553     1.064  71.65   2
       374    209.4372   1003.5429 299.9196387 +22.7380061     2144.692     72.06297      3.239    24.58      82.9688     20.33115     60.12109       111     4.723     3.553  26.96  19
       375    241.8076   1000.9105 299.9305648 +22.7469625     2452.724     71.97114      4.939    21.40     59.50909     20.33115     76.64507       118     4.914     2.587   5.51  19
