#   1 NUMBER                 Running object number                                     
#   2 X_IMAGE                Object position along x                                    [pixel]
#   3 Y_IMAGE                Object position along y                                    [pixel]
#   4 ALPHA_J2000            Right ascension of barycenter (J2000)                      [deg]
#   5 DELTA_J2000            Declination of barycenter (J2000)                          [deg]
#   6 FLUX_APER              Flux vector within fixed circular aperture(s)              [count]
#   7 FLUXERR_APER           RMS error vector for aperture flux(es)                     [count]
#   8 FLUX_RADIUS            Fraction-of-light radii                                    [pixel]
#   9 FWHM_IMAGE             FWHM assuming a gaussian core                              [pixel]
#  10 BACKGROUND             Background at centroid position                            [count]
#  11 THRESHOLD              Detection threshold above background                       [count]
#  12 FLUX_MAX               Peak flux above background                                 [count]
#  13 ISOAREA_IMAGE          Isophotal area above Analysis threshold                    [pixel**2]
#  14 A_IMAGE                Profile RMS along major axis                               [pixel]
#  15 B_IMAGE                Profile RMS along minor axis                               [pixel]
#  16 THETA_IMAGE            Position angle (CCW/x)                                     [deg]
#  17 FLAGS                  Extraction flags                                          
         1    228.5401     19.2082 300.2355069 +22.4424242     4066.951     72.51051      1.565     2.76     4.299345     20.46785     428.0208        35     1.303     1.159  58.12   0
         2    790.0475     11.8671 300.4126356 +22.6084544     894.8091     72.54748      1.480     3.21     4.763273     20.46785     124.8546        17     1.200     0.920 -12.73   0
         3    344.3680     11.2997 300.2740821 +22.4748515     1337.052       72.529      1.510     3.73     5.357582     20.46785     140.4902        18     1.263     0.920  63.16   0
         4    755.5895     11.0256 300.4021721 +22.5978997     388.7642     72.54748      1.437     2.86     4.934989     20.46785      44.7635         6     0.784     0.491  86.70   0
         5    827.7393      7.1116 300.4259221 +22.6183663     525.6817     72.62136      1.389     3.22      4.88635     20.46785     68.45108        12     1.059     0.743  86.83  16
         6    751.3018      6.8300 300.4021959 +22.5954098      440.422     72.49203      1.293     2.90     4.982361     20.46785     67.60762        10     1.021     0.647 -15.71  16
         7    847.6974      3.2146 300.4334049 +22.6232176     2045.741     65.92554      1.341     2.60     5.027578     20.46785     261.9563        21     1.089     0.986  61.78  24
         8    553.4485      1.5813 300.3422832 +22.5346729     336.3542     57.89182      0.953     2.52     5.409023     20.46785     75.55025         6     0.829     0.449 -17.07  24
         9    690.7098   1002.5185 300.0600124 +22.8632647     8356.724     72.65827      1.882     4.36     2.895577     20.46785     512.4847        44     1.492     1.420  52.76   3
        10    303.1622   1012.5140 299.9361781 +22.7498381     1576.949       72.529      3.456    16.26     54.43602     20.46785     50.02633        57     3.696     1.988 -42.99  19
        11    259.1510   1018.6649 299.9204961 +22.7383886     2282.645     72.56596      6.540    25.23     73.61018     20.46785     61.50938       155     5.158     3.427   0.38  27
        12    295.3180    989.5142 299.9412228 +22.7408903     7361.558     72.69516      7.608    26.38       47.266     20.46785     162.6214       574     8.614     4.542  61.06  19
        13    275.9267   1001.2488 299.9313771 +22.7384329     4799.473     72.54748      8.757    27.08     60.29224     20.46785     99.88983       400     6.711     4.770 -40.54  19
        14    206.9956   1022.3013 299.9031042 +22.7237716     1068.606      63.5862      3.560     9.73     75.13405     20.46785     35.42847        16     1.785     1.478 -41.64  26
        15    189.2179   1021.5069 299.8978386 +22.7182060     1832.801     67.11457      3.407    16.20     73.62716     20.46785     70.12323        49     4.075     1.791   1.07  26
        16    134.5862    932.3983 299.9098537 +22.6762652     3609.579     72.38098     17.240    49.69     12.66795     20.46785     77.40883       839    10.338     6.626 -38.44   3
        17    137.4730   1013.1009 299.8844974 +22.7002592     5959.875     72.69516     14.720    56.30     48.06697     20.46785     133.7842      1456    13.924     8.735  13.33  27
        18    132.7930    971.2806 299.8966491 +22.6868699     5118.099     72.47353     25.387    83.70     28.10395     20.46785     107.9944      3707    20.576    15.371 -18.21  19
        19    588.6019    963.7532 300.0408349 +22.8215141     565.5648     72.54748      2.082     6.49     2.900065     20.46785     48.65425        12     1.293     0.915  19.11   0
        20    257.0110   1002.3203 299.9251490 +22.7330613     4170.995       72.529      7.791    21.01      61.9392     20.46785     86.30132       218     4.618     4.008 -59.59  19
        21    617.7607    960.3128 300.0510310 +22.8292742     1435.718       72.529      1.753     3.86     2.910132     20.46785     127.3858        25     1.312     1.173 -21.31   0
        22    511.4872    956.4833 300.0192005 +22.7962934     1068.879     72.65827      1.796     4.12     2.977257     20.46785     87.89156        19     1.202     1.107 -65.91   0
        23    442.0787    954.7273 299.9981776 +22.7749634     6645.682     72.65827      1.774     3.75     3.297431     20.46785     573.6542        42     1.409     1.364  26.85   0
        24    229.4539   1013.4924 299.9129494 +22.7279901      3706.79      72.6029      7.939    27.29     70.58453     20.46785     74.38193       314     5.487     5.232 -12.79  27
        25    179.8224    942.8721 299.9205010 +22.6928485     1207.211     72.58443      7.440     8.45     24.08054     20.46785     44.20637        14     2.279     0.874 -50.29   1
        26    555.0552    991.0549 300.0215112 +22.8192810     329.5717     72.58443      1.470     3.72     2.860465     20.46785      30.7678         5     1.024     0.389  32.06   0
        27    696.2988   1000.1807 300.0625136 +22.8642704      9438.79     72.47353      1.918     4.34     2.903687     20.46785     571.1628        51     1.518     1.457 -37.63   3
        28    475.1065    941.2354 300.0128412 +22.7810044     516.6575     72.51051      1.657     5.39     3.196833     20.46785     45.76079        11     1.113     0.887  17.73   0
        29    174.1185    934.0037 299.9216133 +22.6885942     1447.285     72.47353      7.237     9.28     18.47222     20.46785     38.09747        14     3.141     0.764 -23.88   3
        30    983.6648    986.7431 300.1564325 +22.9465823     811.9548      72.6029      2.212     8.08     3.246168     20.46785      37.7224        18     1.563     1.167   9.09   0
        31    638.3333    930.2365 300.0672197 +22.8268162     373.9283     72.54748      1.696     5.09     2.953095     20.46785     39.28385         7     1.056     0.693  61.06   0
        32    988.2988    933.6073 300.1751651 +22.9327154     2030.671     72.43652      1.949     4.77     3.507213     20.46785     143.2853        31     1.422     1.358  24.44   0
        33    486.8863    929.1170 300.0204480 +22.7810631     361.4136     72.65827      2.022     4.88     3.231557     20.46785     34.58014         6     1.147     0.589  32.78   0
        34    777.6294    922.7561 300.1130347 +22.8664440     845.6797     72.58443      2.248     8.41     3.219204     20.46785     42.44981        20     1.565     1.262  60.73   0
        35    811.9643    916.5386 300.1257543 +22.8749544     1038.746     72.56596      1.853     5.51     3.269228     20.46785     61.29312        20     1.261     1.206  -5.66   0
        36    589.8961    917.5706 300.0562608 +22.8086535     439.8262     72.49203      1.801     5.89     3.043463     20.46785     37.59521         8     1.381     0.707  28.03   0
        37     21.4194    913.4987 299.8808541 +22.6368685     620.9585     72.47353      1.973     6.97     3.121376     20.46785     46.23644        14     1.490     1.185 -69.44   0
        38    220.1198    982.1567 299.9202437 +22.7162065     1076.909       72.529      6.145    10.27     50.14514     20.46785     42.77563        18     2.088     1.408  25.55   3
        39    834.2258    910.2676 300.1347306 +22.8798287     11427.16       72.529      1.758     3.73     3.337459     20.46785     768.2406        49     1.421     1.354  -5.17   0
        40    205.2572    972.1522 299.9188797 +22.7088769     1431.317      72.6029      7.079    12.22     43.01313     20.46785     55.30766        28     2.172     1.912 -66.75   3
        41    880.1417    910.6400 300.1489188 +22.8937009     345.8669     72.54748      1.542     4.30     3.385587     20.46785     49.29803         9     1.138     0.849  -5.52   0
        42    201.0103    971.5400 299.9177592 +22.7074264      1559.82     72.51051      8.291    12.17     42.84974     20.46785     46.61674        32     2.456     1.678  42.42   3
        43    145.6792    901.6246 299.9233085 +22.6707755     782.6253       72.529      2.510     6.52     9.772659     20.46785     54.82517        14     1.445     0.933 -62.34   0
        44    539.7953    898.2791 300.0469419 +22.7880903     487.8496     72.45503      1.973     3.84     3.180037     20.46785     46.10991         8     0.901     0.668  79.51   0
        45    885.2341    897.1167 300.1549046 +22.8913452     265.9812     72.51051      1.407     3.21     3.431369     20.46785     40.03133         5     1.008     0.509 -50.76   0
        46     11.8399    976.4650 299.8573993 +22.6520325     329.2802     72.51051      1.824     4.81      2.04472     20.46785     43.02626         6     1.206     0.543 -69.73   0
        47    709.1115    969.5593 300.0764668 +22.8593275      6822.98     72.54748      1.833     3.97     2.984746     20.46785      428.551        43     1.466     1.352   8.86   0
        48    842.8459    892.4354 300.1432169 +22.8772941     1345.424     72.58443      1.614     3.87     3.420412     20.46785      110.601        19     1.234     0.964  -9.27   0
        49    694.5711    889.4766 300.0979885 +22.8319867     570.0703       72.529      2.118     4.19      3.33279     20.46785     46.14398        11     1.246     0.963  -7.25   0
        50    880.9749    885.8230 300.1572503 +22.8868260     855.6225     72.51051      2.016     4.33     3.466833     20.46785     61.94727        17     1.239     1.010  -9.39   0
        51    281.1642    971.3980 299.9427167 +22.7314483     911.0382       72.529      3.183     8.31     38.56968     20.46785     38.68274        13     1.951     0.988  10.29   1
        52    928.9600    877.6422 300.1748683 +22.8988606     526.9117     72.63982      1.990     4.79     3.497936     20.46785     45.43199         8     1.248     0.520 -20.25   0
        53    780.8214    876.0685 300.1292144 +22.8540006     638.7402     72.54748      1.484     4.40     3.455932     20.46785     59.29818        11     0.974     0.871 -18.84   0
        54     40.3528    875.0193 299.8992463 +22.6315272      484.778     72.58443      1.637     3.49     3.299248     20.46785     53.83052         7     0.871     0.584 -57.85   0
        55    493.2682    872.4252 300.0408719 +22.7667161     4178.447       72.529      1.667     3.25     3.515892     20.46785     371.4382        32     1.302     1.167  35.62   0
        56    792.2353    872.9930 300.1337705 +22.8565399     572.7821     72.54748      1.628     4.96     3.467279     20.46785     59.69978        10     1.048     0.797  51.26   0
        57    537.1241    860.4339 300.0584182 +22.7764317     297.4092     72.54748      1.579     4.14     3.414315     20.46785      30.4719         7     1.277     0.384  14.91   0
        58    135.9920    859.9073 299.9338648 +22.6559096      279.933     72.45502      1.263     3.63     4.867991     20.46785      33.3688         5     0.979     0.387  60.20   0
        59    218.6249    858.0291 299.9601507 +22.6801753     859.0831     72.54748      1.764     4.22     5.969824     20.46785     73.06101        13     1.092     0.927 -44.75   0
        60    195.6783    855.1385 299.9539598 +22.6724591      1607.43     72.62136      1.654     3.67     5.652325     20.46785     156.3455        22     1.243     1.108 -11.16   0
        61     71.1264    844.2206 299.9188171 +22.6319399     452.5335     72.56596      1.485     3.75       3.5894     20.46785      39.5271         6     1.252     0.322  86.13   0
        62   1021.7790    842.6980 300.2151739 +22.9166424     2054.869     65.96619      1.855     4.55     3.551309     20.46785     124.5274        29     1.400     1.312 -52.66  24
        63    727.1724    842.9214 300.1232819 +22.8284009     586.9927     72.56596      2.205     5.54      3.51645     20.46785      41.2374         9     1.301     0.802 -72.05   0
        64    805.2587    836.6432 300.1496488 +22.8500094     563.1773       72.529      1.552     3.69     3.505518     20.46785     58.16994        13     1.004     0.930  59.99   0
        65    673.2272    830.5475 300.1105052 +22.8086742     4807.963     72.56596      1.551     3.12     3.492845     20.46785     493.1165        34     1.240     1.180  -6.47   0
        66    163.2580    831.0385 299.9517221 +22.6558186      405.606     72.54748      1.437     5.28     4.644601     20.46785      50.3325         9     1.222     0.644 -26.39   0
        67    475.7766    827.8444 300.0499258 +22.7486799      513.054     72.58443      1.464     3.82     3.597289     20.46785     65.07932        11     1.006     0.792 -51.77   0
        68    223.4075    824.2576 299.9726173 +22.6719279     1256.876       72.529      1.627     4.02      4.65716     20.46785     125.2389        22     1.220     1.146 -25.95   0
        69    693.8305    823.0193 300.1193690 +22.8126914     684.6099     72.54748      1.543     3.26     3.497517     20.46785      70.7639        12     1.014     0.801  63.50   0
        70    224.9482    993.4558 299.9180682 +22.7208946     2330.026     72.58443      5.590    16.28     57.61063     20.46785     54.13017        80     3.318     2.263  86.02   3
        71    610.5812    814.4644 300.0962295 +22.7852727        364.4     72.51051      1.529     4.16      3.49267     20.46785     44.49561         6     0.992     0.618 -65.97   0
        72    849.3193    810.2615 300.1719564 +22.8556427       4066.6     72.63982      1.644     3.43     3.534273     20.46785     359.1091        33     1.261     1.209  32.36   0
        73    257.9284    804.1143 299.9898952 +22.6765119     330.8819     72.65827      1.168     3.59     3.815871     20.46785      57.2032         8     0.933     0.649  30.08   0
        74    566.1405    802.8034 300.0861873 +22.7685989     517.5604     72.51051      1.447     3.53     3.420341     20.46785     69.48588        12     1.043     0.811 -35.94   0
        75    212.8000    801.0170 299.9768763 +22.6620806     922.1522     72.43652      1.459     3.33     3.744299     20.46785     95.97499        15     1.038     0.959 -60.07   0
        76    362.3043    792.7402 300.0260431 +22.7045684     53322.81     72.62136      1.597     2.95     3.581928     20.46785     6246.256        96     1.428     1.392  38.77   0
        77    627.9909    796.1363 300.1076083 +22.7852335     468.6787       72.529      1.501     3.72     3.483624     20.46785     58.70958        11     0.998     0.894 -17.77   0
        78    620.1143    791.7707 300.1065753 +22.7816187     1638.665     72.54748      1.544     3.27     3.483624     20.46785     171.7938        21     1.125     1.061  49.60   0
        79    290.4277    790.6833 300.0043637 +22.6824125     579.2766     72.54748      1.820     3.44     3.706521     20.46785     62.09345         9     0.966     0.779 -39.53   0
        80    649.1573    788.1302 300.1168012 +22.7892826     906.0252     72.51051      1.446     3.39     3.483624     20.46785     92.49454        17     1.113     0.982 -60.89   0
        81     15.4714    787.7798 299.9198827 +22.5990539     760.0181     72.58443      1.901     4.40     3.438438     20.46785     75.92755        15     1.339     1.063 -84.17   0
        82     48.6847    787.4269 299.9303108 +22.6089238     769.2869     72.54748      1.673     4.15     3.496439     20.46785     71.72282        13     1.195     0.900 -29.14   0
        83    660.1219    786.0244 300.1208999 +22.7919658     619.0132       72.529      1.439     4.50     3.483624     20.46785     56.60779        13     1.150     0.809  31.09   0
        84    980.2147    783.6049 300.2214264 +22.8872152     401.9084     72.41801      1.567     5.44     3.549721     20.46785     39.27163        10     1.105     1.043 -89.14   0
        85    765.2244    782.4895 300.1547832 +22.8224612     415.0466     72.49203      1.280     3.76     3.503857     20.46785     58.67662         6     0.819     0.497   5.06   0
        86    559.9669    780.0261 300.0916705 +22.7602112     249.8101     72.56596      1.462     4.59     3.405165     20.46785     33.30082         6     1.070     0.558  13.88   0
        87    803.1768    772.8587 300.1697381 +22.8310726     895.8672     72.54748      1.727     4.07     3.517808     20.46785     77.86964        15     1.217     0.847 -24.90   0
        88    412.0229    769.9954 300.0488995 +22.7129594     31857.57     72.51051      1.513     2.95     3.518213     20.46785     3300.347        79     1.386     1.349 -18.54   0
        89    426.2866    770.5742 300.0531481 +22.7174042     1974.837     72.49203      1.505     2.75     3.518014     20.46785     251.8075        20     1.135     1.032  16.38   0
        90    301.4730    769.1806 300.0147872 +22.6795596     348.6431     72.54748      1.682     4.04     3.615203     20.46785     35.80997         6     1.052     0.443 -30.64   0
        91    935.2093    766.0335 300.2131067 +22.8686826     2863.596     72.54748      1.639     3.30     3.569538     20.46785     210.9077        28     1.239     1.185 -33.08   0
        92    422.9918    764.5176 300.0540919 +22.7146783     603.2979     72.49203      1.902     4.82      3.50149     20.46785     52.15158        11     1.092     0.902  79.69   0
        93    692.9730    762.1291 300.1388975 +22.7949562     847.9174       72.529      1.361     3.04     3.486026     20.46785     108.6909        14     1.014     0.852  -1.67   0
        94    528.9557    762.4272 300.0877398 +22.7458607       482.08     72.56596      1.635     4.79     3.404284     20.46785     48.80073         8     0.940     0.691 -47.85   0
        95    294.5369    761.8411 300.0150165 +22.6753734     807.9989       72.529      1.571     3.15     3.598991     20.46785     89.06523        14     1.057     0.870  33.11   0
        96     99.7848    757.3249 299.9559655 +22.6156336     415.6386     72.54748      1.509     5.33     3.569641     20.46785     44.96883         9     1.063     0.754 -89.55   0
        97    539.9940    756.6527 300.0930521 +22.7475140     791.7941     72.51051      1.459     3.42     3.381159     20.46785     90.44001        14     1.044     0.911  26.33   0
        98    941.6369    753.3976 300.2192182 +22.8669794     500.9336     72.56596      1.572     4.46     3.573069     20.46785     51.48498        11     1.113     0.763  29.49   0
        99    486.4230    751.8419 300.0779455 +22.7300672     504.1133     72.58443      1.474     5.18     3.458292     20.46785     52.71741        10     1.051     0.965  79.58   0
       100    442.6068    752.6269 300.0640585 +22.7171505     420.4137     72.54748      1.698     3.38     3.468442     20.46785     45.26501         7     0.925     0.763 -43.96   0
       101    398.2629    752.6506 300.0502575 +22.7038558     446.3237      72.6029      1.547     3.51     3.487109     20.46785     46.24179         5     0.796     0.448 -14.43   0
       102    127.6695    751.3767 299.9665607 +22.6222977      485.779     72.56596      1.592     5.26     3.578139     20.46785     48.47621        11     1.031     0.795  13.14   0
       103    694.6827    750.9973 300.1430484 +22.7922732     283.6584     72.45502      1.421     3.81     3.485103     20.46785     37.59492         7     0.765     0.641 -75.97   0
       104    919.2385    749.0181 300.2136591 +22.8590099     395.3449     72.56596      1.468     4.52     3.583198     20.46785     41.55721         8     0.884     0.656 -50.17   0
       105    292.0851    745.9337 300.0194245 +22.6700753     580.1473     72.63982      1.542     5.92     3.546389     20.46785     61.66932        12     1.261     0.900  79.34   0
       106    615.3182    736.6914 300.1229862 +22.7643720     353.1395     72.67672      1.179     2.84     3.483624     20.46785     63.25207         8     0.916     0.580 -15.81   0
       107    585.3690    734.8497 300.1142616 +22.7548634     674.7011     72.58443      1.545     4.57     3.453218     20.46785     74.92827        12     1.215     0.785 -14.15   0
       108    606.9694    732.3638 300.1217936 +22.7606266     1410.437     72.56596      1.421     3.39     3.523523     20.46785     141.4629        19     1.070     0.996 -49.38   0
       109    494.6593    734.1770 300.0862497 +22.7274685     494.6656     72.54748      1.682     3.53     3.413929     20.46785     43.93375         6     0.905     0.569 -23.60   0
       110   1001.5415    731.3685 300.2450573 +22.8786001     4526.893     72.56596      1.723     3.56     3.583011     20.46785     351.0484        37     1.370     1.267 -32.12   0
       111    526.9130    732.0796 300.0969680 +22.7365393     288.8152      72.7136      1.300     3.30     3.395325     20.46785     49.30982         6     0.758     0.563 -36.95   0
       112    688.8217    727.4453 300.1488782 +22.7837549     294.4232      72.6029      1.154     3.40     3.550225     20.46785      48.9003         5     0.843     0.397 -23.70   0
       113    990.0546    722.8010 300.2442599 +22.8726975     1700.638     72.47353      1.613     3.41       3.6484     20.46785     130.8485        20     1.134     1.035  16.19   0
       114    353.1981    716.5596 300.0479723 +22.6799836       929.39     72.54748      1.431     2.75     3.483833     20.46785     91.88651        13     0.937     0.833  60.36   0
       115    816.4759    713.9779 300.1930206 +22.8181511     2575.501       72.529      1.565     3.11     3.544889     20.46785     231.0971        32     1.499     1.114  11.98   0
       116   1021.2402    712.9441 300.2571889 +22.8792083     1573.409     68.18467      1.633     3.65       3.7373     20.46785     123.1671        23     1.189     1.149 -39.97  16
       117     38.9686    704.2020 299.9543412 +22.5821494     866.2091     72.51051      2.020     4.20     3.308899     20.46785     75.32188        17     1.225     1.112  30.91   0
       118    201.5910    700.6064 300.0060277 +22.6299226     608.9897      72.3995      1.695     3.09     3.556326     20.46785     70.17619         9     0.951     0.721   4.66   0
       119    898.6940    700.0062 300.2231848 +22.8387765     565.1697     72.43652      1.652     3.39     3.717817     20.46785     59.55127        11     1.039     0.699 -16.06   0
       120    934.8403    690.9326 300.2374016 +22.8470004     148189.5     72.51051      1.558     3.08     3.800104     20.46785     13061.26       153     1.478     1.463  62.79   0
       121    697.3350    694.8310 300.1621288 +22.7769435     376.1597     72.54748      1.318     2.55     3.716727     20.46785     55.05104         7     0.799     0.589  57.72   0
       122    786.9970    691.4465 300.1911580 +22.8028460     810.9066       72.529      1.597     3.45     3.492423     20.46785     81.51088        13     1.065     0.816 -36.82   0
       123    967.4969    684.0159 300.2498311 +22.8547972     440.6908     72.45503      1.430     3.58     3.894969     20.46785     62.70382        11     0.962     0.870 -32.05   0
       124    621.0937    679.8623 300.1432527 +22.7497908     1633.446     72.63982      1.337     2.61     3.989791     20.46785     201.6883        18     1.013     0.935  20.18   0
       125    802.3110    677.0040 300.2006226 +22.8032879     9523.938     72.45502      1.452     2.82      3.48724     20.46785     922.9638        40     1.227     1.175 -28.36   0
       126    303.7219    672.0627 300.0470476 +22.6523765     4857.066     72.62136      1.501     2.93      3.48469     20.46785     521.7615        33     1.243     1.138  18.31   0
       127    385.7769    670.2332 300.0731575 +22.6764644      1308.64     72.54748      1.606     3.46     3.424377     20.46785     135.4805        20     1.187     1.068  35.99   0
       128     17.5643    670.5043 299.9586436 +22.5660639     1641.982     72.54749      1.719     3.27     3.389664     20.46785     167.5158        24     1.366     1.071  60.00   0
       129    261.5432    667.9042 300.0352866 +22.6385303     455.7583     72.62136      1.514     3.59     3.527164     20.46785     68.35797         9     1.119     0.625 -38.87   0
       130    594.1552    665.9106 300.1393997 +22.7377095     651.8798     72.56596      1.301     2.66      3.99526     20.46785     95.63397        12     0.931     0.798  40.95   0
       131    585.7256    657.8585 300.1393920 +22.7328709      3306.26      72.6029      1.353     2.55     4.008705     20.46785     437.5616        23     1.056     1.006 -89.16   0
       132    800.3788    654.1837 300.2074357 +22.7961550     207.1898       72.529      1.261     3.45     3.504604     20.46785     25.15748         5     0.790     0.436  71.19   0
       133    575.9904    651.5726 300.1384040 +22.7281478     1385.315     72.54748      1.373     2.59     4.009847     20.46785     182.4558        17     1.006     0.879  29.23   0
       134    969.6886    649.8759 300.2616081 +22.8456455     401.5849     72.67672      1.319     3.51     3.951111     20.46785     54.96965         8     0.940     0.671  16.89   0
       135    771.3972    650.1620 300.1997130 +22.7863149     152.3913     72.58443      1.150     3.49     3.600843     20.46785      32.2877         5     0.798     0.440  71.18   0
       136    239.5754    647.8480 300.0349745 +22.6261867     579.2733     72.54748      1.374     2.57     3.589117     20.46785     68.93587         8     0.788     0.681  39.12   0
       137    253.7177    646.1617 300.0399181 +22.6299456     615.5023     72.51051      1.282     2.85     3.567584     20.46785     87.67484        10     0.903     0.770  63.32   0
       138    279.1802    643.1006 300.0488276 +22.6367059     611.4924     72.47353      1.519     3.62     3.522859     20.46785     71.23911        14     1.155     0.857  53.86   0
       139   1023.0165    643.0465 300.2804571 +22.8596572     388.5869     60.09606      1.261     2.68     4.015646     20.46785     55.37906         9     0.766     0.762  37.39  24
       140    599.7861    641.8347 300.1489751 +22.7324861     354.0584     72.54748      1.245     3.04     4.184534     20.46785     59.65372         8     0.866     0.651  88.42   0
       141    500.7715    641.2682 300.1183421 +22.7026375     1733.169     72.54748      1.341     2.66     3.741646     20.46785     207.0296        19     1.016     0.963  75.12   0
       142    534.6059    640.2521 300.1292012 +22.7124906     221.7391       72.529      1.003     3.45     3.956649     20.46785     30.89328         5     0.743     0.462 -74.21   0
       143    154.7092    636.1460 300.0124034 +22.5973682     19971.48      72.6029      1.610     3.13     3.639027     20.46785     1927.144        69     1.435     1.358  43.70   0
       144     75.5379    637.7418 299.9872908 +22.5740690     814.2125      72.6029      1.728     3.97     3.590071     20.46785     79.28867        16     1.330     0.923  15.30   0
       145    585.7147    636.5715 300.1463047 +22.7267567     1002.558     72.54748      1.382     2.88     4.175227     20.46785     127.3672        16     1.034     0.973 -59.84   0
       146    640.6486    629.0725 300.1658432 +22.7410713     88.54984       72.529      1.051     3.40     4.275581     20.46785     35.30208         5     0.806     0.415 -70.00   0
       147   1003.8206    622.9902 300.2809868 +22.8481444     1040.395       72.529      1.462     3.16     3.945655     20.46785     94.68781        17     1.106     0.941  39.52   0
       148    100.7407    620.3193 300.0007786 +22.5766356     1586.749      72.6029      2.104     5.05     3.701454     20.46785     92.29839        32     1.728     1.192 -85.43   0
       149    870.5390    621.0591 300.2400616 +22.8076632     453.1944      72.6029      1.478     3.37     3.850932     20.46785     51.18151         6     0.796     0.495 -84.61   0
       150    166.6907    620.6976 300.0211444 +22.5965323     357.3243     72.73203      1.447     3.97     3.684932     20.46785     48.45736         6     0.996     0.453   4.99   0
       151    549.1140    616.7783 300.1413424 +22.7101019     488.7995     72.49203      1.421     5.65      4.31052     20.46785     47.20611        11     1.242     0.737  88.31   0
       152    944.0159    615.8602 300.2646552 +22.8281818     848.6534     72.51051      1.619     2.92     3.913541     20.46785     80.13768        10     0.879     0.741  65.33   0
       153    341.6357    616.4664 300.0768980 +22.6477978     291.7066     72.54748      1.273     3.81     3.437917     20.46785     45.90426         6     0.955     0.437  16.50   0
       154    505.7464    609.2894 300.1302788 +22.6949501     696.9651     72.58443      1.395     3.34     4.049881     20.46785     85.56635        12     0.965     0.850  17.59   0
       155    653.7487    608.4164 300.1766326 +22.7390670     468.3798     72.54748      1.469     3.55     4.371181     20.46785     74.62867         8     0.966     0.589 -16.37   0
       156    700.8382    606.5037 300.1919182 +22.7526312     540.0632       72.529      1.431     3.40     4.250324     20.46785     66.69602        11     1.080     0.680  51.59   0
       157    671.4861    606.1995 300.1828760 +22.7437467     461.7067     72.41801      1.253     2.91     4.361842     20.46785     78.55547        11     0.935     0.833   8.28   0
       158    550.1435    605.2746 300.1453998 +22.7071082     980.7579     72.58443      1.428     3.09     4.408659     20.46785     108.2202        16     1.087     0.867  66.57   0
       159    736.7117    604.3778 300.2037823 +22.7627716     299.5011     72.47353      1.541     5.02     4.106915     20.46785     31.99993         6     1.106     0.645  45.37   0
       160    983.8810    600.9897 300.2819161 +22.8358502     3335.123     72.51051      1.506     2.94      3.92823     20.46785     312.8908        28     1.177     1.143  51.14   0
       161    515.6440    600.8259 300.1361081 +22.6954881      1799.22     72.56596      1.393     2.45     4.176493     20.46785     255.5297        21     1.075     0.993 -16.20   0
       162     77.4659    594.4401 300.0019551 +22.5622298     5060.459     72.51051      1.676     2.95     3.631875     20.46785     518.3702        45     1.565     1.258 -71.98   0
       163    880.6157    598.2611 300.2506086 +22.8041327      261.819     72.51051      1.352     4.30      3.89465     20.46785     36.74848         7     0.931     0.565 -35.42   0
       164   1023.5199    590.8524 300.2975709 +22.8448093     308.3169     57.33336      1.414     3.49     3.945483     20.46785     44.26641         6     0.958     0.498 -87.44  24
       165    378.9683    587.5348 300.0979054 +22.6506917     8954.839     72.54748      1.392     2.63     3.551731     20.46785     1076.884        40     1.191     1.142  69.78   0
       166    501.4221    584.5643 300.1369645 +22.6865563     8784.593     72.56596      1.324     2.35     4.157732     20.46785      1255.03        36     1.162     1.059  47.21   0
       167    913.1230    578.7664 300.2670741 +22.8082700     1904.849     72.54748      1.507     2.86     3.950744     20.46785     215.5403        23     1.176     1.079 -85.12   0
       168    747.8398    580.7661 300.2149185 +22.7593249     226.7718     72.58443      1.142     2.90     4.041293     20.46785     39.28468         6     0.868     0.597 -69.34   0
       169    997.8015    576.0195 300.2943684 +22.8328440     12479.83     72.47353      1.507     3.01     3.971362     20.46785      1174.94        46     1.280     1.241 -64.69   0
       170    562.0647    574.2271 300.1591950 +22.7017684     11448.74       72.529      1.321     2.39     4.413488     20.46785     1441.115        44     1.154     1.114  45.94   0
       171    289.4558    569.4824 300.0759349 +22.6186663     1457.626      72.6029      1.543     2.85      3.37529     20.46785     171.4383        21     1.181     1.047  83.41   0
       172    731.8268    570.1115 300.2133912 +22.7514663     447.7209       72.529      1.267     2.40     4.124003     20.46785     71.05775         7     0.809     0.594 -28.39   0
       173    447.2512    568.7922 300.1252326 +22.6657875     369.5328     72.54748      1.356     3.41     3.913577     20.46785     43.24152         5     0.854     0.453 -43.71   0
       174    536.5584    567.2431 300.1535248 +22.6921173     443.1227     72.65827      1.257     3.11     4.393237     20.46785     59.97289         8     0.912     0.593 -74.87   0
       175    493.6991    562.3965 300.1417613 +22.6778773     4391.203     72.43652      1.320     2.38     4.286763     20.46785     561.4852        25     1.067     0.974  48.78   0
       176    836.4558    562.3802 300.2485005 +22.7805949     802.6381       72.529      1.328     3.11     3.886859     20.46785     94.95914        14     1.049     0.822  51.02   0
       177    472.0279    560.7733 300.1355455 +22.6709142     1126.953     72.51051      1.300     2.63      4.18564     20.46785       154.07        15     1.016     0.855   0.34   0
       178    226.3402    560.1264 300.0593543 +22.5970509     882.8578     72.58443      1.636     3.64     3.424548     20.46785     91.54864        13     1.017     0.877 -43.36   0
       179    913.6630    557.9173 300.2740143 +22.8024412     1576.074     72.63982      1.511     3.09     3.985325     20.46785     146.5965        22     1.187     1.053 -26.71   0
       180    610.3320    549.9360 300.1821095 +22.7092615     200363.8      72.6029      1.348     2.40     4.406028     20.46785     26014.05       196     1.448     1.368  -8.89   0
       181    433.8848    556.1971 300.1251649 +22.6581645     437.8652     72.47353      1.467     4.47     3.899405     20.46785     45.96619         8     0.854     0.664  29.72   0
       182    793.9567    554.9382 300.2376748 +22.7657242     856.8491     72.54748      1.320     2.37     3.908319     20.46785     140.7046        12     1.007     0.724  33.43   0
       183    296.3756    549.8369 300.0844664 +22.6151044     3516.375     72.56596      1.419     2.58     3.365209     20.46785      486.321        28     1.139     1.077  38.31   0
       184    475.0382    547.5330 300.1407821 +22.6680159     270.6317       72.529      1.666     4.64     4.327021     20.46785     45.19038         6     1.597     0.383 -57.02   0
       185    862.4941    546.1957 300.2618719 +22.7837456     561.1835     72.45502      1.546     3.01     3.943588     20.46785     56.18203         9     0.974     0.624  22.06   0
       186    641.7308    536.4017 300.1962808 +22.7147854     300.9526     72.49203      1.288     3.45     4.329397     20.46785     37.09542         5     0.723     0.475 -12.72   0
       187    500.8948    530.5355 300.1543474 +22.6708877     2841.381     72.63982      1.443     2.78     4.312669     20.46785     351.4292        35     1.601     1.014  88.91   0
       188    344.9215    532.5096 300.1051876 +22.6246903     433.0378     72.69516      1.397     4.76     3.750087     20.46785      58.2095         8     0.979     0.657  44.45   0
       189    950.2527    530.1912 300.2944264 +22.8054333       220.47     72.54748      1.105     3.98     4.003783     20.46785     35.99141         6     0.803     0.566  54.59   0
       190    605.9645    525.8312 300.1885778 +22.7010307     225.2222     72.56596      1.380     3.68     4.366267     20.46785     34.77208         5     0.800     0.506 -54.09   0
       191    818.1897    519.0948 300.2568661 +22.7626871     446.8081     72.49203      1.330     3.50     3.959763     20.46785     63.41183         8     0.913     0.729 -79.89   0
       192    897.8530    516.4125 300.2825652 +22.7857794     1764.242     72.56596      1.522     2.58     3.975493     20.46785     211.7807        23     1.112     1.058  16.59   0
       193     28.0122    515.3323 300.0122858 +22.5247031     755.5081     72.54748      1.548     3.38     3.376911     20.46785      78.0336        14     1.059     0.879 -20.58   0
       194    769.1332    514.1397 300.2431903 +22.7465668     2602.292     72.58443      1.312     2.38      4.01893     20.46785     332.4897        24     1.072     0.980  55.12   0
       195    128.4144    514.2158 300.0438335 +22.5545049     295.7706     72.49203      1.423     3.48     3.536954     20.46785     31.45949         5     0.780     0.449  71.38   0
       196    978.3707    510.7651 300.3095023 +22.8082713     188.3607     72.56596      1.294     3.81     3.969995     20.46785     32.67672         5     0.999     0.416 -74.36   0
       197    674.0840    510.8779 300.2146438 +22.7171504     476.5831     72.65827      1.304     2.24     4.196005     20.46785     72.32426         8     0.776     0.629  42.04   0
       198    556.3735    510.0004 300.1782814 +22.6816215     788.2593     72.51051      1.289     2.30     4.335446     20.46785      113.314        11     0.883     0.721  -7.30   0
       199   1012.1296    507.2382 300.3211753 +22.8173670     906.4787     72.51051      2.033     3.07     3.953894     20.46785     70.13144        12     1.033     0.730  79.64   0
       200    898.2985    506.4795 300.2859297 +22.7830586      2201.34     72.67672      1.638     3.58      3.97181     20.46785     231.7542        26     1.537     0.974  79.72   0
       201    651.7095    504.7526 300.2096653 +22.7086864     808.0645       72.529      1.716     2.42     4.225063     20.46785     92.80345        10     0.867     0.701  89.03   2
       202    437.9384    504.5429 300.1431996 +22.6445523     282.0695      72.6029      1.408     2.97     3.884653     20.46785     37.79571         6     0.779     0.498  -1.73   0
       203    936.3961    501.6399 300.2993779 +22.7930782     4117.985     72.56596      1.397     2.51      3.96896     20.46785     517.8189        32     1.136     1.105  70.85   0
       204    490.4469    503.5621 300.1598550 +22.6600117     397.0804     72.58443      1.289     2.67     4.065629     20.46785     65.83212         6     0.820     0.494   4.29   0
       205    577.7790    500.5645 300.1880082 +22.6853276     293.6476     72.56596      1.339     3.43     4.311213     20.46785     42.00196         5     1.031     0.585  66.39   0
       206    596.7562    497.6363 300.1948665 +22.6901742     378.9159      72.6029      1.229     3.11     4.302689     20.46785     63.21606         7     1.024     0.544 -55.55   0
       207    168.3936    491.9306 300.0634904 +22.5601039       1111.4     72.51051      1.526     2.63     3.394185     20.46785     147.4301        14     1.028     0.888  28.48   0
       208    434.8680    484.8575 300.1486359 +22.6379806     307.2854     72.56596      1.375     3.89     3.818731     20.46785     30.43523         6     0.766     0.566  47.25   0
       209    216.0614    484.2826 300.0807866 +22.5722065     254.2899     72.63982      1.110     3.95     3.337245     20.46785     46.94255         6     1.049     0.427  -8.65   0
       210    161.1254    482.0824 300.0644293 +22.5550983      383.498     72.65827      1.187     2.48     3.340756     20.46785     56.08165         8     0.801     0.652 -45.39   0
       211    768.6818    476.2747 300.2553445 +22.7355536     421.5458     72.65827      1.280     2.99     4.009089     20.46785     49.71805         7     0.800     0.616  58.83   0
       212    657.7104    473.7100 300.2216130 +22.7015686     262.4121      72.7136      1.142     2.37     4.124896     20.46785     58.04067         6     0.809     0.497 -46.02   0
       213    709.8504    471.9794 300.2384128 +22.7166940     802.2587     72.54748      1.328     2.79     4.051041     20.46785     109.6781        10     0.863     0.762  17.55   0
       214   1023.7218    464.3531 300.3387155 +22.8085108     166.6497      56.1282      0.941     3.91     3.943107     20.46785     62.79968         7     1.108     0.443 -86.36  24
       215    770.5386    464.2209 300.2598364 +22.7326467     848.6786     72.51051      1.414     2.91     4.002059     20.46785     97.54294        13     0.950     0.870 -69.12   0
       216    927.7229    460.5487 300.3100157 +22.7786712     935.1714     72.54748      1.283     2.70     3.945682     20.46785     146.5749        16     0.998     0.934  79.14   0
       217    912.0530    456.8555 300.3063297 +22.7729170     610.6619     72.58443      1.394     2.95     3.954749     20.46785     92.96956        11     0.903     0.856 -27.12   0
       218    892.5106    457.5000 300.3000286 +22.7672497     376.1392      72.7136      1.518     3.89     3.965489     20.46785     42.28175         6     1.045     0.469 -10.74   0
       219    656.3812    454.8137 300.2273339 +22.6957426     3334.832     72.51051      1.346     2.32     4.082049     20.46785     449.7335        27     1.114     1.035 -78.40   0
       220   1016.7346    454.0063 300.3398955 +22.8034443     487.2254     72.54748      1.410     2.53     3.966957     20.46785     70.73011         7     0.898     0.580  -1.37   0
       221    132.2599    445.9271 300.0671976 +22.5360667     471.8516     72.58443      1.823     4.64     3.627831     20.46785     45.65284         8     0.986     0.619  27.91   0
       222    496.0787    441.9928 300.1815962 +22.6440215     386.1685     72.47353      1.218     2.35     3.914371     20.46785      63.9263         9     0.764     0.718 -53.85   0
       223    939.9536    433.9550 300.3224624 +22.7746902     420.2405     72.58443      1.355     2.55     3.953895     20.46785     88.20717         9     0.905     0.674  10.00   0
       224    767.0946    428.7422 300.2702811 +22.7214214     1019.417     72.62136      1.286     2.14     3.987323     20.46785     174.5396        16     1.039     0.809  86.06   0
       225    562.7161    429.4411 300.2064096 +22.6603880     376.4359     72.51051      1.287     2.84     4.263093     20.46785     52.54797         6     0.861     0.451  89.80   0
       226    270.9194    426.9843 300.1164382 +22.5722137     588.0061       72.529      1.261     2.21     3.623479     20.46785     92.94133         9     0.741     0.738  31.08   0
       227    333.2625    422.5654 300.1372557 +22.5896374     3697.386     72.54748      1.359     2.54     3.764668     20.46785     505.9387        30     1.173     1.057  67.91   0
       228    280.4728    417.4245 300.1225110 +22.5723343      7753.28     72.58443      1.393     2.46     3.664416     20.46785     1010.226        41     1.218     1.157  85.53   0
       229    658.8700    417.1258 300.2403429 +22.6856623     404.0675     72.62136      1.341     2.65     3.967328     20.46785     46.00271         6     0.742     0.547 -31.59   0
       230    421.3159    411.6224 300.1681935 +22.6128921     4758.056     72.51051      1.338     2.41      3.87708     20.46785      645.533        29     1.088     1.040  47.38   0
       231    665.5326    408.4005 300.2452497 +22.6851518     18746.77     72.51051      1.276     2.21     3.914693     20.46785       2596.3        53     1.187     1.127  82.87   0
       232    512.9412    410.3658 300.1971095 +22.6399931     345.8679     72.56596      1.445     3.88     4.078227     20.46785     38.98077         6     1.047     0.412  15.05   0
       233    683.3807    408.1093 300.2509025 +22.6904153     887.8314     72.47353      2.057     5.70     3.891742     20.46785     63.71611        15     1.531     0.790 -40.47   0
       234    908.9560    405.1288 300.3221558 +22.7571225     326.5425     72.51051      1.457     4.28      3.92289     20.46785     45.94794         5     0.777     0.673  15.27   0
       235    862.5505    398.9841 300.3096853 +22.7414598     382.7812     72.58443      1.296     4.27     3.937356     20.46785     51.47544         8     1.092     0.565  53.49   0
       236    285.9352    395.5345 300.1313136 +22.5676888     416.4892      72.6029      1.442     3.68     3.808774     20.46785     39.74127         6     0.785     0.495   5.64   0
       237     80.4584    394.1671 300.0679048 +22.5056786     250.6702     72.56596      1.549     5.51     3.863189     20.46785     30.09051         6     1.411     0.606 -65.97   0
       238    999.2100    391.0706 300.3548599 +22.7801046     826.6146       72.529      1.641     3.56     4.040629     20.46785     82.66389        15     1.180     0.855 -38.99   0
       239    536.2494    390.3431 300.2108619 +22.6412277     292.1634      72.6029      1.220     3.93     4.313805     20.46785     39.42825         6     0.912     0.485 -45.12   0
       240    220.2466    388.3696 300.1132196 +22.5459365     2050.725     72.56596      1.438     2.52     3.715589     20.46785     225.3065        21     1.060     1.014  18.87   0
       241    606.1500    377.8283 300.2366822 +22.6585780     6759.497     72.56596      1.306     2.31     4.039641     20.46785     983.1141        34     1.106     1.038  85.28   0
       242   1019.8381    378.1783 300.3654775 +22.7825734     1204.368     72.17696      1.438     2.93     4.109428     20.46785     146.9401        20     1.096     1.042  26.72  16
       243    321.1529    377.1096 300.1482428 +22.5729579      692.061       72.529      1.254     2.85     3.881969     20.46785     88.13948        12     0.908     0.862  64.85   0
       244    178.8436    370.3083 300.1062137 +22.5283379     496.7864     72.54748      1.331     4.11     3.897079     20.46785     60.98471         8     1.084     0.561 -45.07   0
       245    866.2368    369.9663 300.3202521 +22.7342235     256.2029      72.6029      1.310     3.04      3.86557     20.46785      41.8872         5     0.784     0.494  33.20   0
       246    810.3518    366.9551 300.3038131 +22.7166223      1108.65     72.58443      1.283     2.38     3.859195     20.46785      164.446        17     1.063     0.896 -89.00   0
       247     25.7530    367.8791 300.0594451 +22.4817277     1296.203     72.56596      1.638     3.39     4.244457     20.46785      146.966        23     1.332     1.161  62.58   0
       248    720.0084    368.1757 300.2752710 +22.6899142     446.4644     72.54748      1.300     2.05     3.869752     20.46785     92.38913         8     0.792     0.591  46.70   0
       249    512.7967    364.0162 300.2121068 +22.6266384     6207.404     72.43652      1.315     2.44      4.35995     20.46785     887.1223        30     1.103     1.007  53.82   0
       250   1002.2551    358.6987 300.3663157 +22.7717090     623.0833     72.63982      1.393     3.62     4.062797     20.46785     87.83344        10     0.947     0.785   8.73   0
       251    904.8040    358.4803 300.3360013 +22.7424703     1459.868     72.45502      1.406     2.40     3.795114     20.46785     212.6021        19     1.103     0.909  48.82   0
       252    497.3723    352.7157 300.2109739 +22.6187707     526.6632     72.54748      1.269     3.21     4.396882     20.46785      79.4821        10     0.989     0.714  59.70   0
       253      3.6743    352.9597 300.0574300 +22.4708247      567.172     67.82985      1.734     4.89     4.715367     20.46785      62.8714         7     0.992     0.682   1.01  16
       254    580.1481    350.5516 300.2374392 +22.6429519     626.8007     72.58443      1.625     3.93      4.15623     20.46785     59.79466        11     1.165     0.797 -53.78   0
       255     24.2838    349.2807 300.0650235 +22.4759510     1039.066     72.69516      1.566     3.92     4.558212     20.46785     104.5244        18     1.214     1.038  74.62   0
       256    877.4984    346.3364 300.3314305 +22.7308035     651.5686     72.65827      1.537     3.03      3.82815     20.46785     69.01059        11     0.934     0.812  22.63   0
       257    400.3589    343.2981 300.1838472 +22.5869921     2586.559       72.529      1.307     2.28     4.270728     20.46785      309.628        21     1.061     0.932  33.78   0
       258    118.7078    340.6744 300.0971444 +22.5018003     958.5118      72.7136      1.490     3.15     4.086879     20.46785     135.0518        13     1.047     0.799  52.54   0
       259    748.1264    338.3458 300.2937098 +22.6897643     252.7099     72.54748      0.945     1.92     3.840295     20.46785     59.78213         5     0.694     0.436  20.66   0
       260    348.0208    337.0705 300.1695899 +22.5695166     336.8566     72.54748      1.417     2.22     3.995377     20.46785     40.22513         5     0.604     0.580 -87.11   0
       261    369.6794    332.6762 300.1777514 +22.5747467     29636.35     72.65827      1.349     2.35     4.121113     20.46785     4477.149        64     1.291     1.145  60.26   0
       262    904.4264    330.2674 300.3450387 +22.7342469     1448.672       72.529      1.385     2.72     3.858858     20.46785     172.6537        19     1.112     1.002  62.06   0
       263     66.0118    320.4476 300.0873376 +22.4801928     4862.892     72.56596      1.567     2.84     4.419568     20.46785     540.5629        40     1.343     1.233  44.48   0
       264    862.7669    319.8380 300.3354372 +22.7187754     234.3927     72.58443      1.272     3.86     3.885113     20.46785     31.00844         5     0.971     0.440  43.36   0
       265    819.5885    319.2910 300.3221582 +22.7056890     522.1193     72.49203      1.257     2.93     3.843979     20.46785     67.45042        10     0.864     0.788  17.04   0
       266    243.9461    318.9760 300.1431027 +22.5331234     523.1348     72.56596      1.493     3.42     4.162363     20.46785     59.99707        11     1.058     0.712  62.41   0
       267    468.4062    318.0003 300.2132247 +22.6001200     533.1881     72.36246      1.337     2.45     4.398899     20.46785     70.51146         9     0.810     0.738   8.92   0
       268    646.6465    314.8378 300.2697309 +22.6526132     202.3159     72.58443      1.729     4.24     3.957417     20.46785       33.445         5     1.087     0.471  32.57   0
       269    780.1585    312.4732 300.3120841 +22.6919218     2017.503       72.529      1.335     2.38      3.83106     20.46785     269.3926        23     1.112     1.011  66.01   0
       270    588.1772    306.9556 300.2540840 +22.6328332     339.8394      72.6029      1.360     3.79      4.27623     20.46785     45.32615         8     0.872     0.618  47.26   0
       271    995.0948    305.6076 300.3813101 +22.7543000      506.348     72.43652      1.161     2.34     4.538457     20.46785     91.47573         8     0.825     0.627  53.22   0
       272    441.8173    296.9057 300.2117958 +22.5860937     2222.284     72.47353      1.610     3.38     4.476459     20.46785      227.755        25     1.430     0.932  63.49   0
       273    654.1904    295.6791 300.2782958 +22.6493680     357.4683     72.51051      1.085     2.02      3.97055     20.46785     54.47939         5     0.685     0.450 -13.79   0
       274    881.1976    290.0545 300.3508451 +22.7157317     675.8976     72.49203      1.316     2.80     3.963354     20.46785     102.7193        12     0.982     0.804  74.27   0
       275     11.9586    289.2923 300.0806574 +22.4550420     729.6672     72.54748      2.995     7.72     4.616724     20.46785     57.89682        12     2.432     0.686 -63.05  18
       276    763.3155    287.4816 300.3149447 +22.6796950     407.3619     72.67672      1.288     3.41     3.846013     20.46785     62.09626         8     1.014     0.595 -82.77   0
       277    517.7397    276.4569 300.2420536 +22.6029689     1189.999     72.62136      1.290     2.46     4.440399     20.46785     165.5709        15     1.002     0.866  28.16   0
       278    324.8003    276.9910 300.1818601 +22.5453057     255.9495     72.36246      1.047     3.75      4.47838     20.46785      37.5707         5     0.823     0.490 -42.72   0
       279     90.9039    276.8959 300.1091974 +22.4751590     396.4816      72.7136      1.642     4.39     4.612207     20.46785     45.79803         6     1.116     0.523 -18.01   0
       280    900.7963    269.9772 300.3634677 +22.7158268     263.1619     72.51051      1.244     2.12     4.155427     20.46785     50.64723         5     0.756     0.458  32.02   0
       281    762.6724    268.3525 300.3209498 +22.6740042     2215.154     72.54748      1.274     2.31     3.941453     20.46785     306.3036        20     1.045     0.929 -83.99   0
       282   1023.4067    262.6781 300.4040673 +22.7504285      2115.44     57.93811      1.156     3.10     4.903976     20.46785     396.8791        16     1.209     0.660  80.17  24
       283      1.5135    254.8741 300.0885777 +22.4420331     517.2665     57.61327      2.725     5.83      4.76902     20.46785     45.67592         9     1.291     0.741 -80.22  24
       284    395.8582    253.8470 300.2114664 +22.5599546     254.5706      72.6029      1.354     3.92     4.416268     20.46785        27.51         6     0.770     0.571  39.86   0
       285    470.9206    252.0696 300.2353949 +22.5819358     580.3085     72.65827      1.251     2.49     4.345828     20.46785     83.38011         9     0.778     0.710  56.68   0
       286    145.8741    246.1693 300.1362412 +22.4828213     1298.378     72.56596      1.627     3.01     4.608005     20.46785     160.2454        23     1.283     1.073 -43.73   0
       287    176.4880    246.4468 300.1456640 +22.4920789     525.7137       72.529      1.217     2.66     4.547566     20.46785     76.31916         8     0.860     0.628   6.75   0
       288    883.3079    239.8026 300.3678041 +22.7019156     312.5879     72.45503      1.496     5.68     4.378131     20.46785     42.86734         9     1.230     0.872  73.41   0
       289    229.8849    238.6120 300.1648002 +22.5058363     477.8653     72.49203      1.131     2.24     4.384858     20.46785     80.16941         9     0.784     0.717  86.09   0
       290     85.6638    235.4126 300.1210242 +22.4616815     144.2302     72.51051      0.960     4.75     4.641462     20.46785     38.99503         6     1.112     0.582  26.42   0
       291    905.9052    232.3180 300.3772759 +22.7065281     322.2156      72.7136      1.311     2.99     4.494081     20.46785     53.34269         7     0.845     0.571  32.93   0
       292    834.1785    229.9786 300.3556780 +22.6843833      747.241     72.54748      1.390     2.76     4.281703     20.46785      97.4026        10     0.849     0.749  70.28   0
       293    424.3851    229.4542 300.2282517 +22.5614964     312.9891     72.56596      1.169     3.31     4.350687     20.46785     54.39011         7     0.953     0.478  -9.65   0
       294    932.4050    218.7435 300.3899402 +22.7105568     2042.199     72.51051      1.411     2.55     4.597631     20.46785     275.3925        22     1.198     0.939  70.00   0
       295    428.8085    211.0382 300.2356002 +22.5575318     928.1448     72.56596      1.411     3.86     4.329806     20.46785     125.7775        15     1.116     0.961 -79.30   0
       296    830.9045    210.4947 300.3609768 +22.6778013     638.0738      72.7136      1.504     3.56     4.313366     20.46785     65.29775        14     1.038     0.945  -5.21   0
       297    180.3476    211.4920 300.1581994 +22.4832009     213.5531      72.6029      1.160     2.88     4.536328     20.46785     41.86875         5     0.707     0.481  15.36   0
       298    475.8640    208.1837 300.2511663 +22.5708096     336.3054       72.529      1.456     3.10      4.27103     20.46785     40.34703         5     0.754     0.664  41.26   0
       299    350.9430    216.0200 300.2097650 +22.5356310     2168.138     72.56596      1.389     2.62     4.350018     20.46785     271.7083        22     1.120     0.931  49.89   0
       300     26.8152    204.4678 300.1127813 +22.4351546     410.3154       72.529      1.992     5.77     4.826097     20.46785     34.20266         8     1.471     0.637 -56.80   0
       301    245.7100    203.5206 300.1810993 +22.5005039     695.5166     72.67672      1.237     2.17     4.397102     20.46785     107.4248        11     0.845     0.746 -50.63   0
       302    363.7207    202.9035 300.2179924 +22.5356927     279.4274     72.65827      1.192     2.65     4.343537     20.46785     53.21843         5     0.795     0.453  36.48   0
       303    783.4670    200.3838 300.3494739 +22.6606925     1629.806       72.529      1.254     2.27     4.212523     20.46785     209.8478        18     1.031     0.891  89.22   0
       304     98.4396    200.7308 300.1362397 +22.4555568     253.0041     72.51051      1.203     3.88     4.619691     20.46785     40.98141         6     0.717     0.674   0.66   0
       305    848.4299    199.7180 300.3699337 +22.6799493     566.6262     72.56596      1.213     3.39      4.38079     20.46785     85.48549        12     1.051     0.804 -67.55   0
       306    267.1045    196.5939 300.1899962 +22.5049270     590.8127     72.43652      1.410     2.75     4.419514     20.46785     89.89208        11     0.897     0.822 -50.37   0
       307    556.8544    192.7453 300.2813783 +22.5906351      311.875     72.58443      1.235     3.25     4.276814     20.46785     49.55953         7     0.855     0.591 -26.42   0
       308    787.6639    191.8304 300.3535554 +22.6594900     682.3259     72.56596      1.199     2.28     4.231979     20.46785     113.5486         9     0.817     0.683  78.92   0
       309    708.1627    190.9645 300.3290692 +22.6354375     1246.755     72.62136      1.345     2.42     4.297151     20.46785     178.6943        16     0.998     0.885  39.90   0
       310    529.3365    187.4675 300.2745247 +22.5808761     270.6247      72.6029      1.071     3.27     4.265106     20.46785     50.86737         5     0.724     0.451  22.17   0
       311    903.5236    182.4286 300.3927133 +22.6914691     1436.562       72.529      1.416     3.12     4.476169     20.46785     194.0596        20     1.169     0.941  47.94   0
       312    634.4555    182.7561 300.3087766 +22.6110062     1005.828     72.54748      1.315     2.54     4.342256     20.46785     125.7688        13     0.994     0.793  10.22   0
       313    915.6670    181.7949 300.3967044 +22.6949215      767.285       72.529      1.291     2.77      4.49254     20.46785      103.081        12     0.943     0.812  64.99   0
       314     56.1453    168.5415 300.1335392 +22.4336367     473.5604      72.6029      1.612     3.29     4.743323     20.46785     69.10855         8     0.934     0.780   0.31   0
       315    266.1602    164.8251 300.2000035 +22.4955209     764.4628     72.58443      1.518     2.74     4.323421     20.46785     89.06231        12     0.910     0.837  70.72   0
       316    128.1551    159.4259 300.1588640 +22.4526073     2321.436     72.56596      1.628     2.93     4.607217     20.46785     261.7172        28     1.365     1.104  41.11   0
       317    951.1359    156.8956 300.4158369 +22.6983757     715.0969     72.63982      1.295     2.75     4.512513     20.46785     104.6967        10     0.925     0.680  56.16   0
       318     77.9412    156.4789 300.1442200 +22.4367084     600.9914     72.58443      1.643     3.26     4.665948     20.46785     58.65316         9     0.961     0.631 -50.95   0
       319    285.6284    152.9666 300.2099008 +22.4979493     5836.686     72.56596      1.416     2.44     4.336798     20.46785     782.1154        35     1.229     1.083  51.23   0
       320     69.8414    147.3377 300.1446676 +22.4316561      1428.04       72.529      1.715     2.90     4.670547     20.46785     147.7284        19     1.141     0.990 -57.57   0
       321    269.0118    143.7418 300.2077255 +22.4903205     554.2661     72.51051      1.279     3.15      4.31121     20.46785      99.0359        11     1.046     0.746  86.97   0
       322    929.7093    134.5860 300.4163897 +22.6855468     3649.401     72.49203      1.458     2.54     4.465527     20.46785     447.4901        31     1.230     1.092  86.00   0
       323    479.0349    129.5845 300.2776380 +22.5491768     535.9466     72.54748      1.271     2.50     4.247901     20.46785     92.41892         9     0.848     0.679  61.14   0
       324    232.2896    130.4761 300.2006106 +22.4755059     238.0637      72.7136      1.205     4.01     4.246262     20.46785     51.57379         7     0.988     0.466  11.82   0
       325    593.5862    127.4596 300.3139806 +22.5828743     321.8082     72.51051      1.340     3.01     4.432319     20.46785     58.37522         9     0.905     0.729  70.57   0
       326    169.2968    118.8776 300.1847927 +22.4532965     592.9503     72.67672      1.208     2.66     4.342944     20.46785     94.09295         9     0.922     0.603  -2.01   0
       327    530.5095    116.9657 300.2977479 +22.5609681     1786.224       72.529      1.316     2.60     4.273555     20.46785     241.1268        17     1.046     0.833  69.45   0
       328    458.4756    117.5328 300.2751477 +22.5395556     383.3062     72.62136      1.144     2.60     4.287216     20.46785     63.78904         6     0.826     0.451  71.93   0
       329     67.3323    117.2804 300.1536319 +22.4222750     340.9604     72.65827      1.620     3.84     4.619502     20.46785      39.3057         5     0.886     0.478  43.96   0
       330    403.0696    121.8029 300.2565264 +22.5241852     732.2072     72.49203      2.317     3.45     4.341449     20.46785     68.73854         9     0.997     0.679 -35.32   2
       331      8.6174    116.3917 300.1356847 +22.4044180     284.8455     72.49203      1.396     4.28     5.056364     20.46785     35.96465         5     1.070     0.487  -2.09   0
       332    274.0857    112.4257 300.2194548 +22.4828466      567.134     72.51051      1.605     3.72     4.312626     20.46785     68.20218         7     0.919     0.599 -67.63   0
       333    818.8852    106.5661 300.3909293 +22.6443199     327.4256     72.51051      1.190     3.95     4.337121     20.46785      48.3586         8     0.827     0.764   6.90   0
       334    175.5550    102.6779 300.1919885 +22.4505202     212.9885       72.529      1.251     4.61     4.253211     20.46785     36.88406         6     1.127     0.617  43.68   0
       335    964.8232    101.0056 300.4382248 +22.6863952     364.1301       72.529      1.581     3.82     4.543837     20.46785     37.58818         5     0.821     0.510  32.12   0
       336    304.5577     96.7881 300.2339978 +22.4874853     6037.474     72.54748      1.468     2.51     4.341915     20.46785     814.4446        40     1.286     1.157  60.09   0
       337    810.8861     97.3033 300.3914392 +22.6392619     393.8632     72.73203      1.412     3.61     4.325617     20.46785     55.33405         6     0.932     0.575  62.02   0
       338    155.8128     96.3978 300.1878892 +22.4428001     757.9666     72.38098      1.466     3.02     4.234408     20.46785     86.35794        13     1.080     0.739 -51.17   0
       339    933.6893     94.5696 300.4306034 +22.6752277     230.6845     72.51051      1.168     3.22     4.492355     20.46785     49.36282         5     0.903     0.482   8.43   0
       340    276.3850     90.9313 300.2271368 +22.4773617     349.7168     72.56596      1.391     2.85     4.370965     20.46785     50.93977         5     0.751     0.590 -11.54   0
       341    320.0681     88.3224 300.2415646 +22.4897005     373.5407     72.65827      1.559     3.72     4.449098     20.46785      40.6771         7     0.846     0.631  71.43   0
       342     66.1156     87.3176 300.1629657 +22.4133081     393.5695     72.67672      1.568     3.81     4.599712     20.46785     42.45293         7     0.764     0.657   3.12   0
       343    550.6677     82.2448 300.3152769 +22.5570264     6205.094     72.54748      1.330     2.34      4.49088     20.46785     804.6935        34     1.207     1.028  66.25   0
       344    436.0473     82.0337 300.2796765 +22.5226373     583.2186     72.58443      1.246     2.19     4.356515     20.46785     96.16732         9     0.738     0.726  14.65   0
       345    607.8904     76.9947 300.3347925 +22.5726522      262.995     72.45502      0.917     1.80     4.772131     20.46785     58.78538         5     0.599     0.533  -0.45   0
       346    803.2836     72.0348 300.3972607 +22.6297198     745.0554     72.51051      1.379     2.58     4.433616     20.46785      104.982        13     0.934     0.857 -50.60   0
       347    895.7516     70.8169 300.4264752 +22.6570428     126.3885     72.58443      0.431     2.57     4.650393     20.46785      80.8912         8     0.873     0.627 -22.83   0
       348    243.7004     65.8029 300.2251202 +22.4603506     551.7214     72.43652      1.520     2.55     4.364017     20.46785     80.08142         8     0.867     0.600  73.34   0
       349    602.0500     65.1797 300.3368035 +22.5675072     452.2527       72.529      1.161     2.27      4.83261     20.46785     66.29143         7     0.686     0.663  -8.86   0
       350    679.0625     62.3112 300.3617142 +22.5897398     6276.067     72.63982      1.351     2.42     4.825665     20.46785      851.172        33     1.161     1.060  82.94   0
       351    453.8649     61.3109 300.2919365 +22.5220192     1528.345     72.67672      1.399     2.71     4.396637     20.46785      177.184        20     1.076     0.971  71.82   0
       352    789.9923     58.2760 300.3975786 +22.6217850     571.9256     72.51051      2.663     6.27     4.537358     20.46785     47.42841        11     1.639     0.674  83.33   0
       353    720.1616     59.6906 300.3753647 +22.6012897     944.5919       72.529      1.431     2.95     4.764861     20.46785     135.3562        12     1.014     0.773  88.55   0
       354    736.1606     55.8337 300.3815986 +22.6049698     675.4856     72.58443      1.364     2.64     4.760158     20.46785       81.976        11     0.886     0.773  38.69   0
       355    202.6558     54.0227 300.2161801 +22.4446683      710.549     72.58443      1.469     3.64     4.219729     20.46785     97.05877        11     1.086     0.748  41.65   0
       356   1006.0032     53.5278 300.4664563 +22.6850570     601.7106     72.49203      1.512     3.26     4.911729     20.46785      72.6369        10     1.036     0.650  44.30   0
       357     50.0327     54.2469 300.1686880 +22.3989923     286.2039     72.58443      1.442     4.44     4.846552     20.46785     39.01795         6     0.822     0.683  13.08   0
       358    774.3994     51.4082 300.3949460 +22.6151429     486.7678     72.36246      1.388     3.51      4.63712     20.46785     67.22581        10     0.963     0.791 -10.30   0
       359    723.2534     47.1821 300.3803817 +22.5986185     2827.911       72.529      1.306     2.40     4.838684     20.46785     355.3738        25     1.197     0.941  80.67   0
       360    364.0982     48.0732 300.2683021 +22.4913276     489.7022     72.67672      1.347     2.92     4.838684     20.46785     68.75468         8     0.898     0.627 -24.88   0
       361    738.2300     45.8798 300.3854692 +22.6027270     979.9664     72.54748      1.840     4.13     4.814118     20.46785     84.80691        13     1.311     0.729  43.17   0
       362     16.7783     41.2074 300.1625857 +22.3852807     728.2944       72.529      1.552     3.87     5.329031     20.46785      82.6607        13     1.083     1.016  87.24   0
       363    809.6825     38.8804 300.4100001 +22.6221000     1618.775     72.69516      1.340     2.46     4.620566     20.46785     223.8702        18     1.003     0.942  12.81   0
       364    747.7361     31.9556 300.3929431 +22.6015682     741.7625     72.56596      1.295     2.99     4.853032     20.46785      103.242        12     0.956     0.858  31.87   0
       365    553.3314     31.4204 300.3325778 +22.5432154     1024.595       72.529      1.212     2.21     5.079362     20.46785     141.4938        15     0.886     0.860 -45.25   0
       366    125.9078     31.2136 300.1997221 +22.4151189      459.512     72.47353      1.355     4.18     4.217583     20.46785     53.85266         9     0.909     0.751  -4.97   0
       367    457.2595     29.5280 300.3032926 +22.5139021     706.1473     72.58443      1.232     2.40     4.475868     20.46785     114.2024        11     0.823     0.795  -1.22   0
       368    839.4362     28.1389 300.4227536 +22.6279147     323.7851     72.56596      1.214     3.13     4.812818     20.46785     44.91604         7     0.817     0.672 -24.10   0
       369    796.7323     20.0757 300.4120586 +22.6128159     674.5093     72.62136      1.503     3.26     4.690931     20.46785     71.76493        15     1.024     0.957  89.46   0
       370    287.6818   1015.8881 299.9302680 +22.7461580     1379.953     72.65827      2.525    10.82     70.53489     20.46785     73.51608        32     2.228     1.696   9.16  19
       371     21.2812     19.5907 300.1709885 +22.3804240     441.6183     72.49203      1.593     3.49     5.370737     20.46785     39.16246         5     0.757     0.465 -15.61   0
       372    650.8808     16.4222 300.3678091 +22.5681094     276.0435     72.51051      1.106     2.54     5.143591     20.46785      63.1783         7     0.814     0.601  35.30   0
       373    293.9554   1016.6404 299.9319734 +22.7482570     616.3764     72.62136      1.658     3.75      66.0389     20.46785     39.43497         5     1.946     0.207  35.47  19
       374    544.2139   1017.0702 300.0096724 +22.8234896     390.7049     72.54748      2.057     5.33     2.820734     20.46785     33.81888         7     1.052     0.762  -6.23  16
       375    413.2128   1013.1411 299.9701944 +22.7830507     482.0116       72.529      2.401     3.62     3.261738     20.46785      40.8625         5     1.122     0.337 -77.46   0
       376    861.6185    963.4966 300.1259511 +22.9033204     377.4748     72.45503      1.465     3.39      3.25147     20.46785     31.65363         5     1.119     0.298 -69.15   0
       377    604.1913   1007.1805 300.0315582 +22.8386481     2386.002     72.51051      1.822     4.30     2.836747     20.46785     168.3089        30     1.343     1.303 -66.37   0
       378    790.7672   1003.4444 300.0908765 +22.8935399     623.3007      72.6029      1.862     7.37     3.143384     20.46785     39.08964        16     1.423     1.069 -74.97   0
