#   1 NUMBER                 Running object number                                     
#   2 X_IMAGE                Object position along x                                    [pixel]
#   3 Y_IMAGE                Object position along y                                    [pixel]
#   4 ALPHA_J2000            Right ascension of barycenter (J2000)                      [deg]
#   5 DELTA_J2000            Declination of barycenter (J2000)                          [deg]
#   6 FLUX_APER              Flux vector within fixed circular aperture(s)              [count]
#   7 FLUXERR_APER           RMS error vector for aperture flux(es)                     [count]
#   8 FLUX_RADIUS            Fraction-of-light radii                                    [pixel]
#   9 FWHM_IMAGE             FWHM assuming a gaussian core                              [pixel]
#  10 BACKGROUND             Background at centroid position                            [count]
#  11 THRESHOLD              Detection threshold above background                       [count]
#  12 FLUX_MAX               Peak flux above background                                 [count]
#  13 ISOAREA_IMAGE          Isophotal area above Analysis threshold                    [pixel**2]
#  14 A_IMAGE                Profile RMS along major axis                               [pixel]
#  15 B_IMAGE                Profile RMS along minor axis                               [pixel]
#  16 THETA_IMAGE            Position angle (CCW/x)                                     [deg]
#  17 FLAGS                  Extraction flags                                          
         1    780.5438     13.5014 300.4121167 +22.6127017     663.9996     72.32988      1.436     2.99     4.913737     20.38052     78.13229        11     0.956     0.812  29.49   0
         2    212.3927     12.8463 300.2354517 +22.4424504      3934.39     72.25633      1.553     2.74     4.454515     20.38052     451.5533        33     1.230     1.221  35.17   0
         3    634.8770     10.2739 300.3677718 +22.5681898     448.7356     72.32988      1.189     3.38     4.134736     20.38052     54.20592         6     0.995     0.425  30.33   0
         4    773.8291      5.6575 300.4125653 +22.6084363     870.6995     72.23794      1.364     2.77     4.971723     20.38052     100.6556        12     0.924     0.771  52.05  16
         5    328.5322      4.9066 300.2741454 +22.4749477     1229.583     71.47956      1.536     3.11     4.459247     20.38052      134.947        19     1.173     0.992  56.26  16
         6    260.6718      5.3169 300.2529046 +22.4547453     480.4376     72.20113      2.850     3.12     4.446864     20.38052     37.91705         6     0.839     0.507  45.50  16
         7    555.1553      2.5399 300.3454481 +22.5421078     262.6807     62.66073      1.131     3.12     4.590302     20.38052     53.12965         5     0.933     0.353  84.49  24
         8    811.8772      1.4701 300.4257825 +22.6186133       280.78     57.11201      1.206     2.61     4.880588     20.38052     39.67949         6     0.754     0.497   4.34  24
         9    212.6683   1007.4840 299.9125990 +22.7280154     2639.196     72.34825      4.678    19.50     82.29527     20.38052     68.05162       108     4.585     2.303  34.22  18
        10    290.1064   1021.4169 299.9321433 +22.7552495     1709.678     67.20505      3.221    13.23     37.24442     20.38052     57.71035        52     2.695     1.810 -12.04  24
        11    142.8295   1021.6192 299.8862923 +22.7111056     4350.297      66.3892      6.343    27.01     91.36359     20.38052      106.107       229     7.116     2.846   3.21  27
        12    123.7675   1015.3253 299.8824163 +22.7035796     4532.948     72.23794      9.190    37.18     82.62533     20.38052     99.37096       528     7.694     6.386 -87.44  27
        13    119.5965    959.6730 299.8992248 +22.6863749     5039.924     72.18272     22.873    84.58     36.52781     20.38052     104.0463      3159    18.262    16.377 -11.21  19
        14    539.1234    985.4698 300.0213210 +22.8196438     453.4494     72.34825      1.544     4.20     2.954593     20.38052     33.58889         6     1.079     0.466 -56.04   0
        15     24.1844    982.5135 299.8621520 +22.6642808     914.1542     72.18272      4.739     6.12    -2.186421     20.38052     58.95789        12     1.363     1.017  18.51   2
        16    967.5875    979.9720 300.1566265 +22.9465103     797.4139     72.23794      2.020     7.80     3.060631     20.38052     44.11034        19     1.391     1.274  34.36   0
        17      9.5836    974.4727 299.8602326 +22.6575929     1034.136     72.23794      9.221    10.40    -9.899787     20.38052     34.63585        14     2.848     1.059 -66.14  17
        18      2.6662    975.2804 299.8578213 +22.6557476     1040.544     63.37784      7.490     9.44    -14.65284     20.38052     39.03785        16     1.912     1.300  49.55  27
        19    588.0794   1000.8052 300.0315744 +22.8387258     2373.698      72.1643      1.816     4.14     3.333175     20.38052     171.7107        29     1.383     1.244 -17.78   0
        20    186.3127    965.5749 299.9180401 +22.7080903     1663.498     72.18272      4.562    13.15     47.72429     20.38052     52.79553        41     2.890     1.666  36.53   2
        21    207.7792    988.4100 299.9172846 +22.7210796     1348.797     72.21954      3.423     7.58     66.07782     20.38052     46.10015        14     1.862     0.864  77.46   3
        22    692.9302    963.0867 300.0765030 +22.8593408     6804.791     72.34825      1.883     4.09     3.498933     20.38052     402.6525        48     1.530     1.415  32.97   0
        23      2.9027    983.8165 299.8551180 +22.6582649     1377.519     64.31466     16.800    26.32    -18.11775     20.38052     46.20368        74     5.701     3.373  39.32  27
        24    230.8713    990.2654 299.9238599 +22.7285416     878.3723     72.27473      3.940     7.23     63.96734     20.38052     37.54237        13     1.407     1.041  75.78   1
        25    844.7974    956.7974 300.1258770 +22.9030584     372.3248      72.0168      2.632     3.48     2.726393     20.38052     26.97887         5     1.007     0.347 -46.12   0
        26    284.9859    956.6079 299.9516353 +22.7351289     14.93519     72.14588      1.218     4.17     17.81545     20.38052     40.23151         5     1.116     0.445  62.78   0
        27    601.3108    953.7833 300.0509926 +22.8292005     1528.277      72.1643      1.738     4.13     3.238496     20.38052     115.0629        25     1.340     1.205 -11.66   0
        28    171.9089   1016.7823 299.8969038 +22.7184476     1403.782      72.1643      2.971    10.35     90.22017     20.38052     48.48174        30     2.144     1.392 -50.92  16
        29      2.4164    997.3669 299.8505589 +22.6620021     1840.653     62.06395     16.508    22.42    -24.04383     20.38052     48.20842       101     4.758     2.934 -25.85  27
        30    495.2756    950.3455 300.0190981 +22.7964156     1064.919     72.27473      1.821     3.92     2.958804     20.38052     82.04241        20     1.269     1.054   7.69   0
        31    425.7722    948.1754 299.9981733 +22.7749464     6754.721     72.21954      1.861     3.95     3.019953     20.38052     477.0764        43     1.457     1.409 -15.15   0
        32    674.5391    995.9200 300.0600916 +22.8632502     8288.411     72.29311      1.908     4.22     3.484204     20.38052      470.871        44     1.528     1.341  53.66   3
        33    458.4461    935.6324 300.0124211 +22.7811484     572.1453     72.27473      1.837     6.90     2.981053     20.38052      44.3927        13     1.347     1.149 -51.37   0
        34    680.0991    993.6945 300.0625477 +22.8642785     9638.105      72.4217      1.939     4.50     3.475885     20.38052     568.6907        49     1.551     1.438 -13.68   3
        35    162.1104    924.7889 299.9237836 +22.6891333     1402.675     72.18272     11.963    13.99       17.041     20.38052     47.04258        34     3.431     1.587   1.13   3
        36    972.1661    927.1367 300.1752435 +22.9327078     2092.774     72.23794      2.020     5.23     3.270057     20.38052     116.1302        29     1.497     1.270  -5.22   0
        37    622.2675    924.5317 300.0670342 +22.8270893     330.6941     72.29311      1.525     4.93     3.202255     20.38052     36.86359         5     1.076     0.640 -62.83   0
        38      3.2144   1020.6930 299.8432179 +22.6689260     2316.543      63.0203      9.054    30.57    -32.36238     20.38052     68.78665       166     9.596     2.704  -3.80  27
        39    761.3544    916.2296 300.1130653 +22.8664014       814.77     72.27473      2.170     7.50     3.619089     20.38052     47.43998        17     1.631     1.004  32.11   0
        40    795.6631    910.0428 300.1257701 +22.8749082     978.2286     72.23794      1.777     5.13     3.526311     20.38052     65.40029        21     1.300     1.164  74.64   0
        41    572.6562    910.8886 300.0560224 +22.8082986     393.4219     72.27473      1.474     5.13     3.096875     20.38052     42.26756         9     1.125     0.663  47.56   0
        42    817.9980    903.7947 300.1347641 +22.8798079      11271.9      72.0537      1.807     3.91     3.447847     20.38052     695.2153        56     1.485     1.419  -2.76   0
        43    163.8459    906.3541 299.9303185 +22.6843684     819.7038     72.27473      4.282     3.67     13.82692     20.38052     36.71796         5     1.857     0.209 -39.06   0
        44    775.0328    996.3608 300.0912597 +22.8935052     643.5861     72.27473      1.998     7.27      2.76139     20.38052     41.22612        17     1.245     1.188  53.37   0
        45    863.4302    903.9313 300.1488827 +22.8934621     482.9437     72.21954      1.546     5.60     3.177284     20.38052     48.47649        14     1.156     1.085  76.23   0
        46      2.9718   1010.5280 299.8464497 +22.6659404     2415.842     64.64448     12.621    35.55    -28.51248     20.38052      59.9586       231     8.043     4.360 -31.87  27
        47   1009.0293    902.7096 300.1946884 +22.9367352     385.0025     72.20113      1.710     5.52     3.618904     20.38052     30.78083         6     1.360     0.631  36.34   0
        48    129.2559    896.2420 299.9228567 +22.6710888     1137.242     72.20113      6.138     8.45      8.80466     20.38052     69.12631        19     1.918     1.040 -64.02   0
        49    395.8238   1007.0831 299.9696907 +22.7828593     675.2465     72.20113      2.083     6.39      3.02229     20.38052     42.11139        14     1.322     1.057 -62.98   0
        50    523.7989    891.7529 300.0470346 +22.7881571     413.3148     72.23794      1.635     6.23     3.055321     20.38052     38.63089         9     1.284     0.850  70.14   0
        51    100.3678    888.9041 299.9162660 +22.6603154     551.4022     72.20113      1.762     4.37     5.301688     20.38052     39.15997         6     1.196     0.454 -81.61   0
        52    826.5866    886.0637 300.1432081 +22.8772903     1406.287     72.20113      1.796     4.00     3.548957     20.38052     98.86432        23     1.233     1.186  48.60   0
        53    119.1479    886.6406 299.9228378 +22.6653025     645.8993     72.25633      6.304     6.31     6.915154     20.38052      46.8369        12     1.650     1.009  28.33   0
        54   1008.9274    884.5625 300.2005589 +22.9314916     408.7775     72.20113      1.679     4.92     3.670973     20.38052     35.12067         7     1.022     0.672  20.69   0
        55    677.8451    882.9993 300.0978537 +22.8318298     378.3397     72.23794      1.571     6.66     3.461187     20.38052     36.44032        11     1.926     0.646  47.77   0
        56    864.6891    879.4767 300.1572288 +22.8868165     828.6171     72.38499      1.892     4.79     3.450901     20.38052      56.2685        14     1.173     0.903  74.12   0
        57    213.1893   1001.6158 299.9146701 +22.7264894      1733.53     72.18272      4.801    17.11     78.02338     20.38052     65.04291        55     4.659     1.747 -51.98  19
        58    973.9661    876.9716 300.1921216 +22.9188376     422.4075     72.25633      1.618     4.18     3.601335     20.38052     29.80497         7     0.924     0.540 -47.51   0
        59    913.2845    870.3618 300.1753456 +22.8987592     558.9478     72.21954      1.686     6.66     3.556324     20.38052     38.20142        16     1.168     1.065  83.25   0
        60    764.6321    869.8245 300.1291793 +22.8540602     704.7049     72.23794      1.563     6.40     3.791261     20.38052     59.40174        14     1.148     1.003  26.17   0
        61     24.6444    868.1411 299.8994918 +22.6316362     405.3931     72.25633      1.707     3.91      3.50609     20.38052     39.01753         6     1.015     0.432  76.99   0
        62    776.0966    866.7285 300.1337590 +22.8566071      590.444     72.34825      1.705     4.75     3.801853     20.38052     55.63034        14     1.114     0.985  -9.18   0
        63    477.0473    865.9756 300.0408646 +22.7667407     4200.032     72.25633      1.629     3.25     3.089537     20.38052     372.6832        31     1.278     1.187   4.37   0
        64    520.4539    854.0049 300.0582686 +22.7763212     459.8486     72.21954      1.989     6.12     3.135274     20.38052       43.449        11     1.296     1.078 -17.11   0
        65    255.7037    854.3495 299.9757860 +22.6970160     380.0883      72.3115      1.730     4.09     5.223288     20.38052     34.25086         6     1.081     0.442  83.39   0
        66    118.2020    925.6459 299.9098590 +22.6762015     4064.669     72.23794     18.219    55.47     10.29689     20.38052     86.34792       986    12.538     6.810 -29.01   3
        67    202.6224    851.5946 299.9601784 +22.6803007     877.1164     72.21954      1.991     3.51      6.36378     20.38052     70.62402        15     1.046     0.991 -26.84   0
        68    179.2389    848.6064 299.9538810 +22.6724278     1418.318     72.27473      1.777     4.22     6.220124     20.38052     138.7822        26     1.390     1.257  12.18   0
        69   1005.3793    836.3560 300.2151289 +22.9165796     2075.538     72.29311      1.906     4.56     3.779464     20.38052     139.5591        31     1.511     1.245 -15.60   0
        70    711.0308    836.2504 300.1233945 +22.8283555     450.5807     72.27473      1.886     3.91     3.634003     20.38052     37.33753         8     0.976     0.593 -64.29   0
        71    788.8187    830.0015 300.1496667 +22.8498733     604.0472      72.1643      1.559     4.72     3.781522     20.38052     59.66028        12     1.303     0.824  34.81   0
        72    211.9647    830.2045 299.9700372 +22.6769688     296.7603     72.23794      1.382     4.50     5.231181     20.38052      41.7883         8     1.085     0.653 -82.85   0
        73    536.6724    828.3421 300.0716620 +22.7738187     213.7193     72.27473      1.294     3.94     3.258123     20.38052       37.349         6     0.890     0.500  48.89   0
        74    657.0792    824.0356 300.1105584 +22.8086778     4765.943     72.18272      1.543     3.28     3.384266     20.38052     380.8252        32     1.241     1.178  26.32   0
        75    147.0251    823.9377 299.9518886 +22.6556879     372.5563     72.23794      1.485     3.79     4.657417     20.38052     34.41517         5     1.029     0.400  59.60   0
        76    459.4074    821.0759 300.0499735 +22.7485665     454.7034     72.18272      1.316     3.23     3.400794     20.38052     63.63985        10     0.901     0.756   1.24   0
        77    207.2541    817.6632 299.9726499 +22.6719586     1324.108     72.27473      1.576     3.41     4.616446     20.38052     128.5186        20     1.225     1.028  37.18   0
        78    677.6361    816.4671 300.1194228 +22.8126664     689.9735     72.23794      1.613     3.69      3.43709     20.38052      69.5694        16     1.131     0.939 -72.90   0
        79    226.4659    814.8868 299.9795254 +22.6769258     500.9528     72.32988      1.764     5.96     4.449641     20.38052     40.39991        10     1.101     0.908  18.93   0
        80    594.5679    807.0101 300.0966244 +22.7850521     181.7315     72.23794      0.915     3.87     3.373632     20.38052     43.87147         5     1.014     0.424  24.44   0
        81    833.1298    803.8744 300.1719735 +22.8556471     4140.284      72.3115      1.614     3.34     3.685019     20.38052     320.3441        32     1.306     1.219  10.49   0
        82    241.6639    798.3007 299.9896425 +22.6767273     539.0881     72.32988      1.695     5.61     3.739331     20.38052     50.03249        11     1.233     0.719 -30.03   0
        83    549.9068    796.3054 300.0861978 +22.7685909     755.2881     72.40334      1.786     4.81     3.402513     20.38052     62.04052        14     1.231     0.987 -23.46   0
        84    196.2584    794.1504 299.9768752 +22.6619159      1184.81     72.29311      1.790     5.09     3.729802     20.38052     88.21507        21     1.384     1.081 -36.77   0
        85    611.4996    789.8995 300.1074599 +22.7852154     557.5449     72.47674      1.472     4.27     3.408482     20.38052     54.23812        12     1.080     0.864  32.56   0
        86    346.1101    786.2950 300.0260280 +22.7046105     53820.26      72.4217      1.610     3.10     3.588482     20.38052     4965.588        93     1.449     1.380  27.53   0
        87    603.9818    785.5247 300.1065407 +22.7817060     1706.962     72.23794      1.564     3.07     3.412993     20.38052     151.2308        21     1.158     1.008  30.10   0
        88   1016.9863    784.5958 300.2355791 +22.9051840     969.9659     72.09059      1.833     5.97      3.89454     20.38052     59.40458        19     1.283     1.192  58.81  16
        89    274.3177    784.3423 300.0043337 +22.6825179     565.7282      72.3115      1.768     5.41     3.735792     20.38052     51.96473        10     0.982     0.840  40.06   0
        90    320.0305    784.2366 300.0185850 +22.6961983     269.4086     72.25633      1.255     3.68     3.664589     20.38052     33.47843         6     0.905     0.458 -36.97   0
        91    632.8395    781.4061 300.1168672 +22.7891733     1040.994     72.27473      1.604     3.88      3.40831     20.38052     95.26637        15     1.085     0.920   7.13   0
        92     32.2404    780.8655 299.9302239 +22.6088939     830.8087     72.20113      1.947     5.40     3.528445     20.38052     72.14449        16     1.398     1.002  -4.67   0
        93    643.6852    779.6769 300.1208074 +22.7919276     577.2015     72.34825      1.497     4.36     3.407825     20.38052     62.95141        11     1.117     0.815   9.72   0
        94    963.5170    777.4301 300.2212288 +22.8871107     341.3877     72.25633      1.275     4.15     3.812464     20.38052     32.48351         6     1.053     0.470 -79.61   0
        95    748.8723    776.0193 300.1547677 +22.8224005     444.7536     72.23794      1.486     4.45     3.627648     20.38052     41.78541         9     0.912     0.747  83.63   0
        96    786.7898    766.3791 300.1697184 +22.8309934     741.2923     72.21954      1.549     5.44     3.614444     20.38052     62.31625        16     1.351     0.887  55.74   0
        97    410.1157    764.0270 300.0531795 +22.7174145     2035.494     72.23794      1.562     3.16     3.689836     20.38052     205.8583        25     1.219     1.121 -85.91   0
        98    395.8249    763.5308 300.0488941 +22.7129869     31644.75     72.23794      1.574     3.05     3.689836     20.38052     3097.838        69     1.359     1.306  36.64   0
        99    919.0318    759.6413 300.2131372 +22.8686751      2839.51     72.29311      1.651     3.55     3.750777     20.38052      209.945        32     1.301     1.247  26.69   0
       100    407.3026    758.0030 300.0542622 +22.7148422     585.7473     72.14588      1.495     3.53     3.722677     20.38052     56.50365        11     0.970     0.774  19.19   0
       101    278.5825    755.6030 300.0150012 +22.6755520     781.6451     72.14588      1.554     3.73      3.72974     20.38052     80.40279        15     1.215     0.859 -36.58   0
       102    676.7573    755.6062 300.1389339 +22.7949278     920.3348     72.25633      1.437     3.07     3.411734     20.38052      107.133        14     0.996     0.889   6.71   0
       103    524.0613    750.3046 300.0931041 +22.7476382     905.0616     72.32988      1.606     3.68      3.69813     20.38052      74.2039        15     1.159     0.887  -1.07   0
       104     82.8780    751.0971 299.9556312 +22.6155520     540.8193     72.36662      1.592     3.60     3.587536     20.38052     54.90458        10     1.062     0.738 -19.23   0
       105    925.1830    747.5142 300.2189974 +22.8670334     542.2219     72.20113      1.718     4.93     3.790118     20.38052     48.11144        12     1.154     0.842  41.02   0
       106    426.5247    746.4915 300.0639850 +22.7173020     365.5513     72.40335      1.633     3.51     3.785359     20.38052     44.01291         5     0.934     0.494  -5.34   0
       107    381.8964    746.0447 300.0502439 +22.7037923     308.5272     72.25633      1.367     3.13     3.788358     20.38052     54.31959         7     0.906     0.704   6.92   0
       108    470.1045    744.9191 300.0780588 +22.7299167     426.1393     72.38499      1.406     4.85     3.777645     20.38052     56.40876         7     1.211     0.551  44.50   0
       109    112.1905    744.5142 299.9668790 +22.6224585     619.1639      72.1643      1.849     4.71      3.60647     20.38052     55.29438        10     1.092     0.974 -19.34   0
       110    902.8578    742.3608 300.2137103 +22.8588657     392.3084     72.23794      1.184     3.05     3.715509     20.38052     59.32897         8     0.989     0.552 -23.98   0
       111    275.9348    739.7862 300.0193184 +22.6702199     475.4179     72.20113      1.591     3.81     3.719094     20.38052     60.82479         7     0.962     0.529 -13.81   0
       112    599.0690    730.2202 300.1229870 +22.7643553     566.1368     72.21954      2.072     4.84     3.497002     20.38052     47.78761        10     1.112     0.763  -3.55   0
       113    569.1337    728.4796 300.1142308 +22.7548833     606.1233     72.34825      1.517     3.57     3.646633     20.38052     68.16181         9     1.034     0.612 -25.93   0
       114    477.8517    727.8159 300.0860287 +22.7273299     387.6285     72.23794      1.245     4.21     3.819322     20.38052     37.00614         6     1.134     0.446 -28.39   0
       115    985.3785    724.8910 300.2451261 +22.8785615     4463.484      72.1643      1.670     3.54     3.916626     20.38052     328.5879        35     1.346     1.232  -3.99   0
       116    590.7416    725.6627 300.1218749 +22.7605510     1305.085     72.29311      1.429     3.02     3.551131     20.38052     154.1805        18     1.058     0.953  50.73   0
       117    510.6263    725.4585 300.0969969 +22.7364783     230.7257     72.23794      1.131     3.49     3.792701     20.38052     46.08907         8     0.931     0.652  -5.38   0
       118    672.6550    720.8228 300.1489612 +22.7837100     316.8543     72.25633      1.298     4.13     3.405109     20.38052     38.00712         6     0.747     0.651 -39.46   0
       119    973.8584    716.3741 300.2443005 +22.8726640     1790.254     72.23794      1.633     3.36     3.901391     20.38052     155.8006        24     1.272     1.074  42.36   0
       120    336.6455    709.9966 300.0478817 +22.6798786     819.7859     72.23794      1.453     3.66     3.877119     20.38052      96.0224        15     1.093     0.993 -13.10   0
       121    202.6675    711.1888 300.0058307 +22.6400405     234.0196     72.25633      1.507     3.58     3.744413     20.38052     30.68034         6     0.733     0.638  22.51   0
       122    800.1080    707.4934 300.1930087 +22.8180694     2496.057     72.40334      1.539     3.02     3.466131     20.38052     239.5393        25     1.215     1.085  65.39   0
       123   1004.8899    706.4869 300.2571943 +22.8791155     1673.162     72.40334      1.647     3.53     3.945028     20.38052     144.9294        22     1.234     1.099   1.30   0
       124    513.7597    704.0132 300.1049415 +22.7312612     723.1669     72.25633      0.610     1.35     3.804594     20.38052     372.7103         5     0.534     0.332   1.04   0
       125     22.5440    697.6977 299.9542394 +22.5821355      851.669     72.32988      1.846     4.00     3.855641     20.38052     80.19314        18     1.320     1.033 -36.67   0
       126    882.3201    693.2775 300.2232584 +22.8386118     608.7469     72.34825      1.769     3.97     3.640687     20.38052     62.03632        11     1.057     0.889 -67.55   0
       127    185.7121    693.6516 300.0062583 +22.6299237     554.0346     72.27473      1.493     3.92     3.824584     20.38052      69.8877        12     1.034     0.871  55.32   0
       128    918.6634    684.4993 300.2374442 +22.8469745     148305.6     72.32988      1.623     3.16     3.808811     20.38052      13811.2       161     1.496     1.464  50.78   0
       129    681.3140    687.8101 300.1623869 +22.7768238     440.5935     72.18272      1.613     5.35     3.406427     20.38052     43.26104         9     1.291     0.625 -80.32   0
       130    770.8078    685.0379 300.1911738 +22.8028410     836.7441     72.25633      1.469     3.15     3.416097     20.38052     88.69765        12     1.001     0.810 -64.39   0
       131    523.8950    685.1644 300.1142217 +22.7288877     226.7565     72.23794      1.277     4.44     3.813032     20.38052     34.90874         5     0.788     0.711  14.02   0
       132    951.3338    677.2419 300.2499918 +22.8546732     365.3447     72.21954      1.388     4.25      3.88212     20.38052     63.15335        10     1.260     0.704 -45.81   0
       133    604.7949    673.2453 300.1432850 +22.7497115     1752.505     72.23794      1.458     2.87     3.739839     20.38052     176.6646        22     1.112     1.077  -6.53   0
       134    786.1540    670.6270 300.2006394 +22.8032985     9347.105     72.27473      1.461     2.77     3.414445     20.38052     1035.841        41     1.212     1.189   6.73   0
       135    287.5500    665.5280 300.0470604 +22.6523956     4843.101     72.23794      1.521     2.88     3.966574     20.38052     579.9556        30     1.174     1.134  37.63   0
       136      1.9837    664.0463 299.9587862 +22.5663160     1023.299     59.83964      1.290     2.71     4.088065     20.38052     153.6207        13     1.108     0.706 -88.91  24
       137    369.6419    663.6682 300.0731999 +22.6764761     1176.991     72.21954      1.426     2.78     3.940375     20.38052      155.254        16     1.053     0.887  10.51   0
       138    245.1516    661.3264 300.0352408 +22.6384757     486.2378     72.23794      1.572     3.98     3.902172     20.38052     44.48852         9     0.887     0.734 -71.26   0
       139    577.9302    659.0738 300.1395234 +22.7375912     882.8685      72.3115      1.420     3.62      3.81665     20.38052     87.10049        16     1.109     0.960  68.40   0
       140    569.5864    651.3730 300.1394272 +22.7328794     3269.961     72.23794      1.383     2.57     3.851998     20.38052      377.231        26     1.079     1.051  32.53   0
       141    559.7037    645.1426 300.1383742 +22.7281286     1376.037      72.3115      1.442     2.85     3.884427     20.38052     151.7134        19     1.082     0.942  19.58   0
       142    953.6655    643.2425 300.2617664 +22.8456004     552.1481     72.21954      1.612     3.33     3.905669     20.38052      58.6728        11     1.077     0.745  30.59   0
       143    222.9594    641.1888 300.0348827 +22.6260422     729.2528     72.23794      1.532     3.69     3.759425     20.38052     69.64234        14     1.080     0.891  59.28   0
       144    237.5789    639.8811 300.0398531 +22.6300511     486.7552     72.20113      1.501     3.15     3.800712     20.38052      72.2911        12     1.039     0.817  48.72   0
       145   1006.5374    636.7374 300.2803730 +22.8595619     424.9677     72.27473      1.518     6.96     3.985965     20.38052     43.19789        12     1.502     0.905 -31.90   0
       146    262.8438    636.2636 300.0488844 +22.6365891       622.23     72.23794      1.579     4.34      3.88263     20.38052     63.83023        13     1.127     0.961  60.90   0
       147    583.4230    635.3125 300.1489537 +22.7324139     505.2733      72.1643      1.488     3.77     3.882979     20.38052     53.78352        10     1.012     0.813  10.10   0
       148    294.2128    636.3854 300.0586003 +22.6460301     447.0047      72.1643      1.553     3.38     3.985764     20.38052     55.67844         6     0.797     0.639  24.42   0
       149    518.0815    634.6948 300.1288095 +22.7126546     312.0756     72.40334      1.396     4.89     3.941129     20.38052     28.80136         7     0.999     0.677 -10.18   0
       150    484.6093    634.7405 300.1183750 +22.7026356     1735.488     72.20113      1.374     2.62     3.945809     20.38052     233.2879        19     1.084     0.912   5.58   0
       151    138.5117    629.6320 300.0123858 +22.5973999     19943.88     72.20113      1.671     3.16      3.77665     20.38052     2226.255        67     1.451     1.347  26.11   0
       152     59.1801    631.3498 299.9871758 +22.5740971      588.127     72.21954      1.787     5.33     4.004905     20.38052     61.70209        13     1.252     0.993 -12.49   0
       153    569.5897    629.9011 300.1464040 +22.7267145     1096.307     72.12746      1.433     3.50     3.917052     20.38052     118.2929        17     1.131     0.930 -65.72   0
       154    604.9183    628.9018 300.1577304 +22.7370141       371.03     72.38499      1.364     5.04     3.869164     20.38052     45.75076        10     1.002     0.749  61.17   0
       155    487.1786    627.1801 300.1216308 +22.7012349     338.8432     72.23794      1.597     3.70     3.968683     20.38052     43.39245         5     0.916     0.431  45.04   0
       156    940.6029    625.7975 300.2633598 +22.8366751     217.6361      72.0168      1.313     3.44     3.896151     20.38052     24.33208         5     0.759     0.450  71.74   0
       157    323.1618    621.6663 300.0723858 +22.6504853     290.5715     72.21954      1.235     3.01     3.994217     20.38052     38.92933         5     0.762     0.421 -19.54   0
       158    987.5984    616.4810 300.2810456 +22.8480689     1096.968     72.14588      1.596     3.16     3.979045     20.38052     108.9414        20     1.116     1.071  21.07   0
       159     84.5354    613.6771 300.0007945 +22.5766331     1590.697     72.32988      1.914     4.81     3.960145     20.38052     97.73767        28     1.602     1.118  84.54   0
       160    854.6355    614.4327 300.2402443 +22.8076649     391.8444     72.25633      1.290     3.28     3.815624     20.38052     59.30292         8     0.826     0.789  24.99   0
       161    150.2318    613.9021 300.0211379 +22.5964020     507.4603     72.21954      1.598     5.71     3.664652     20.38052     52.03408        13     1.267     0.839  47.68   0
       162    532.9525    610.8018 300.1412010 +22.7102505     423.9124     72.23794      1.569     2.95     4.014497     20.38052     47.01937         8     0.827     0.646 -38.75   0
       163    927.7554    609.2446 300.2647304 +22.8280707     793.3079     72.27473      1.591     4.36     3.883479     20.38052     66.90451        14     1.197     0.842 -13.14   0
       164    923.1717    608.9879 300.2633843 +22.8266244     383.2355     72.23794      1.436     3.77     3.881605     20.38052      39.3516         5     0.813     0.500  38.16   1
       165    325.8604    609.6229 300.0771373 +22.6478376     229.6595     72.21954      1.335     3.46     4.001463     20.38052      32.0001         5     0.758     0.457  15.49   0
       166    671.9072    607.5594 300.1855294 +22.7509555     343.0497     72.23794      1.548     4.22     3.908573     20.38052     39.77607         7     1.047     0.485  -6.56   0
       167    489.6353    603.1534 300.1302003 +22.6950725     695.4391     72.25633      1.290     2.38     4.031596     20.38052     115.9503        10     0.890     0.696  -1.40   0
       168    637.6786    601.7827 300.1767435 +22.7390412     497.4806     72.23794      1.146     2.64     3.939803     20.38052      76.7057         7     0.845     0.549  36.11   0
       169    684.9120    600.2497 300.1919553 +22.7527519     458.3407     72.23794      1.284     2.71      3.88965     20.38052     60.23112         7     0.722     0.655 -27.78   0
       170    655.3480    599.7328 300.1829133 +22.7437463     512.5314     72.25633      1.194     2.93     3.931654     20.38052     67.50081        10     0.986     0.685 -62.47   0
       171    534.0749    599.0372 300.1453719 +22.7072086     1128.213     72.18272      1.551     3.18     4.040879     20.38052     127.5305        19     1.472     0.886  37.57   0
       172    967.5909    594.6479 300.2818969 +22.8358029     3344.734     72.25633      1.540     2.75     3.921351     20.38052     363.7623        30     1.248     1.115  17.36   0
       173    499.3504    594.3416 300.1360867 +22.6954539     1725.528     72.29311      1.410     2.59     4.048445     20.38052      217.877        20     1.105     0.958  57.50   0
       174    864.3022    591.7964 300.2506115 +22.8040550     307.5313     72.14588      1.197     2.61     3.858763     20.38052     50.47079         6     0.736     0.561 -34.69   0
       175     61.3143    587.8840 300.0019568 +22.5622685     5148.031     72.34825      1.721     3.36     4.012221     20.38052      557.246        40     1.407     1.331  -8.30   0
       176    528.4731    585.6093 300.1479894 +22.7016737     187.1617     72.23794      1.239     3.94     4.066345     20.38052     35.66319         6     0.911     0.487  -2.26   0
       177   1006.9070    584.1946 300.2975575 +22.8445688     281.3361     72.12746      1.301     4.42      3.93892     20.38052     41.54634         7     0.898     0.619  30.68   0
       178    620.2057    582.6879 300.1775035 +22.7283215     201.6415     72.14588      1.163     3.91     4.045237     20.38052     38.80886         5     0.887     0.494 -47.71   0
       179    362.7863    581.0242 300.0979133 +22.6506982     9089.421     72.23794      1.406     2.72     3.942502     20.38052     1137.375        38     1.193     1.138  62.81   0
       180    485.2392    578.0998 300.1369695 +22.6865610     8872.343     72.25633      1.354     2.54     4.075897     20.38052     1033.259        42     1.185     1.119  63.93   0
       181    250.1200    575.5966 300.0646332 +22.6153633     328.9716     72.14588      1.410     4.52     3.548886     20.38052     36.76775         7     1.186     0.490   1.06   0
       182    897.0175    572.1824 300.2671835 +22.8082146     1865.672     72.23794      1.459     2.88      3.85178     20.38052     210.9972        22     1.130     1.067  86.18   0
       183    981.6621    569.6063 300.2944204 +22.8328174     12577.86     72.21954      1.566     2.93     3.877335     20.38052     1316.753        49     1.329     1.265  12.83   0
       184    545.8268    567.6859 300.1592137 +22.7017266     11629.31     72.23794      1.372     2.47     4.106047     20.38052     1617.497        41     1.176     1.113  77.84   0
       185    715.1547    563.4126 300.2133429 +22.7512288     575.7984     72.23794      1.381     3.41     3.950873     20.38052     69.16661         9     0.944     0.670  51.25   0
       186    273.1835    563.2305 300.0758213 +22.6187289     1367.089     72.21954      1.409     2.92     3.464649     20.38052     156.2374        17     0.995     0.971  36.32   0
       187    520.1323    561.0444 300.1533709 +22.6921198     440.7983     72.21954      1.322     3.59      4.11405     20.38052     67.02505         8     1.066     0.620  41.68   0
       188    431.3184    562.1539 300.1253660 +22.6658223     384.4086     72.21954      1.367     2.79     4.029178     20.38052     51.73844         7     0.840     0.573   7.60   0
       189    820.2337    555.8894 300.2485353 +22.7805389      853.363     72.21954      1.397     3.19     3.905452     20.38052     103.1425        19     1.223     0.999  10.59   0
       190    477.5247    555.9013 300.1417776 +22.6778747     4306.068     72.36662      1.354     2.41     4.109054     20.38052     611.9431        29     1.128     1.028  38.54   0
       191    455.8011    554.3827 300.1355093 +22.6709284      1310.71     72.14588      1.330     2.71     4.074889     20.38052     158.1939        16     1.030     0.859   7.27   0
       192    210.4165    553.8166 300.0593614 +22.5972080     636.0393     72.20113      1.409     3.19     3.462129     20.38052     73.98047        12     1.056     0.725  -7.24   0
       193    897.4752    551.6182 300.2740053 +22.8024411     1624.232     72.23794      1.520     3.29     3.840929     20.38052      175.144        20     1.216     0.937 -47.75   0
       194    144.1068    551.3403 300.0395526 +22.5766140     286.0466      72.3115      1.187     4.02     3.593293     20.38052     57.80206         7     0.885     0.600 -40.11   0
       195    417.8580    549.5717 300.1252634 +22.6581753     435.5489     72.23794      1.415     3.20     4.010196     20.38052     55.51671         8     0.810     0.769   9.16   0
       196    777.8129    548.4551 300.2377270 +22.7656983     948.3439     72.23794      1.403     2.83     3.978984     20.38052     124.4243        15     0.991     0.913  34.32   0
       197    594.1273    543.4418 300.1821277 +22.7092353     201046.7     72.21954      1.350     2.44       4.2573     20.38052     25889.92       199     1.440     1.379   7.44   0
       198    982.1137    545.0701 300.3025303 +22.8258991     265.2683     72.34825      1.381     3.61     3.814405     20.38052     45.04679         6     0.876     0.677 -40.69   0
       199    280.1567    543.3102 300.0844589 +22.6151016      3612.68     72.25633      1.468     2.64     3.279807     20.38052     385.9666        32     1.227     1.156  58.34   0
       200    846.4379    539.6329 300.2619841 +22.7837141     583.5963     72.27473      1.610     2.84     3.891301     20.38052     66.24348         8     0.854     0.674  52.10   0
       201    460.2715    539.9688 300.1415816 +22.6681291     325.5482     72.23794      1.431     2.95      4.10278     20.38052      44.0567         5     0.955     0.551  17.19   0
       202     41.1968    537.8050 300.0119693 +22.5418675     1617.398      72.0537      1.391     2.80     4.073773     20.38052     647.0664         9     1.367     0.409 -39.16   0
       203    625.2053    530.2292 300.1960975 +22.7147506     279.0666     72.23794      1.505     5.12     4.223787     20.38052     39.53366         7     1.247     0.595  15.01   0
       204    484.7478    524.0106 300.1543821 +22.6708811     2889.219     72.23794      1.576     2.67      4.18908     20.38052     362.1858        34     1.591     1.112  86.49   0
       205    329.1280    526.3062 300.1052121 +22.6249005     432.4711     72.34825      1.327     3.60     3.637922     20.38052     57.73202         9     0.969     0.728 -61.77   0
       206    933.8767    524.2207 300.2942551 +22.8054645     344.9664     72.23794      1.836     5.70     3.818643     20.38052      35.2704         6     1.403     0.654  -7.30   0
       207    896.0851    520.4742 300.2836859 +22.7930730     442.5111     72.34825      1.462     3.78     3.845118     20.38052     41.21209         6     0.822     0.498  -2.96   0
       208    801.8475    512.3781 300.2569341 +22.7625285      266.768     72.25633      1.094     3.65     3.934727     20.38052     40.20856         7     0.838     0.609  29.62   0
       209    881.8314    510.0399 300.2826295 +22.7858061      1611.48     72.25633      1.383     2.87     3.859298     20.38052     200.6518        17     1.004     0.926 -79.31   0
       210    752.9597    507.6557 300.2432303 +22.7465310     2576.501     72.21954      1.403     2.39     3.979937     20.38052     369.9736        25     1.128     1.007  25.27   0
       211     11.8325    508.4343 300.0123834 +22.5246340      707.453     72.27473      1.420     3.93     4.148486     20.38052       77.421        13     1.154     0.850  -6.39   0
       212    112.4653    507.5765 300.0439288 +22.5545673     270.8679     72.21954      1.226     3.72     3.819936     20.38052     33.74243         6     0.989     0.402 -18.56   0
       213    997.4852    505.4798 300.3201823 +22.8191183     453.3998     72.38499      1.505     3.05     3.822478     20.38052     53.65146         7     0.815     0.648  27.27   2
       214    996.1918    501.2116 300.3211648 +22.8175039     824.4796     72.12746      1.753     4.28     3.823285     20.38052     84.60629        14     1.168     1.019  57.32   2
       215    962.0856    504.7231 300.3093851 +22.8083041     207.3701     72.34825      1.364     3.47     3.822478     20.38052     34.95172         5     1.029     0.338  42.65   0
       216    540.3236    503.5508 300.1783272 +22.6816572     794.5591     72.23794      1.281     2.71     4.276753     20.38052     100.3378        14     1.010     0.814  58.71   0
       217    657.6945    504.5192 300.2145661 +22.7170967     414.1338     72.38499      1.181     3.00     4.056721     20.38052     63.59456         7     0.810     0.638  -8.11   0
       218   1010.2297    501.7409 300.3253725 +22.8218580      1231.16     72.25633      1.516     3.51     3.823083     20.38052     127.2341        17     1.169     0.917  28.92   0
       219    882.0464    499.9999 300.2859566 +22.7829845     2117.806     72.21954      1.564     3.78     3.862587     20.38052     250.5924        29     1.501     1.077  80.91   0
       220    635.3944    498.2254 300.2096632 +22.7086087     634.7097     72.21954      1.349     2.75     4.202744     20.38052      75.2204        12     0.896     0.840  17.83   0
       221    421.2413    497.7584 300.1431406 +22.6443114     293.4833     72.32988      1.222     4.88     4.072778     20.38052     43.64403         7     1.122     0.601  37.25   0
       222    920.1768    495.2096 300.2994028 +22.7930232     4353.631     72.23794      1.414     2.69     3.832105     20.38052     500.8126        30     1.154     1.106  59.76   0
       223    473.8429    497.0139 300.1597534 +22.6598602     228.7508     72.25633      1.216     2.51     4.235064     20.38052     64.46965         8     0.796     0.651  41.81   0
       224    561.4128    494.8208 300.1877282 +22.6854679     213.5884     72.21954      1.055     3.54     4.323398     20.38052      39.5238         5     0.966     0.374   5.37   0
       225    580.9941    491.2934 300.1949710 +22.6903209     318.8326     72.12746      1.230     4.71        4.352     20.38052     44.29779         8     1.208     0.521 -21.88   0
       226   1011.8711    485.8593 300.3310414 +22.8177828     743.5563     72.27473      1.521     4.07     3.826312     20.38052     95.47512        15     1.182     0.985 -48.73   0
       227    152.0266    485.0990 300.0635219 +22.5599790      996.767     72.18272      1.608     3.64     3.544948     20.38052     107.9261        20     1.249     1.047  29.33   0
       228    813.0165    479.3562 300.2711377 +22.7563823     349.2296     72.25633      1.278     2.88     3.897648     20.38052     42.40511         7     0.722     0.685  -5.97   0
       229    199.2470    477.2093 300.0807622 +22.5718718     235.6576     72.25633      1.188     3.99      3.49668     20.38052     48.74691         6     0.835     0.544  37.97   0
       230    143.2832    476.8037 300.0634972 +22.5549767     1839.154      72.1643      0.531    -2.36     3.627007     20.38052     1371.467         9     0.861     0.327 -37.44   0
       231   1008.1870    475.1616 300.3333653 +22.8136040     394.9792     72.23794      1.740     4.13     3.827321     20.38052     47.38451         6     1.121     0.434  26.08   0
       232    752.3561    469.8191 300.2553271 +22.7354769     438.0624     72.25633      1.235     3.18     3.949058     20.38052      59.7495         9     0.822     0.773  -5.06   0
       233    361.3081    468.0695 300.1341308 +22.6178250       195.71     72.36662      1.241     3.80     3.922086     20.38052     32.42344         5     0.835     0.496  33.96   0
       234    693.7040    465.6522 300.2384036 +22.7167145     764.5051      72.3115      1.277     2.35     3.966203     20.38052     111.8908        12     0.886     0.780 -79.61   0
       235    673.0969    464.3909 300.2323929 +22.7101803     283.6735     72.14588      1.686     4.50     3.966191     20.38052     35.90309         5     0.955     0.694  71.48   0
       236    481.9609    463.9249 300.1730229 +22.6527892     184.0651     72.20113      1.086     3.72     4.294411     20.38052      31.7601         5     0.652     0.610  -3.14   0
       237   1008.0176    458.1707 300.3388288 +22.8086676     607.6382     72.21954      1.465     3.65     3.827321     20.38052     70.70676        11     0.899     0.876 -50.56   0
       238    754.3625    457.7998 300.2598544 +22.7326234     840.3464     72.23794      1.286     2.71     3.942548     20.38052     115.5222        14     0.944     0.896  25.74   0
       239    911.8370    454.2644 300.3100957 +22.7787553     1068.011     72.23794      1.416     2.75     3.781533     20.38052     122.9178        15     1.065     0.846  44.44   0
       240    895.8762    450.5696 300.3063177 +22.7729151     596.2842     72.23794      1.401     3.09     3.725325     20.38052      91.6423        13     0.958     0.934  53.19   0
       241    870.3825    451.2559 300.2981454 +22.7654804      230.141     72.21954      1.350     4.31     3.644964     20.38052     35.09035         5     0.826     0.688 -40.78   0
       242    876.3026    450.3744 300.3002775 +22.7669994     247.8384     72.18272      1.090     3.56     3.656488     20.38052     57.69267         6     0.788     0.529  46.42   0
       243    640.2469    448.3715 300.2273600 +22.6957384     3224.293     72.25633      1.264     2.31     4.089884     20.38052     436.3946        25     1.060     1.029  48.33   0
       244   1001.1091    447.4808 300.3401439 +22.8035260     454.8385     72.34825      1.400     4.01     3.827321     20.38052     61.35169         7     0.993     0.464 -12.19   0
       245    116.3945    439.4073 300.0672793 +22.5361818     304.4287     72.09059      1.502     4.11     3.879517     20.38052     30.47094         7     1.016     0.476  -7.91   0
       246    480.1970    435.4278 300.1817244 +22.6440755     255.9021     72.20113      1.285     2.39     4.285096     20.38052     49.26412         5     0.709     0.445  23.11   0
       247    923.6331    427.7433 300.3223839 +22.7746613     632.0961     72.25633      1.486     2.55     3.796633     20.38052     69.57056        10     0.895     0.706  47.71   0
       248   1009.8190    426.3756 300.3497125 +22.8000635     844.7025     72.25633      1.409     3.14     3.827321     20.38052     99.89121        14     1.050     0.843  54.36   0
       249    659.6389    424.1417 300.2412659 +22.6945840     205.9792     72.25633      1.199     2.66     3.987035     20.38052     52.80045         5     0.738     0.433 -69.65   0
       250    750.7851    422.3732 300.2702395 +22.7213703     992.3852     72.25633      1.246     2.81     3.936246     20.38052     133.5036        13     1.015     0.767 -69.16   0
       251    546.5133    422.8375 300.2064568 +22.6603257     380.5958     72.21954      1.155     2.27     4.283243     20.38052     69.93134         7     0.801     0.562  13.65   0
       252    255.1196    420.4914 300.1165453 +22.5723381      587.213     72.36662      1.302     2.41     3.924351     20.38052     75.51434        10     0.831     0.730 -88.57   0
       253    317.0714    416.2250 300.1371979 +22.5896806     3827.009     72.23794      1.369     2.51     3.921271     20.38052     435.4975        29     1.163     1.054  77.91   0
       254    264.3372    410.8974 300.1225255 +22.5723463     7635.189     72.32988      1.434     2.69     3.946404     20.38052     958.3013        38     1.245     1.118  60.03   0
       255    405.1172    405.1369 300.1681891 +22.6128800     4858.959     72.32988      1.335     2.57     4.168109     20.38052     565.6854        30     1.178     1.009  62.57   0
       256    649.3508    401.9035 300.2452789 +22.6851124     18716.12     72.29311      1.331     2.45     3.968628     20.38052     2434.258        51     1.221     1.110  74.89   0
       257    667.1698    401.8517 300.2508467 +22.6904338     881.7755     72.27473      1.848     6.08     3.950044     20.38052     88.31765        14     1.444     0.721 -36.94   0
       258    496.7182    403.4938 300.1972322 +22.6398518      488.196     72.38499      1.213     2.36     4.228422     20.38052     48.21334         5     0.691     0.452  24.14   0
       259    892.8702    398.5260 300.3222738 +22.7570524     287.0132      72.3115      1.369     2.53     3.680743     20.38052     42.08072         5     0.727     0.465  18.94   0
       260    846.2055    392.5657 300.3096578 +22.7413701      405.554     72.23794      1.230     2.89     3.654608     20.38052     55.34381         8     0.855     0.643  57.29   0
       261    269.3932    389.1232 300.1311644 +22.5676096     346.8918     72.18272      1.440     3.15     4.126368     20.38052     48.40727         5     0.749     0.431  67.95   0
       262    983.0138    384.6102 300.3549061 +22.7800305     882.3386     72.14588      1.618     3.51      3.86608     20.38052     101.5059        15     1.082     0.939 -62.10   0
       263    519.6822    384.1809 300.2106491 +22.6411826     390.7851     72.21954      1.458     1.87     4.153007     20.38052     63.71715         5     0.672     0.450 -76.29   0
       264    693.0287    383.0701 300.2649986 +22.6927797     295.6234     72.23794      1.374     5.07     3.903234     20.38052     38.04516         8     0.974     0.746 -63.92   0
       265    204.0195    381.9616 300.1131605 +22.5459598     1963.036     72.25633      1.405     2.68     4.203631     20.38052     248.1475        21     1.091     0.965  32.67   0
       266    589.9772    371.3911 300.2366882 +22.6585627     6648.278     72.23794      1.292     2.27     4.007973     20.38052     950.0883        34     1.164     0.993  64.69   0
       267   1003.6090    371.4997 300.3655862 +22.7824231     1210.758     72.12746      1.540     3.10     3.852761     20.38052     143.6812        19     1.204     0.993  82.21   0
       268    304.9162    370.7694 300.1481686 +22.5729849     656.6024     72.25633      1.333     2.73     4.292548     20.38052     88.54795        11     0.945     0.710  68.35   0
       269    162.4647    363.8596 300.1061160 +22.5283071     521.2915     72.27473      1.388     2.95     4.100306     20.38052     61.53466        10     0.911     0.727  -0.22   0
       270    849.9286    363.2518 300.3203320 +22.7340566     359.7033     72.23794      1.361     4.26     3.873276     20.38052     37.09763         7     0.730     0.708  52.58   0
       271      9.8838    361.6107 300.0594319 +22.4819194     1443.031     72.20113      1.714     3.39     3.850957     20.38052     140.7727        23     1.348     1.072  34.38   0
       272    794.1660    360.3864 300.3038782 +22.7165403     1302.301     72.21954      1.506     2.84     3.800231     20.38052     154.7737        22     1.322     0.949  48.13   0
       273    703.6608    361.6491 300.2752628 +22.6898065     470.3927     72.29311      0.957     2.35     3.853245     20.38052     95.85709        11     0.983     0.683  31.92   0
       274    496.6377    357.6463 300.2120856 +22.6266563       6266.7     72.27473      1.304     2.19     4.049806     20.38052     972.8583        30     1.113     1.007  55.00   0
       275    985.9390    352.3076 300.3663017 +22.7716156     567.9562      72.3115      1.413     3.32     3.898852     20.38052     81.98197        10     1.042     0.660  58.93   0
       276    888.5797    352.1323 300.3359921 +22.7424283      1398.16     72.21954      1.299     2.51     4.004063     20.38052     172.1005        16     0.958     0.888  78.29   0
       277    481.3095    346.3319 300.2109853 +22.6188142     548.6727     72.38499      1.291     3.77      4.02996     20.38052     56.77823         9     1.072     0.612   2.15   0
       278    563.8961    344.1675 300.2374001 +22.6429287     537.5472     72.20113      1.377     3.01     4.004584     20.38052     53.00568         8     0.804     0.662  36.38   0
       279      7.9766    342.8435 300.0649285 +22.4759614     1131.893     72.29311      1.796     3.51     3.918738     20.38052     131.9135        20     1.269     1.128  47.84  16
       280    544.3782    342.2438 300.2319468 +22.6365304     334.1248     72.29311      1.216     4.33      4.02996     20.38052     41.92108         7     0.944     0.565  31.13   0
       281    861.6384    339.6750 300.3316337 +22.7307825     574.9477     72.20113      1.338     3.17     3.991166     20.38052     73.20193        11     1.042     0.676 -49.00   0
       282    384.1982    336.8075 300.1838529 +22.5869862     2566.986      72.0537      1.343     2.44     4.380734     20.38052      343.809        24     1.153     0.932  36.06   0
       283    102.5879    334.1582 300.0971426 +22.5018322     926.9459     72.21954      1.534     3.54     4.141161     20.38052     116.8744        18     1.148     1.056   0.77   0
       284    731.5107    331.5388 300.2937114 +22.6894898     234.7674     72.32988      1.128     3.66     3.803271     20.38052     40.82624         6     0.991     0.389  20.03   0
       285    353.5178    326.2152 300.1777439 +22.5747517     29979.26     72.21954      1.371     2.49     4.458537     20.38052     3689.763        68     1.305     1.174  53.01   0
       286    888.3129    323.9156 300.3450648 +22.7342345     1325.748     72.36662      1.366     2.30     4.006645     20.38052     199.8073        16     0.971     0.899  32.07   0
       287    843.5183    321.5304 300.3318714 +22.7201416     356.2247     72.34825      1.599     3.62     3.969281     20.38052     46.46126         6     0.967     0.391  69.39   0
       288     49.7962    313.9874 300.0872822 +22.4802166     5069.161     72.09058      1.598     3.14     4.148724     20.38052     524.9058        35     1.361     1.162  48.07   0
       289    927.2347    312.9403 300.3607641 +22.7427262      392.481     72.25633      1.819     5.18     4.023546     20.38052     31.25808         7     1.327     0.572 -42.60   0
       290    803.7194    312.8803 300.3222707 +22.7057418     556.2469     72.36662      1.367     3.11     3.945325     20.38052     69.45777         9     0.920     0.760   3.72   0
       291    227.8805    312.5157 300.1431118 +22.5331709     518.0074     72.38499      1.355     3.46     4.468929     20.38052     60.72355         8     0.838     0.728  29.74   0
       292    452.1130    311.8080 300.2130988 +22.6001498     535.0425     72.14588      1.381     2.38      4.17404     20.38052     67.05005         8     0.770     0.700   6.85   0
       293    378.8880    307.5941 300.1916784 +22.5770037     2991.397     72.14588      0.814     1.78     4.436278     20.38052      1082.71         8     0.695     0.461  37.78   0
       294    763.9833    305.9656 300.3121285 +22.6918592     1985.845     72.23794      1.409     2.78     3.868445     20.38052     241.5768        25     1.173     1.033  80.41   0
       295    572.4483    300.4381 300.2542511 +22.6329235     478.2202     72.25633      1.396     2.61     3.993899     20.38052      61.6887         7     0.906     0.495 -86.23   0
       296    979.0593    299.1002 300.3814197 +22.7542532     633.9011     72.32988      1.376     2.59      3.91617     20.38052     94.90437        10     0.838     0.810 -13.53   0
       297    832.8966    292.3854 300.3380156 +22.7085819     211.9324     72.14588      1.203     3.39     4.009234     20.38052     33.07107         5     0.771     0.432 -20.53   0
       298    425.7058    290.4123 300.2118210 +22.5860927     2153.316      72.1643      1.547     3.55     4.326546     20.38052     276.8677        24     1.424     0.886  69.95   0
       299    637.9062    289.5561 300.2781685 +22.6493966     296.3872     72.25633      1.082     2.60     3.943968     20.38052     48.64632         5     0.726     0.440  23.55   0
       300    864.8637    283.4055 300.3508957 +22.7155669     721.7347     72.21954      1.270     2.84     4.019824     20.38052     108.6439        10     0.977     0.684  55.81   0
       301    764.3315    281.1365 300.3202920 +22.6848247     358.1753     72.29311      1.368     3.09     3.895748     20.38052     38.78491         5     0.752     0.432  72.36   0
       302    747.1714    281.1749 300.3149314 +22.6796991     447.5545     72.23794      1.193     2.19      3.83357     20.38052     69.89462         8     0.765     0.672 -88.52   0
       303    501.5029    270.0755 300.2420108 +22.6029517     1202.484     72.38499      1.357     2.59     3.939998     20.38052       162.03        17     1.032     0.977  61.01   0
       304   1012.6622    265.8447 300.4026917 +22.7547405     318.6552     72.25633      1.279     3.50     3.801965     20.38052     66.09969         8     1.016     0.727  56.34   0
       305    907.3307    262.9536 300.3707729 +22.7223934     159.8957     72.21954      1.401     4.61     4.090576     20.38052     29.04692         5     1.063     0.568  18.32   0
       306    746.4497    262.0253 300.3209184 +22.6739773     2214.171     72.25633      1.272     2.31     3.833082     20.38052     299.3682        18     0.996     0.873  73.06   0
       307   1007.8124    256.3066 300.4042725 +22.7505457     3086.669     72.18272      1.499     2.73     3.804908     20.38052     379.4977        25     1.175     1.087 -63.91   0
       308    454.9829    246.0007 300.2353386 +22.5821013     639.3148     72.14588      1.212     1.91     3.992978     20.38052     111.6097         8     0.762     0.605  41.22   0
       309    129.8111    239.7653 300.1362217 +22.4828908     1414.901     72.21954      1.684     3.27     4.480127     20.38052     140.3162        22     1.290     1.058 -53.08   0
       310    160.5891    239.9555 300.1457268 +22.4921689     660.1729     72.23794      1.410     2.81     4.521926     20.38052     80.03136        12     0.904     0.870 -13.11   0
       311   1023.2481    236.9401 300.4153704 +22.7495917     375.0787     58.58255      1.412     3.41     3.708246     20.38052     70.06516         8     0.939     0.642  54.16  24
       312    867.5642    233.7194 300.3678545 +22.7020855     282.1796     72.18272      1.538     4.11     4.192683     20.38052     33.99416         7     0.999     0.482 -82.40   0
       313    213.5368    231.6620 300.1648774 +22.5056530     369.5141     72.27473      1.348     4.93     4.525594     20.38052     59.40865         9     1.188     0.760  61.46   0
       314     69.0500    229.2996 300.1207329 +22.4616756      404.969     72.32988      1.703     4.06        4.579     20.38052     34.75525         7     0.760     0.665  -4.98   0
       315    889.8615    225.8476 300.3773605 +22.7064934     297.2974     72.27473      1.181     2.11     4.204073     20.38052     56.55913         6     0.718     0.540  39.71   0
       316    818.2194    223.3817 300.3558227 +22.6843458     696.2451     72.23794      1.357     3.02     4.088827     20.38052     96.75804        11     0.952     0.823  72.08   0
       317    408.3543    222.9587 300.2282997 +22.5615149     439.1676     72.29311      1.311     2.31      4.30078     20.38052     66.21568         7     0.691     0.669  89.11   0
       318    916.3401    212.4739 300.3899555 +22.7105692      2145.01     72.27473      1.350     2.27     4.151225     20.38052     312.2565        21     1.089     0.939  64.90   0
       319    334.8073    209.5511 300.2097641 +22.5356332     2163.224     72.23794      1.389     2.42     4.490939     20.38052     326.4497        22     1.100     1.018 -80.80   0
       320    412.6295    204.7112 300.2355476 +22.5575521     1233.097     72.20113      1.633     3.93     4.284572     20.38052     120.0965        19     1.296     1.015 -14.48   0
       321    814.6793    204.0168 300.3609993 +22.6777171     505.1768     72.23794      1.320     2.98     4.138047     20.38052     66.90451         8     0.859     0.641 -81.81   0
       322     10.7326    198.1471 300.1127159 +22.4352525     473.2136     72.25633      1.786     4.69     4.566471     20.38052     39.54577         8     1.074     0.581  29.03   0
       323    229.2094    196.8272 300.1810468 +22.5003436      648.803     72.23794      1.392     2.73     4.527971     20.38052     117.9444        13     1.019     0.835  17.47   0
       324    832.4905    193.4877 300.3699664 +22.6800187     636.7736     72.40335      1.322     2.77     4.197644     20.38052     90.43236        12     0.926     0.838 -26.05   0
       325    767.3945    193.7729 300.3495821 +22.6606203     1772.045     72.21954      1.419     2.35     4.085434     20.38052     237.2549        16     1.032     0.835  55.46   0
       326    251.0799    190.2565 300.1899783 +22.5050084     543.3107     72.27473      1.402     2.41     4.522128     20.38052     70.13638         7     0.716     0.636  -3.66   0
       327    540.7725    186.0656 300.2814827 +22.5905665     251.5608     72.21954      1.130     4.87     4.244399     20.38052     53.31643         9     1.206     0.681  17.11   0
       328    771.5959    184.8571 300.3537828 +22.6593137      801.706     72.20113      1.566     5.62     4.142181     20.38052     89.37686        14     1.357     0.896 -60.17   0
       329    691.7587    184.5773 300.3289937 +22.6353384     1231.458     72.27473      1.334     2.28      4.25363     20.38052     195.5752        16     0.989     0.884  85.56   0
       330    513.0473    181.2154 300.2744231 +22.5808710      408.879     72.27473      1.316     2.29     4.007224     20.38052     54.80439         7     0.728     0.628 -13.96   0
       331    887.5114    176.0962 300.3927618 +22.6914793     1522.285      72.4217      1.318     2.77     4.166035     20.38052     177.3686        17     1.091     0.873  39.43   0
       332    618.1747    176.3848 300.3087268 +22.6109565      886.808     72.25633      1.205     2.25     4.407023     20.38052     153.2115        12     0.952     0.695  80.73   0
       333    899.5462    175.2097 300.3968023 +22.6948250     730.1973     72.23794      1.258     2.79     4.115619     20.38052     103.3425        10     0.876     0.743 -75.33   0
       334    946.1683    174.6502 300.4115246 +22.7086120     358.8894     72.27473      1.425     2.22     3.917432     20.38052     42.66245         5     0.704     0.448 -17.45   0
       335   1016.2319    165.5838 300.4363220 +22.7269615     1125.574     72.21954      1.363     2.53     3.571777     20.38052     159.6908        15     1.032     0.856  -6.39   0
       336     39.7803    161.9408 300.1334791 +22.4335629     544.1038     72.18272      1.672     4.32     4.383743     20.38052      57.2703         8     0.998     0.811 -87.80   0
       337    674.0156    161.7638 300.3308628 +22.6234679     688.0599     72.23794      0.611     0.71     4.531667     20.38052     407.3947         6     0.615     0.422  -5.96   0
       338    250.1179    158.5047 300.1999740 +22.4955991     530.4843     72.40334      1.238     2.68     4.515809     20.38052     93.99355         9     0.878     0.652  61.11   0
       339    112.1404    153.1255 300.1588225 +22.4527154     2253.949     72.29311      1.529     2.91     4.536411     20.38052     220.0939        27     1.262     1.093  32.85   0
       340    935.3533    150.3006 300.4160465 +22.6983711     719.5425     72.25633      1.399     2.64     3.985188     20.38052      90.2851        13     0.942     0.842 -59.45   0
       341     61.6198    150.1075 300.1441011 +22.4367098     550.2937      72.1643      1.685     3.69     4.502378     20.38052     70.42668        10     1.106     0.650 -38.28   0
       342    269.4772    146.4800 300.2098930 +22.4979438     5692.616     72.34825      1.467     2.56     4.497268     20.38052     758.5465        35     1.285     1.076  64.32   0
       343     53.5064    140.7451 300.1446152 +22.4315900     1413.101     72.29311      1.656     3.02     4.556547     20.38052     171.6525        22     1.321     1.076  67.26   0
       344    252.8835    137.4305 300.2076661 +22.4903733     612.2922     72.25633      1.286     2.41     4.497615     20.38052     79.24348         5     0.718     0.435 -24.51   0
       345    913.6069    128.1758 300.4164370 +22.6855002     3504.157     72.21954      1.418     2.55     4.209694     20.38052     416.9536        30     1.213     1.119  60.96   0
       346   1017.2509    126.9170 300.4491767 +22.7161394     2837.954     72.25633      1.497     2.91     3.469593     20.38052     323.4175        28     1.174     1.114  71.60  16
       347    463.0545    123.3928 300.2776068 +22.5492823     587.8575     72.23794      1.266     2.75     3.861452     20.38052     76.32991         9     0.852     0.681 -60.37   0
       348    216.0766    123.8076 300.2006367 +22.4754339     327.6508     72.18272      1.211     2.36     4.504093     20.38052     56.78729         5     0.747     0.487  55.35   0
       349    577.1371    121.2569 300.3138186 +22.5828226     315.3956     72.29311      1.225     3.03     4.546048     20.38052     45.98685         6     0.743     0.560  39.92   0
       350    386.8988    115.2552 300.2565436 +22.5241396     698.0584     72.32988      1.629     4.01     4.367722     20.38052     78.82033        10     1.032     0.838  60.68   0
       351    391.0840    113.5080 300.2584123 +22.5248908     417.1895     72.40334      1.683     4.67     4.359402     20.38052     43.37624         9     0.946     0.801  26.87   0
       352    514.3629    110.5609 300.2977390 +22.5609554     1750.772      72.3115      1.332     2.63     4.131146     20.38052     234.3584        20     1.141     0.916  69.76   0
       353    153.1324    112.1864 300.1848347 +22.4532389     657.5358     72.25633      1.503     3.04     4.536411     20.38052     64.92388         8     0.768     0.693 -29.78   0
       354    442.6556    111.1329 300.2752317 +22.5396506     519.7007     72.29311      1.504     2.33     4.056824     20.38052     70.52344         7     0.781     0.585  68.05   0
       355    575.8279    110.0164 300.3170546 +22.5791990     374.7054     72.25633      1.417     3.76     4.545707     20.38052     45.52425         5     0.807     0.503  35.29   0
       356    257.9014    106.1374 300.2193705 +22.4828858     373.9492     72.32988      1.185     1.92     4.471743     20.38052      66.4057         6     0.707     0.507 -66.07   0
       357    803.2866     99.9691 300.3911825 +22.6443809     303.2133     72.21954      1.408     4.49     4.462836     20.38052     41.10654         7     0.941     0.636 -79.15   0
       358    159.5938     96.2230 300.1920174 +22.4505892     258.2581     72.21954      1.371     4.37     4.529781     20.38052     40.57513         6     0.953     0.570  26.38   0
       359    948.7503     94.9712 300.4381624 +22.6864585     317.9519     72.25633      1.430     2.32     4.156972     20.38052     48.90445         5     0.768     0.462  35.15   0
       360    288.4604     90.3754 300.2339836 +22.4875099     6095.083     72.21954      1.439     2.56      4.45194     20.38052     763.2551        38     1.348     1.069  52.72   0
       361    794.7246     91.0965 300.3913895 +22.6392669     315.4106     72.38499      1.228     3.58     4.486738     20.38052     50.05799         7     0.859     0.595  61.36   0
       362    699.8989     91.5905 300.3616764 +22.6110347      198.759     72.12746      1.154     3.92     4.422227     20.38052     29.12407         5     0.895     0.492  -0.16   0
       363    139.7344     89.8576 300.1879073 +22.4428112     746.5507     72.27473      1.433     2.91     4.572161     20.38052      90.5941        13     0.971     0.855 -28.14   0
       364    917.6279     87.9069 300.4307450 +22.6751167     322.8651      72.1643      1.237     2.90     4.384016     20.38052     60.13363         7     0.871     0.593 -11.76   0
       365    260.4045     84.6033 300.2271285 +22.4774484     348.9439      72.0537      1.559     3.98     4.461762     20.38052     43.98952         6     0.925     0.489  -0.47   0
       366    303.7174     81.9514 300.2414596 +22.4896586     332.7481     72.25633      1.146     2.53     4.446508     20.38052     74.84511         9     0.942     0.601  35.77   0
       367     50.2064     80.9606 300.1629678 +22.4134323     418.9767     72.27473      1.567     3.05     4.953133     20.38052     54.58452         8     0.985     0.621  10.02   0
       368    930.4770     80.3514 300.4372016 +22.6767859     284.4602     72.23794      1.378     4.20      4.36444     20.38052     33.72511         5     0.973     0.517 -46.37   0
       369    534.5588     75.7118 300.3153228 +22.5569825     6302.159     72.23794      1.384     2.45     4.485952     20.38052     836.7852        37     1.241     1.083  52.10   0
       370    420.0266     75.7969 300.2796422 +22.5227185     611.6511     72.20113      1.314     2.87     4.395256     20.38052     80.46962        10     0.894     0.734  50.07   0
       371    591.5606     70.4030 300.3347942 +22.5725182     341.9796     72.27473      1.440     3.91     4.461479     20.38052     49.67345         7     1.008     0.591  68.71   0
       372    554.9444     70.0623 300.3235015 +22.5614604     259.6273     72.29311      1.272     3.96     4.558248     20.38052     38.04477         6     0.962     0.467  38.36   0
       373    786.8494     66.0281 300.3970599 +22.6296993     833.8582     72.25633      1.595     3.62     4.607916     20.38052     116.0114        14     1.425     0.757 -72.50   0
       374    728.1443     67.0817 300.3784218 +22.6124376     312.1204     72.27473      1.350     4.01     4.499844     20.38052     36.97584         6     0.938     0.489  55.92   0
       375    879.8521     64.4296 300.4265738 +22.6570618     551.4702     72.25633      1.536     4.01     4.434691     20.38052     71.50703        10     1.123     0.755 -24.31   0
       376    227.2803     59.4573 300.2249772 +22.4603022     455.6999     72.27473      1.553     3.74     4.462909     20.38052     58.72935         6     0.699     0.687 -84.46   0
       377    662.8790     55.7977 300.3617430 +22.5896623      6243.23     72.14588      1.403     2.65     4.344542     20.38052     882.5339        37     1.302     1.049  70.38   0
       378    585.8787     58.3723 300.3369237 +22.5673582     467.1874     72.25633      1.210     2.11     4.446878     20.38052     74.56724         6     0.760     0.480  -5.82   0
       379    437.7731     54.8456 300.2919555 +22.5220095     1502.906     72.25633      1.343     2.32     4.446118     20.38052     232.1588        18     1.124     0.865  40.86   0
       380    704.1529     53.4222 300.3753727 +22.6013299     1037.005     72.25633      1.491     2.95     4.476878     20.38052      113.296        15     1.008     0.906  51.03   0
       381    774.3619     51.2558 300.3979552 +22.6217137     387.9746     72.23794      1.760     3.48     4.682835     20.38052     38.44125         5     0.767     0.457  76.04   0
       382    720.1068     49.3384 300.3816675 +22.6049290     585.5834     72.32988      1.312     2.59     4.572182     20.38052     84.23279         9     0.896     0.683  -0.97   0
       383    186.8600     47.3669 300.2163274 +22.4447216     796.9552     72.27473      1.724     3.08      4.48826     20.38052     89.80897        12     0.994     0.896  30.40   0
       384     33.6418     47.8520 300.1685504 +22.3989603     364.9928     72.23794      1.649     4.95     5.105506     20.38052     33.07329         6     1.054     0.659  72.33   0
       385    989.5460     47.0168 300.4664318 +22.6848590     597.7538     72.21954      1.830     3.35     4.193767     20.38052     65.16095        10     1.080     0.670  40.43   0
       386    758.9890     44.7503 300.3952720 +22.6152429     465.4236     72.25633      1.476     5.47     4.712384     20.38052     66.07337         9     1.201     0.702 -15.53   0
       387    707.1089     40.7371 300.3804047 +22.5985658     2675.797     72.32988      1.373     2.44     4.518751     20.38052     400.5598        26     1.146     1.078   3.93   0
       388    722.2390     39.5902 300.3854911 +22.6027630     909.5894     72.23794      1.845     5.02     4.630801     20.38052     69.46931        15     1.505     0.778  51.44   0
       389    347.9005     41.2089 300.2684081 +22.4911809     471.1203     72.10902      1.384     2.60     4.448314     20.38052     58.30765         7     0.852     0.504 -51.78   0
       390      1.4960     34.7680 300.1628033 +22.3855708     486.7269     57.13528      1.051     2.53     5.143368     20.38052     97.72502         8     0.954     0.500 -88.90  24
       391    793.5815     32.2209 300.4101147 +22.6219876     1399.417     72.23794      1.439     2.53     4.803813     20.38052     199.1677        21     1.116     1.013  46.85   0
       392    871.6425     27.2403 300.4360661 +22.6439053     235.6991     72.32988      1.120     3.40     4.466047     20.38052     30.60328         5     0.739     0.452 -74.06   0
       393    731.6234     25.3798 300.3930205 +22.6014832     674.9474     72.23794      1.417     2.91     4.813022     20.38052     87.02041        11     0.996     0.715  36.78   0
       394    537.2012     24.9593 300.3325930 +22.5431810     1095.483     72.25633      1.391     2.92     4.662882     20.38052     128.4644        15     1.054     0.864  68.85   0
       395    110.0661     24.9659 300.1997148 +22.4152826     486.0352     72.23794      1.269     3.28     5.064796     20.38052     64.30193         9     0.929     0.657 -21.01   0
       396    440.8604     22.9208 300.3032617 +22.5137563     762.6272     72.29311      1.381     2.83     4.706753     20.38052     109.2096        13     0.986     0.851 -89.91   0
       397    823.3137     22.0972 300.4226641 +22.6279693     354.5616     72.40334      1.144     2.46     4.725823     20.38052     70.78915         7     0.818     0.623  85.01   0
       398    336.5594   1021.5097 299.9465605 +22.7692153     899.1577     66.82821      1.782     4.11     11.85697     20.38052     98.78599        18     1.263     1.018 -26.74  16
       399    245.4897   1013.5723 299.9208221 +22.7396110     2510.431     72.21954      6.630    32.08      71.8753     20.38052     72.52646       260     6.343     4.505 -15.63  19
       400    272.5413   1010.0097 299.9303926 +22.7467077     3387.893     72.20113      7.393    24.69     46.82733     20.38052     104.8153       181     5.423     3.122  -8.45  19
       401    538.3298     10.4288 300.3376527 +22.5393406     299.1745     72.23794      1.392     3.45     4.704838     20.38052     44.08443         5     0.727     0.473  15.29   0
       402    241.3347    995.2400 299.9254947 +22.7331080     4476.003     72.20113      6.987    18.90     61.31615     20.38052     88.64983       239     4.657     4.004 -89.17  19
       403    262.3993    994.2338 299.9323716 +22.7391408     5745.484     72.20113      9.950    30.38     46.66073     20.38052     109.0192       544     6.692     6.153  -4.04  19
       404    279.3069    983.4599 299.9411342 +22.7411250     8582.591      72.3115     10.287    38.85     30.80247     20.38052     189.2023       897    12.512     4.972  63.37  19
       405    206.6233    980.7629 299.9194130 +22.7185403     1216.582     72.25633      5.322    16.58     60.12673     20.38052     44.89417        37     4.552     1.678  52.59   2
