#   1 NUMBER                 Running object number                                     
#   2 X_IMAGE                Object position along x                                    [pixel]
#   3 Y_IMAGE                Object position along y                                    [pixel]
#   4 ALPHA_J2000            Right ascension of barycenter (J2000)                      [deg]
#   5 DELTA_J2000            Declination of barycenter (J2000)                          [deg]
#   6 FLUX_APER              Flux vector within fixed circular aperture(s)              [count]
#   7 FLUXERR_APER           RMS error vector for aperture flux(es)                     [count]
#   8 FLUX_RADIUS            Fraction-of-light radii                                    [pixel]
#   9 FWHM_IMAGE             FWHM assuming a gaussian core                              [pixel]
#  10 BACKGROUND             Background at centroid position                            [count]
#  11 THRESHOLD              Detection threshold above background                       [count]
#  12 FLUX_MAX               Peak flux above background                                 [count]
#  13 ISOAREA_IMAGE          Isophotal area above Analysis threshold                    [pixel**2]
#  14 A_IMAGE                Profile RMS along major axis                               [pixel]
#  15 B_IMAGE                Profile RMS along minor axis                               [pixel]
#  16 THETA_IMAGE            Position angle (CCW/x)                                     [deg]
#  17 FLAGS                  Extraction flags                                          
         1    215.6423     14.6973 300.2354403 +22.4423994     3871.081     72.55362      1.637     3.34     5.339042     20.46958     432.0355        37     1.467     1.154  48.98   0
         2    541.6509     12.2776 300.3376828 +22.5393173     330.4972     72.55362      1.233     1.87     4.688056     20.46958     58.37218         5     0.680     0.444 -70.25   0
         3    777.0344      7.5218 300.4125678 +22.6083880     972.9475     72.49815      1.407     2.91     5.233311     20.46958     107.4445        14     1.088     0.852  51.14  16
         4    331.8319      6.8019 300.2741420 +22.4749275     1075.318     72.51665      1.387     3.43      5.46597     20.46958     153.7412        16     1.243     0.748  81.68  16
         5    815.3366      2.7070 300.4260698 +22.6184617     709.4028     63.80207      1.611     4.02     5.253763     20.46958     62.69536        16     1.204     0.912  47.93  24
         6      8.0584     14.9608 300.1708267 +22.3802878     336.2989     72.55362      1.422     4.53     6.860462     20.46958     47.40274         8     0.969     0.666 -88.39   0
         7    738.2373      2.3482 300.4021502 +22.5952925     454.1236     61.94678      1.231     3.22     5.180726     20.46958     67.58206         8     0.893     0.602  -4.91  24
         8    216.5082   1006.4524 299.9136890 +22.7272297     2405.082     72.60904      5.909    26.01     80.28609     20.46958     73.78159       114     4.814     3.902  64.23  18
         9    339.8586   1022.9850 299.9466735 +22.7689872     550.7212     60.27935      1.506     5.91       14.118     20.46958     86.05108        12     1.105     0.888  19.25  24
        10    294.7433   1023.3202 299.9325305 +22.7555446     480.4386     58.47282      1.738     6.50     48.14728     20.46958     43.92476        10     1.483     0.800   1.45  24
        11    129.4269   1013.0967 299.8844561 +22.7029949     4582.923     72.49815     15.321    73.95     74.33258     20.46958     105.0101      1310    20.996     7.226  47.30  27
        12    124.3577    960.8413 299.8998810 +22.6864985     5490.173     72.64596     22.552    84.40     34.01017     20.46958     143.4625      2954    18.609    15.037  -7.27  19
        13    591.4318   1002.7128 300.0315779 +22.8386445     2310.879     72.51665      1.897     4.55     3.493629     20.46958     144.8427        33     1.440     1.375 -43.42   0
        14    677.8879    997.8995 300.0600757 +22.8631906     8352.652     72.71975      1.941     4.45     3.552554     20.46958     513.4017        46     1.527     1.439  28.76   3
        15    683.5969    995.7419 300.0625565 +22.8642834     9363.021     72.51665      1.929     4.44     3.536021     20.46958     501.0665        49     1.515     1.469  65.50   3
        16    778.3359    998.7729 300.0910946 +22.8935582        620.2     72.55362      1.921     5.40     3.377127     20.46958     42.09165        12     1.240     0.877  23.86   0
        17    207.5225    978.0056 299.9201502 +22.7163795     586.3951     72.46116      2.347     6.15     56.54625     20.46958     33.62487         9     1.824     0.582 -80.45   2
        18    213.1794    989.2893 299.9182381 +22.7213115     1495.058     72.47966      3.777    10.70     65.87262     20.46958     45.88403        25     1.835     1.737  78.03   2
        19    120.9442    928.4445 299.9093580 +22.6761893     4253.846      72.5721     17.554    60.62     9.888971     20.46958     88.17014       978    15.321     6.655 -29.95   3
        20    542.5383    987.1718 300.0214085 +22.8195226     394.2417     72.55362      1.712     2.41     3.315659     20.46958     47.25045         5     0.777     0.654 -33.74   0
        21     15.8388    986.5237 299.8578058 +22.6612796     765.3468     72.53513      5.644     5.31    -6.141357     20.46958      29.7392         5     1.737     0.458 -34.86   1
        22     26.5995    984.6075 299.8617722 +22.6639614     750.4722     72.36858      4.269     7.30     0.952208     20.46958     47.16958        12     1.720     0.867 -13.31   0
        23     10.8567    999.2610 299.8521142 +22.6634328       1623.4      72.6275     11.528    16.64    -11.95743     20.46958     52.54944        48     3.224     2.387  11.38  27
        24    971.8056    981.1017 300.1571753 +22.9464747     721.8605     72.44265      2.128     7.19     3.377052     20.46958     48.43608        13     1.557     0.930  39.35   2
        25      1.4361    980.2907 299.8553594 +22.6551695     701.1685     57.10389      3.845     4.37    -13.40194     20.46958     38.58324         5     1.523     0.358 -64.47  24
        26      3.1825   1018.2327 299.8435578 +22.6665635     2000.247     65.84972      6.551    18.24    -23.75976     20.46958     55.29629        92     4.465     2.070  86.16  27
        27    192.5716   1019.0236 299.9021564 +22.7236480     88.82372     72.55362      1.113     3.95     91.30816     20.46958     26.02103         5     0.906     0.494 -88.37  16
        28    190.1893    967.3279 299.9182348 +22.7081168     1664.907     72.55362      4.892    13.68     47.21988     20.46958     50.25921        45     3.079     1.691  35.19   2
        29    398.6638   1010.1783 299.9691374 +22.7829603      532.798     72.53513      2.223     4.51     3.589341     20.46958     34.92463         7     1.018     0.568 -19.92   0
        30     25.3825   1023.1950 299.8488397 +22.6746510     460.0355     59.13406      1.989     3.46     -3.19521     20.46958     34.11845         5     1.325     0.262 -34.73  24
        31    696.3221    965.0720 300.0765004 +22.8592991     6981.343     72.66441      1.839     4.02     3.534737     20.46958     423.3112        44     1.468     1.358  37.90   0
        32    576.3140    958.8954 300.0411261 +22.8215414     389.4891     72.73818      2.132     5.45       3.4645     20.46958     31.07569         7     1.295     0.647  75.14   0
        33    288.1248    959.1536 299.9513486 +22.7351640    -129.4246     72.55362      1.000     2.58     22.60418     20.46958     58.80649         6     0.755     0.535  39.29   0
        34     13.3000   1009.3920 299.8495771 +22.6670688     1356.783     72.46116     10.883    15.59    -12.43985     20.46958     34.96277        34     3.163     2.136 -83.12  19
        35    604.7621    955.8619 300.0509731 +22.8292023     1533.531      72.5721      1.749     4.44     3.554992     20.46958      110.166        26     1.349     1.191 -42.35   0
        36    498.5232    952.3929 300.0190193 +22.7963454     1101.113     72.49815      1.819     4.32     3.190179     20.46958     80.61446        23     1.414     1.075 -58.71   0
        37    429.2418    950.2545 299.9981494 +22.7749507       6644.2     72.55362      1.788     3.76     3.283854     20.46958     530.8253        45     1.398     1.383 -82.35   0
        38    462.0705    937.3559 300.0125633 +22.7810989     629.6411     72.51665      1.690     3.93     3.235738     20.46958     54.50137         9     0.874     0.801 -63.50   0
        39      2.5673   1000.5043 299.8491347 +22.6613001     1333.642     63.04099     17.016    20.59    -18.62234     20.46958      48.4703        69     5.079     2.319 -73.61  27
        40    975.4533    929.0610 300.1752446 +22.9326260     2112.352     72.60904      1.943     4.68     3.601928     20.46958     115.6318        31     1.493     1.266   3.44   0
        41    626.0006    926.2595 300.0672184 +22.8270778      434.871     72.51665      1.863     5.53      3.58943     20.46958      37.7376         9     1.245     0.693  16.25   0
        42    474.0328    926.1187 300.0199422 +22.7814638     333.9727     72.53513      1.894     3.97     3.255342     20.46958     29.91186         6     0.979     0.461 -37.09   0
        43    764.1689    917.2228 300.1132103 +22.8659073     766.8515     72.55362      2.066     6.89      3.65819     20.46958     43.54794        17     1.471     1.027  66.28   0
        44    799.0646    912.1669 300.1257323 +22.8749158     1028.295     72.55362      1.881     5.12     3.670347     20.46958     74.90849        19     1.249     1.096 -85.22   0
        45    577.6373    913.0723 300.0564443 +22.8087924     313.4724     72.51665      1.544     4.06     3.594659     20.46958      34.9241         6     0.854     0.612 -53.71   0
        46      9.2777    908.8198 299.8810425 +22.6370459     536.8472     72.55362      1.816     5.24     3.544525     20.46958     45.55062         8     1.334     0.582  47.97   0
        47    821.4311    905.8160 300.1347709 +22.8797965     11375.96     72.53513      1.793     3.95     3.631737     20.46958      688.597        51     1.433     1.396 -39.76   0
        48    866.6895    906.1682 300.1487678 +22.8934614     539.3243     72.51665      1.990     6.83     3.481936     20.46958     41.11135        11     1.373     0.954 -31.35   0
        49     10.8154   1021.7214 299.8447937 +22.6698549     1420.296     66.31638      5.970     9.82    -17.02304     20.46958     46.07594        25     1.886     1.425 -20.77  27
        50    250.4055    904.3156 299.9574548 +22.7081242      681.961     72.47966      4.288     5.06     9.791251     20.46958     29.19204         7     1.559     0.464   1.05   0
        51    190.9826    896.7738 299.9414303 +22.6881310     803.6228      72.5721      7.594     7.08      10.9695     20.46958     32.43431         9     1.934     0.727 -38.68   1
        52    132.7896    897.1442 299.9232197 +22.6707733     1214.523     72.55362      5.606     5.81     8.639337     20.46958     68.56856        20     1.471     1.148  41.55   0
        53    196.9630    896.8512 299.9432645 +22.6899479     588.7684      72.5721      4.744     4.34      10.9695     20.46958     29.35755         5     1.037     0.518 -33.86   1
        54    873.4568    894.1476 300.1547880 +22.8920385     523.4111     72.60904      2.262     4.93     3.517642     20.46958     40.39593         7     1.276     0.540 -15.89   0
        55    527.0086    893.9874 300.0468860 +22.7881348     436.1843     72.44265      1.603     3.53     3.506986     20.46958     50.10267         8     1.100     0.695 -11.66   0
        56    122.4991    888.9232 299.9226947 +22.6653285     737.8478     72.70131      4.192     7.00     7.133019     20.46958     36.46388        11     1.259     1.092  20.05   0
        57    830.0552    888.0378 300.1432422 +22.8772777     1457.783     72.55362      1.665     3.97     3.675545     20.46958     110.8855        22     1.287     1.062  16.09   0
        58   1012.7837    886.9483 300.2005905 +22.9317172     420.8635     72.55362      1.704     5.44     3.718534     20.46958     35.42538         9     1.330     0.628  56.22   0
        59      5.8091   1009.1826 299.8473183 +22.6647596     1533.782     72.49815      9.550    12.91    -18.45992     20.46958     52.77888        39     3.240     1.432  48.66  19
        60    682.3241    884.6583 300.0982966 +22.8320269     489.6532     72.60904      1.892     5.50     3.894302     20.46958     39.64151        11     1.206     0.913  67.87   0
        61    868.2598    881.4588 300.1572944 +22.8868381     686.9798      72.6275      1.675     5.18     3.556325     20.46958     57.97445        14     1.176     1.035  51.63   0
        62    977.2017    878.4131 300.1922647 +22.9186061     334.7472      72.3871      1.648     5.80      3.64806     20.46958     30.33837         8     1.500     0.632 -24.54   0
        63    916.1273    872.4902 300.1751395 +22.8986066     669.4557     72.71975      1.947     5.57     3.583105     20.46958     53.73408        14     1.262     1.116  51.35   0
        64    767.7208    871.9894 300.1290297 +22.8539887     762.9228     72.53513      1.666     3.84     3.934309     20.46958     61.62791        15     1.128     0.913  25.64   0
        65    779.0432    868.6114 300.1336575 +22.8564126     628.3516     72.55362      1.784     6.13      3.93136     20.46958     53.89523        12     1.307     1.106 -52.77   0
        66    480.4925    867.8577 300.0409018 +22.7666892     4371.119     72.60904      1.701     3.49      3.28623     20.46958     379.8512        36     1.357     1.235 -60.60   0
        67    524.0220    856.5118 300.0581436 +22.7764878      297.572     72.47966      1.555     3.07     3.634901     20.46958     42.57863         5     0.755     0.595 -87.01   0
        68    259.4781    856.8837 299.9757012 +22.6972468     413.0289     72.66441      1.610     4.90     5.308094     20.46958     39.40945         7     1.090     0.625  48.74   0
        69    142.6778    856.1609 299.9396205 +22.6619930     273.9224     72.53513      1.169     2.68     5.922262     20.46958     44.32901         5     0.746     0.427 -72.01   0
        70    205.7227    853.6075 299.9600504 +22.6801789     731.7946     72.49815      1.841     4.98     6.456828     20.46958     58.16593        14     1.167     1.082   8.47   0
        71    182.7898    850.7230 299.9538582 +22.6724707     1433.893     72.51665      1.730     3.95     6.327961     20.46958     135.5492        25     1.345     1.177 -28.11   0
        72    115.5745    850.2656 299.9331130 +22.6521695     393.4113     72.53513      3.032     4.77     4.896768     20.46958      29.3881         5     1.037     0.622 -26.39   0
        73    789.4781    843.3707 300.1451186 +22.8522942     92768.16     72.55362      0.825     1.06     3.990011     20.46958     35794.92        19     0.712     0.453  56.50   0
        74     58.3424    840.2271 299.9185912 +22.6321159     354.7671     72.55362      1.393     4.02     4.164739     20.46958     46.09573         7     0.979     0.473 -87.30   0
        75   1008.8024    838.3341 300.2151587 +22.9165624     2199.328     72.55362      1.838     4.23     3.711393     20.46958     129.6173        30     1.363     1.284  70.42   0
        76    714.6526    838.4472 300.1233983 +22.8284546     437.3426     72.59057      1.860     5.91     4.062113     20.46958     35.96582         8     1.295     0.760 -75.76   0
        77    214.8322    832.1962 299.9698447 +22.6767731     471.3608     72.53513      1.721     5.95      5.49348     20.46958     38.50093         7     1.204     0.828  88.35   0
        78    792.5518    832.0694 300.1497517 +22.8499709     614.2701     72.53513      1.537     3.57     4.014083     20.46958     63.08817        12     1.036     0.775  14.08   0
        79    660.4812    826.0327 300.1105558 +22.8086537     4769.144     72.53513      1.572     3.27     4.058045     20.46958     466.7487        35     1.258     1.230 -52.49   0
        80    462.5409    822.9428 300.0499185 +22.7484207     665.3293      72.6275      1.600     3.90     3.572831     20.46958     67.67889        12     1.124     0.855  13.20   0
        81    210.5665    819.6722 299.9725902 +22.6719024     1325.912     72.55362      1.748     4.06      4.96963     20.46958      121.111        21     1.255     1.102  71.51   0
        82    681.3038    818.4482 300.1195095 +22.8127184     675.7461     72.59057      1.413     3.21     4.068305     20.46958     87.27823        14     1.020     0.912 -57.44   0
        83    478.8073    817.3285 300.0568075 +22.7516878     279.3311     72.51665      1.495     5.69     3.639291     20.46958     33.63057         7     1.055     0.865  -0.60   0
        84    230.2628    816.8329 299.9796378 +22.6769975     359.3573     72.55362      1.503     4.61      4.76697     20.46958      54.2776         7     1.003     0.671  71.70   0
        85    597.6074    809.5310 300.0963354 +22.7850699     391.8452     72.53513      1.727     4.89     4.014383     20.46958     34.68767         6     0.986     0.686 -68.59   0
        86    836.5030    805.8669 300.1719739 +22.8556184     4282.315     72.64596      1.644     3.60     4.046429     20.46958     345.8746        36     1.320     1.248  26.90   0
        87    244.9878    799.9786 299.9896963 +22.6765820     622.1249     72.53513      1.704     4.89     4.056724     20.46958     70.03041         9     1.045     0.747  27.89   0
        88    553.2769    798.1567 300.0862272 +22.7685156     574.8285     72.53513      1.335     3.89     3.934526     20.46958     55.31301        12     1.070     0.803  61.32   0
        89    199.6758    796.0997 299.9768674 +22.6618758     1088.878     72.68286      1.753     4.29     4.138428     20.46958     91.78759        22     1.262     1.212 -48.28   0
        90    615.0389    791.3314 300.1076819 +22.7850723     442.7259     72.51665      1.422     4.82     4.075119     20.46958     46.85893         9     0.942     0.699  71.32   0
        91    349.5049    788.2752 300.0260118 +22.7045762     54017.86     72.70131      1.644     3.17     3.605704     20.46958      5127.73        95     1.448     1.396  48.91   0
        92    607.4626    787.3734 300.1066088 +22.7816652     1674.069     72.55362      1.592     2.85     4.084437     20.46958     159.4872        25     1.298     1.100 -31.65   0
        93   1020.1539    786.8575 300.2354387 +22.9051765     929.4957     71.62364      1.883     4.17     3.730613     20.46958     59.61955        18     1.133     1.092 -83.38  16
        94    277.9975    786.5012 300.0043439 +22.6826191     478.2131     72.44265      1.463     4.64     3.879703     20.46958       48.381         8     0.902     0.677  85.32   0
        95    636.3143    783.5429 300.1168414 +22.7892143     773.9468     72.66441      1.512     3.15     4.090632     20.46958     96.14934        15     1.041     0.915  17.14   0
        96      3.6092    783.1972 299.9201260 +22.5993429     608.7239     67.47886      1.761     3.08     4.181096     20.46958     62.51772         8     0.936     0.614 -83.47  16
        97     35.4846    782.6947 299.9301923 +22.6087652     835.3648     72.73818      1.878     4.86     4.181096     20.46958     68.45198        13     1.225     0.978  15.96   0
        98    647.2853    781.8674 300.1208039 +22.7920219      664.049     72.64596      1.635     3.61     4.090828     20.46958      69.8904        12     1.046     0.847 -24.84   0
        99    967.2431    779.7196 300.2212507 +22.8872780     295.9945     72.53513      1.484     3.89     3.755527     20.46958     36.13399         6     0.765     0.567 -44.44   0
       100    753.0859    778.3215 300.1549251 +22.8227133     359.4337     72.70131      1.251     3.19     4.131914     20.46958       53.743         9     0.880     0.681 -52.87   0
       101    547.6470    775.5137 300.0918351 +22.7603299      260.243     72.51665      1.274     4.43     4.042202     20.46958     41.45205         6     0.999     0.576  27.69   0
       102    790.5544    768.7091 300.1697292 +22.8311812     787.6581     72.53513      1.624     3.72     4.107347     20.46958     87.06376        15     1.123     0.942  19.24   0
       103    399.2447    765.5350 300.0488812 +22.7129700     31597.12     72.55362      1.566     2.92     3.576142     20.46958     3544.763        72     1.373     1.319  54.31   0
       104    413.5171    766.1495 300.0531232 +22.7174262     2074.151      72.5721      1.568     2.92     3.570196     20.46958     219.5473        24     1.186     1.069 -37.44   0
       105    922.3882    761.5995 300.2131492 +22.8686371     2828.422     72.36858      1.695     3.65     3.815981     20.46958     209.9716        30     1.284     1.188  -0.44   0
       106    410.2732    760.0854 300.0540847 +22.7147138      689.757     72.66441      1.615     3.93     3.576456     20.46958     64.74947        11     0.898     0.854 -44.77   0
       107    680.2655    757.5841 300.1389731 +22.7949364     1018.386     72.53513      1.560     3.28     4.100237     20.46958     88.91565        16     1.067     0.924  29.55   0
       108    281.6421    757.1632 300.0150140 +22.6752980     952.2413      72.6275      1.806     4.45     3.730831     20.46958     81.07712        18     1.154     1.116 -64.72   0
       109    517.3865    757.4816 300.0882742 +22.7460832     292.5897     72.53513      1.680     2.97     4.146301     20.46958     52.35416         5     0.933     0.482 -47.29   0
       110    527.4915    752.3121 300.0931009 +22.7476292     850.5311     72.71975      1.505     3.76     4.176936     20.46958     99.20165        18     1.168     1.050  85.11   0
       111     86.9972    752.6542 299.9559633 +22.6156114     390.6506     72.51665      1.623     3.16     4.181096     20.46958      55.3895         7     0.946     0.579  64.50   0
       112    928.6422    749.5444 300.2190188 +22.8670481     578.3214     72.53513      1.843     5.40     3.773389     20.46958     38.43286        13     1.239     0.938 -34.49   0
       113    429.3190    748.5019 300.0637774 +22.7171015     273.5974     72.68286      1.203     3.85     3.703591     20.46958     40.53054         7     0.860     0.664 -75.41   0
       114    473.3802    747.5233 300.0778105 +22.7300319     354.0591     72.55362      1.462     4.92     4.150388     20.46958     48.78598         8     0.884     0.775  69.44   0
       115    115.2872    746.5756 299.9667313 +22.6223569     616.0909     72.51665      1.926     4.41     4.168693     20.46958     66.86087         7     1.097     0.655  59.86   0
       116    906.5327    744.8342 300.2136537 +22.8590722     288.3853     72.55362      1.490     5.06     3.923638     20.46958     39.18932         7     1.185     0.610  54.70   0
       117    279.3230    741.7448 300.0193040 +22.6701801     739.6909     72.59057      1.954     3.96      3.68538     20.46958     69.07372        13     1.068     0.907  26.32   0
       118    352.1917    737.9996 300.0431897 +22.6909601     266.8931     72.36858      1.562     3.44     3.594449     20.46958     27.52257         5     1.569     0.217  63.48   0
       119    602.7866    731.7949 300.1232186 +22.7643115     355.0545     72.42414      1.234     4.47     4.260131     20.46958     44.69176         6     0.971     0.586  66.39   0
       120    572.2569    730.5064 300.1141287 +22.7547906     770.7951     72.60904      1.583     3.36     4.258861     20.46958     71.72632        12     1.002     0.845  17.64   0
       121    988.8318    726.8769 300.2451639 +22.8785649     4623.237     72.55362      1.735     3.60     3.861634     20.46958     313.9414        35     1.326     1.289  -0.19   0
       122    594.2153    727.8766 300.1218224 +22.7606177      1410.07     72.55362      1.419     2.76     4.265625     20.46958     168.0081        22     1.145     1.005  46.17   0
       123    481.5797    729.1517 300.0863343 +22.7272185     463.3596     72.59057      1.705     5.40     4.332031     20.46958     40.50635        10     1.049     0.869  40.68   0
       124    513.9831    727.3809 300.0969981 +22.7364247      193.789     72.53513      1.278     4.80     4.295704     20.46958     49.10339         7     0.939     0.694  -8.08   0
       125    675.9124    722.9454 300.1488757 +22.7836878     269.9411     72.59057      1.244     3.77     4.102019     20.46958     45.30729         7     0.895     0.547 -38.88   0
       126    977.3715    718.3945 300.2443453 +22.8726957     1776.367     72.55362      1.737     3.69     3.970404     20.46958     143.7194        26     1.237     1.188   2.14   0
       127    355.8502    713.0585 300.0524339 +22.6849021     259.4986     72.60904      1.322     4.54     3.748959     20.46958     32.40068         5     1.205     0.486  20.11   0
       128    340.2388    711.8937 300.0479552 +22.6798864     838.4284      72.5721      1.491     3.26     3.752328     20.46958     97.20135        14     1.008     0.949  20.82   0
       129   1008.3137    708.5829 300.2571886 +22.8791436       1673.3     72.49815      1.759     3.86     4.066218     20.46958      133.614        23     1.400     1.133 -56.72   0
       130    803.6587    709.5513 300.1930432 +22.8181202     2666.607     72.60904      1.623     2.93     3.996356     20.46958     259.0176        31     1.425     1.128   3.58   0
       131     26.0395    699.7661 299.9542092 +22.5821577     769.2203     72.59057      1.485     3.88     4.159236     20.46958     102.6938        18     1.249     1.050  -4.90   0
       132    886.2972    695.8262 300.2232714 +22.8389343     589.7867     72.47966      1.671     5.58     4.232863     20.46958     45.11307        11     1.236     0.710  45.90   0
       133    189.0155    695.7624 300.0061639 +22.6299041     538.0076     72.55362      1.591     4.47     4.268272     20.46958     55.07367         7     1.281     0.444  45.02   0
       134    922.0528    686.4963 300.2374554 +22.8469640     148204.8      72.6275      1.575     3.09     4.332566     20.46958     13570.81       160     1.497     1.469  80.69   0
       135    684.4007    690.3275 300.1621211 +22.7768669     464.1428     72.44265      1.644     4.07     4.103179     20.46958     49.14549         7     0.949     0.597 -37.14   0
       136    774.4381    686.6614 300.1913731 +22.8027923      754.109      72.5721      1.870     3.39     3.988618     20.46958     83.62901        15     1.074     0.950  76.10   0
       137    954.6728    679.7365 300.2498276 +22.8547918     417.5478     72.59057      1.525     3.97     4.410693     20.46958     44.97917         7     0.994     0.562  18.22   0
       138    608.2683    675.2207 300.1433118 +22.7497145     1587.126     72.55362      1.361     2.82     4.361778     20.46958      183.989        19     1.050     0.940  52.79   0
       139    789.5148    672.6000 300.2006423 +22.8032711     9442.726     72.42414      1.483     2.78     3.876297     20.46958     1065.204        42     1.226     1.167  66.90   0
       140    290.9844    667.5851 300.0470306 +22.6524045     4995.015     72.51665      1.522     2.94     4.031655     20.46958     568.0797        35     1.294     1.130  49.42   0
       141      4.6205    665.9310 299.9585484 +22.5660303     1739.901      70.9843      1.819     4.14     3.992273     20.46958     170.5248        28     1.428     1.252  28.93  24
       142    373.1037    665.6945 300.0731933 +22.6764862     1108.909     72.73818      1.398     2.74     4.090159     20.46958     148.4625        18     1.090     0.882  24.52   0
       143    248.6247    663.2047 300.0352788 +22.6384444     483.7266     72.51665      1.446     2.90     4.150049     20.46958     69.61752         9     0.887     0.742 -46.51   0
       144    581.3776    661.4178 300.1394211 +22.7376929     648.1891     72.53513      1.426     3.53     4.423954     20.46958     83.70822        14     1.076     0.855  65.94   0
       145    572.9108    653.3777 300.1393965 +22.7328473     3271.867     72.47966      1.389     2.73     4.461683     20.46958     382.3989        27     1.147     1.047  74.19   0
       146    563.0547    647.1159 300.1383615 +22.7280958     1475.881      72.6275      1.395     3.04      4.47231     20.46958     158.9434        19     1.023     1.002  33.90   0
       147    956.9923    645.6850 300.2616162 +22.8457034     391.2917     72.47966      1.666     3.51     4.519123     20.46958     49.43261         5     0.792     0.580  88.96   0
       148    491.8924    646.0093 300.1165624 +22.7064488      322.893     72.47966      1.258     3.41     4.381243     20.46958     38.96078         7     0.829     0.687 -29.14   0
       149    474.4033    644.1364 300.1117262 +22.7006688     312.1473     72.51665      1.784     3.35     4.360708     20.46958     42.39898         5     1.132     0.287 -34.26   0
       150    226.4479    643.3654 300.0348277 +22.6261024     793.0521     72.59057      1.699     3.30     4.281016     20.46958     85.70348        13     1.035     0.876  -7.48   0
       151    240.5409    641.6781 300.0397586 +22.6298449      533.986     72.59057      1.567     3.40     4.265519     20.46958     79.89521        12     1.080     0.821  18.30   0
       152   1009.8898    638.6002 300.2804223 +22.8595076       516.75     72.46116      1.555     4.05     4.473414     20.46958     53.95819        10     1.058     0.765  18.04   0
       153    266.6381    638.2478 300.0489894 +22.6366871     659.9974      72.5721      1.630     3.54     4.254421     20.46958     67.08727        13     1.133     0.902  48.59   0
       154    487.9442    636.7390 300.1183451 +22.7026045     1814.768      72.6275      1.441     2.77     4.384217     20.46958      223.176        22     1.100     1.024 -79.51   0
       155    587.0078    637.2678 300.1490213 +22.7324473     388.0535     72.55362      1.400     3.09     4.618074     20.46958     51.44837         8     0.819     0.657  40.46   0
       156    521.5768    635.6354 300.1291751 +22.7123687     362.2186      72.5721      1.362     3.77     4.435964     20.46958     33.54897         6     0.987     0.413  72.37   0
       157    141.9135    631.6680 300.0123449 +22.5973930     19835.44     72.66441      1.613     3.19     4.526798     20.46958     2155.485        62     1.441     1.318  35.29   0
       158     62.9434    633.2211 299.9872963 +22.5741496     757.2166      72.5721      1.623     3.64     4.263787     20.46958     65.62019        13     1.065     0.838 -67.23   0
       159    573.0798    632.1700 300.1463396 +22.7268098     1026.845     72.55362      1.362     2.75     4.600379     20.46958     119.5732        13     1.045     0.782 -40.45   0
       160    608.1422    631.0399 300.1576275 +22.7369928     292.7496     72.53513      1.297     3.97     4.748956     20.46958     48.96508         7     0.869     0.635  34.74   0
       161    490.5752    628.9919 300.1216811 +22.7011695     189.8531     72.55362      1.297     4.41     4.395712     20.46958      31.7839         5     1.008     0.550 -15.49   0
       162    943.8160    627.6437 300.2633676 +22.8365740     270.1435      72.5721      1.304     3.61     4.555482     20.46958     30.76882         5     0.988     0.381 -85.46   0
       163    991.0611    618.4380 300.2810980 +22.8480762     1033.591      72.5721      1.532     3.27     4.493703     20.46958      108.538        17     1.119     0.936  14.75   0
       164     87.9548    615.9879 300.0006671 +22.5767105     1430.735     72.55362      1.806     4.87      4.44825     20.46958     115.3507        24     1.547     1.034  88.56   0
       165    857.5558    616.2338 300.2401707 +22.8074624     416.9303     72.60904      1.543     4.07     4.421115     20.46958     55.27644         9     1.067     0.718 -68.41   0
       166    153.8168    616.4556 300.0209869 +22.5966000     426.1632     72.53513      1.754     5.54     4.526798     20.46958     36.91069         7     1.050     0.824  19.01   0
       167    536.4800    612.8250 300.1412262 +22.7102874     440.0753     72.53513      1.345     3.78     4.548235     20.46958     65.10397         9     0.885     0.759  22.96   0
       168    931.1607    611.4081 300.2646946 +22.8281195     782.2057      72.5721      1.562     3.65     4.603815     20.46958     73.86674        10     1.077     0.649  44.95   0
       169    329.0183    611.9482 300.0769376 +22.6478462     215.5068     72.53513      1.246     3.63     4.400358     20.46958     34.98155         5     0.658     0.577   0.54   0
       170    493.1180    605.0371 300.1302547 +22.6950557     671.7457     72.51665      1.324     2.80     4.424618     20.46958     86.51259        11     0.944     0.729  -1.01   0
       171    641.1144    603.4932 300.1768479 +22.7389637     353.2885     72.73818      1.209     2.84     4.815116     20.46958     66.04416         8     0.829     0.694  70.32   0
       172    688.0679    602.2805 300.1918713 +22.7526836     399.7765     72.66441      1.298     3.18     4.603731     20.46958     62.59857         7     0.885     0.635  -2.80   0
       173    658.7852    601.9195 300.1828645 +22.7438064     500.6845     72.53513      1.270     2.34     4.736197     20.46958     84.77686         8     0.847     0.614 -23.38   0
       174    537.2429    600.7762 300.1453778 +22.7070571     965.6585     72.60904      1.576     3.31     4.606971     20.46958       104.76        15     1.199     0.813  35.33   0
       175    724.4222    600.2101 300.2038728 +22.7629804     260.9207     72.55362      1.228     3.40     4.443101     20.46958     37.37915         5     0.800     0.418  67.26   0
       176    971.1162    596.5621 300.2819821 +22.8358180     3314.042     72.53513      1.516     2.92      4.51666     20.46958     336.2675        30     1.205     1.148  75.51   0
       177    502.7572    596.3802 300.1360679 +22.6954597     1432.184     72.59057      1.267     2.60     4.479039     20.46958     186.9508        15     0.955     0.852  24.08   0
       178     64.7591    589.9060 300.0019303 +22.5622725     5172.576      72.5721      1.713     3.42     4.174479     20.46958     481.2325        42     1.442     1.337  53.94   0
       179    868.1347    593.6940 300.2507920 +22.8041555     242.4898     72.68286      1.275     3.40     4.489726     20.46958     45.78374         5     1.041     0.459  -2.69   0
       180    478.0630    591.4229 300.1299900 +22.6866353     232.7221     72.53513      1.316     4.13     4.380275     20.46958     35.51152         5     0.801     0.609  82.25   0
       181   1010.4673    586.7853 300.2974363 +22.8447906     246.8196     72.53513      1.219     3.69      4.45559     20.46958     35.08401         7     0.855     0.610 -10.28   0
       182    532.1464    587.0336 300.1482548 +22.7015844     233.2598      72.5721      1.298     4.47     4.649722     20.46958     36.62897         7     0.915     0.620  35.31   0
       183    623.5977    584.8467 300.1774481 +22.7283609     241.0684     72.55362      1.279     3.45     4.924079     20.46958     25.74046         5     0.776     0.442  70.55   0
       184    366.2335    583.0627 300.0978995 +22.6507144       9219.2     72.55362      1.411     2.62     4.412019     20.46958     1060.224        39     1.181     1.157  68.34   0
       185    488.6633    580.1161 300.1369627 +22.6865667     8971.055     72.64596      1.389     2.50     4.427482     20.46958     1162.012        43     1.213     1.140  85.31   0
       186    127.7445    582.8268 300.0238053 +22.5791344     173.7879     72.55362      1.502     3.92     4.444058     20.46958     32.99589         5     0.928     0.474  42.88   0
       187    734.7725    576.4283 300.2148237 +22.7592507     256.7173     72.51665      1.410     3.13     4.446051     20.46958     31.14267         5     0.723     0.462 -18.68   0
       188    900.4036    574.2469 300.2671728 +22.8082318     1832.777     72.53513      1.474     3.10     4.495352     20.46958     190.9733        20     1.153     0.987  68.98   0
       189    985.0164    571.5741 300.2944361 +22.8327992     12526.74      72.5721      1.530     2.97     4.473597     20.46958     1342.249        46     1.311     1.243 -67.63   0
       190    549.2353    569.7250 300.1591984 +22.7017363     11578.46     72.51665      1.354     2.52     4.825648     20.46958       1445.8        41     1.185     1.089  76.96   0
       191    718.7047    565.6665 300.2133116 +22.7513464     404.9967     72.68286      1.088     2.16     4.559701     20.46958     78.70267         8     0.810     0.589  -6.29   0
       192    276.6586    565.1196 300.0758600 +22.6187103     1342.224     72.60904      1.468     2.88     4.572639     20.46958     164.4321        17     1.020     0.965 -22.09   0
       193    434.6612    564.1448 300.1253395 +22.6657966     360.9319      72.6275      1.366     3.12     4.380275     20.46958     49.27655         7     0.955     0.700 -16.25   0
       194    523.4982    562.6407 300.1534848 +22.6919897     407.5503     72.53513      1.205     2.42     4.691102     20.46958     60.66614         7     0.792     0.599  20.41   0
       195    480.9303    557.8613 300.1417835 +22.6778605     4492.588     72.59057      1.363     2.55     4.380275     20.46958     619.4337        29     1.175     0.986  69.17   0
       196    823.6700    557.9299 300.2485441 +22.7805640     683.3044     72.60904      1.222     2.83     4.378513     20.46958     126.3668        13     0.975     0.830  34.81   0
       197    459.2561    556.3177 300.1355374 +22.6709215      1052.82     72.60904      1.237     2.58     4.380275     20.46958     139.7463        15     0.997     0.831  58.06   0
       198    213.3768    555.5269 300.0592947 +22.5969833     627.5768     72.59057      1.434     3.19     4.493321     20.46958      90.2263        13     0.987     0.911  -4.76   0
       199    900.8085    553.4644 300.2740495 +22.8023815     1538.241     72.53513      1.523     3.23     4.455631     20.46958      161.094        21     1.202     0.983 -33.01   0
       200    597.5492    545.4562 300.1821278 +22.7092450       201686     72.59057      1.365     2.34     5.008468     20.46958     27340.04       206     1.436     1.412 -65.96   0
       201    147.2135    553.4026 300.0394134 +22.5765330     307.8218      72.3871      1.349     3.51     4.456017     20.46958     33.55025         5     0.766     0.465  14.71   0
       202    781.1132    550.4657 300.2377008 +22.7656738     908.1652     72.64596      1.373     3.19     4.425182     20.46958      108.168        16     1.137     0.855  47.13   0
       203    420.8635    551.8669 300.1250325 +22.6581367     356.1725     72.60904      1.274     4.61     4.380275     20.46958     45.96675         9     1.123     0.644 -49.82   0
       204    985.8417    547.7568 300.3024296 +22.8262015     7.698643     72.66441      1.257     3.94     4.452777     20.46958     35.78889         6     0.946     0.470  35.79   0
       205    283.5773    545.3910 300.0844192 +22.6151235     3430.152     72.55362      1.452     2.74     4.661489     20.46958      411.651        26     1.135     1.085 -14.74   0
       206    849.5770    542.2458 300.2617161 +22.7838166     664.1743     72.59057      1.715     5.95     4.424942     20.46958      69.2336        14     1.461     0.876  79.09   0
       207    629.1837    532.0475 300.1963367 +22.7148724      212.764     72.59057      1.082     2.47     5.006745     20.46958     44.92418         5     0.764     0.485 -37.31   0
       208    488.1199    526.1312 300.1543264 +22.6709059     2837.118     72.66441      1.491     2.86     4.484867     20.46958     352.0577        35     1.752     1.003  86.94   0
       209    332.6444    527.6772 300.1054358 +22.6247499     432.0579     72.53513      1.418     3.78     4.557523     20.46958     51.28268         8     0.974     0.571 -73.17   0
       210    899.5903    522.4388 300.2837459 +22.7931016     349.3465     72.55362      1.497     3.90     4.418709     20.46958     51.53437         7     1.002     0.549 -48.20   0
       211    805.2865    514.3749 300.2569577 +22.7625452     349.2669     72.49815      1.281     3.75     4.404848     20.46958     51.21267         8     0.961     0.676  30.94   0
       212    885.2605    512.0354 300.2826551 +22.7858214     1621.711      72.5721      1.411     3.06     4.406921     20.46958     183.2093        22     1.082     1.024  54.76   0
       213     15.3464    510.6303 300.0123207 +22.5247145     850.7914      72.5721      1.908     3.60     3.986151     20.46958     91.38296        17     1.232     0.959 -40.96   0
       214    756.2849    509.6534 300.2432155 +22.7465133     2598.767     72.60904      1.336     2.46     4.473372     20.46958     332.0891        24     1.111     0.998  56.18   0
       215    116.1598    509.6699 300.0439613 +22.5546746     342.5138     72.53513      1.633     4.14     4.311569     20.46958     53.06549         5     1.031     0.475  58.38   0
       216   1001.0906    507.1991 300.3203593 +22.8191096      416.132     72.44265      1.253     4.80     4.377981     20.46958     56.32034         8     1.056     0.619 -30.46   0
       217    965.3453    506.8516 300.3093193 +22.8083089     288.7206     72.59057      1.459     2.97     4.393611     20.46958     40.54762         5     0.726     0.453 -75.14   0
       218   1013.8254    503.9775 300.3253793 +22.8219957     1297.229     72.51665      1.591     3.40     4.366184     20.46958     123.7822        21     1.213     1.077  28.06   0
       219    661.0696    506.2614 300.2146444 +22.7170189     475.5025     72.59057      1.351     2.80     4.902996     20.46958     53.72657         7     0.738     0.622  10.04   0
       220    543.5920    505.6055 300.1782641 +22.6816348     876.0499     72.40562      1.464     2.51     4.875594     20.46958     102.2623        12     0.880     0.830 -54.61   0
       221    885.5502    502.2447 300.2859248 +22.7830946     2134.811     72.59057      1.586     3.49     4.398731     20.46958     248.1124        26     1.374     1.033  79.18   0
       222    999.5557    502.8083 300.3213062 +22.8173881     679.4966      72.5721      1.443     3.03     4.370851     20.46958     95.87684        13     1.039     0.812   6.18   0
       223    638.7842    499.9590 300.2097477 +22.7085328     764.8433      72.5721      1.864     3.71     5.010454     20.46958     65.89533        11     1.013     0.819  61.90   2
       224    477.3599    499.2216 300.1597145 +22.6599555     392.5094     72.59057      1.438     3.37     4.511609     20.46958     76.47005        10     1.139     0.740  54.22   0
       225    424.6964    500.3195 300.1429646 +22.6444884     334.4645     72.68286      1.087     2.87     4.602499     20.46958     56.24433         5     0.878     0.434 -12.89   0
       226    923.6061    497.2614 300.2994127 +22.7930567     4354.746     72.51665      1.426     2.61     4.397989     20.46958     454.6503        30     1.183     1.109 -21.60   0
       227    564.1659    496.9423 300.1874843 +22.6853115     367.2228      72.5721      1.408     3.71     4.955968     20.46958     38.48925         5     0.824     0.481 -28.40   0
       228    661.2187    493.7507 300.2187532 +22.7134702     451.1194     72.55362      1.732     4.13     4.894999     20.46958     37.96281         6     0.765     0.635 -89.56   0
       229   1015.3447    487.8313 300.3310964 +22.8178093     679.0282      72.5721      1.373     3.16     4.332717     20.46958     89.92892        12     1.003     0.831 -16.29   0
       230    155.4534    487.3770 300.0634140 +22.5600618     966.7745      72.5721      1.581     3.10     4.481238     20.46958     113.0831        19     1.127     1.045 -13.54   0
       231    785.6681    485.0123 300.2603762 +22.7482339     260.8718     72.55362      1.390     4.57     4.412039     20.46958     30.24077         5     1.034     0.573 -15.80   0
       232    816.5447    481.6174 300.2711047 +22.7565048     384.9422     72.53513      1.367     3.02     4.381882     20.46958     49.61127         7     0.863     0.611 -23.67   0
       233    421.9210    480.6392 300.1484906 +22.6380067     203.0425     72.53513      1.373     3.84      4.70402     20.46958     35.48438         6     1.051     0.401 -15.75   0
       234   1012.0126    476.7781 300.3336457 +22.8136346     263.9866     72.53513      1.629     4.56     4.321342     20.46958     39.53589         8     1.118     0.851  28.64   0
       235    755.8803    471.7272 300.2554041 +22.7354963     445.9666     72.68286      1.188     1.79     4.490319     20.46958     87.01305         7     0.676     0.609   6.51   0
       236    645.0618    469.5805 300.2215671 +22.7016880      327.424     72.53513      1.271     5.53     4.948426     20.46958     42.87136         9     0.985     0.875 -31.14   0
       237    696.9508    467.7662 300.2383240 +22.7167091     720.9606     72.59057      1.283     2.39     4.706014     20.46958     130.0479        11     0.897     0.733  70.90   0
       238   1011.8806    460.2661 300.3389656 +22.8088485     530.3782     72.66441      1.342     3.80     4.325032     20.46958     64.03708        10     0.954     0.800 -32.69   0
       239    757.8467    459.7210 300.2599151 +22.7326357     885.7295      72.5721      1.412     2.56     4.515602     20.46958     120.6013        14     0.936     0.867  87.39   0
       240    915.1235    456.1786 300.3101060 +22.7787099     1098.757     72.55362      1.466     2.77     4.361646     20.46958     129.1047        13     0.978     0.806  45.69   0
       241    899.3999    452.3669 300.3064392 +22.7729071     681.3201     72.49815      1.359     3.20      4.35688     20.46958      90.3717        14     1.130     0.775  69.55   0
       242    879.6388    453.1494 300.3000220 +22.7672158     333.6826      72.5721      1.243     1.96     4.355835     20.46958     49.77583         5     0.692     0.442 -69.23   0
       243    643.6801    450.3771 300.2273711 +22.6957581     3229.885     72.49815      1.292     2.26     4.876002     20.46958     464.2854        25     1.086     0.990 -86.85   0
       244   1004.3740    448.9414 300.3403000 +22.8033461      658.317     72.55362      1.522     4.76     4.330345     20.46958     69.19981        11     1.257     0.733 -43.05   0
       245    119.8210    441.4185 300.0672568 +22.5361912     388.3332     72.55362      1.491     4.77     4.566875     20.46958     36.10971         8     1.082     0.597 -20.44   0
       246    415.6479    438.0561 300.1603624 +22.6239013     238.7309     72.59057      1.231     4.43     4.827826     20.46958     34.27617         6     0.891     0.626 -50.74   0
       247    483.3647    437.2216 300.1817127 +22.6439526     435.2162      72.5721      1.547     3.37     4.556906     20.46958     52.66228         7     0.789     0.635  78.76   0
       248    927.2812    429.3616 300.3226043 +22.7746416      598.251     72.51665      1.576     4.48     4.342773     20.46958     54.07976        10     1.148     0.720 -13.84   0
       249   1013.2704    428.2664 300.3497881 +22.8000651     1018.542     72.59057      1.521     3.11     4.331853     20.46958     108.3383        16     1.092     0.908  42.09   0
       250    663.2862    426.2883 300.2412995 +22.6947108     370.4167     72.70131      1.454     3.76     4.779498     20.46958     41.94065         5     0.838     0.486  45.05   0
       251    754.2200    424.3075 300.2702811 +22.7213746     974.0597     72.47966      1.270     2.81     4.622172     20.46958     144.5327        14     1.017     0.821  45.47   0
       252    550.1741    425.0460 300.2064681 +22.6604721     399.2882      72.5721      1.220     3.30     4.656011     20.46958     55.49335         8     0.951     0.582  22.15   0
       253    258.0642    422.5675 300.1163601 +22.5722261     573.3582     72.55362      1.324     3.86     4.775012     20.46958     75.97701        13     1.153     0.808 -78.81   0
       254    320.5418    418.1328 300.1372345 +22.5896795      3841.66     72.59057      1.396     2.55     5.096187     20.46958     452.5801        31     1.198     1.070  67.83   0
       255    267.7462    412.9081 300.1225067 +22.5723557     7671.169     72.60904      1.429     2.67     4.834358     20.46958     1013.454        41     1.242     1.141  59.10   0
       256    646.1277    412.7805 300.2403381 +22.6856912     355.7242      72.5721      1.352     3.88     4.747637     20.46958     38.10868         6     0.752     0.573 -32.64   0
       257    408.5524    407.1684 300.1681799 +22.6129066     4951.719     72.59057      1.310     2.34     4.998457     20.46958     647.5022        30     1.158     1.004  65.42   0
       258    670.2643    404.3800 300.2505851 +22.6905068     965.7295     72.53513      1.963     5.87     4.759529     20.46958     76.46004        19     1.675     0.997 -52.19   0
       259    652.7911    403.9219 300.2452895 +22.6851421     18754.46     72.51665      1.328     2.38     4.747958     20.46958     2736.857        54     1.238     1.124  83.30   0
       260    500.5058    405.3934 300.1973807 +22.6399481     368.8713     72.44265      1.918     4.31     4.676973     20.46958      36.3445         5     0.960     0.551  48.21   0
       261    512.9785    400.9704 300.2026999 +22.6424146     245.8115     72.55362      1.290     3.58      4.68614     20.46958     33.37299         5     0.972     0.379  30.52   0
       262    849.9330    394.5362 300.3097850 +22.7414769     395.0475     72.60904      1.323     3.70     4.485548     20.46958     45.73328         6     0.791     0.499   0.10   0
       263    272.9588    391.0063 300.1312364 +22.5676313     358.4683     72.59057      1.316     2.75     4.901556     20.46958     72.60283         8     0.906     0.650  59.98   0
       264    986.2806    386.5406 300.3549105 +22.7799913     925.6036     72.60904      1.642     4.89     4.591005     20.46958     85.22517        14     1.181     0.934  41.80   0
       265    523.4664    385.8466 300.2108742 +22.6412129     403.0758     72.55362      0.994     1.95     4.729791     20.46958     52.34266         5     0.679     0.447 -64.41   0
       266    696.4634    385.0692 300.2650166 +22.6928047     354.1704     72.59057      1.488     3.65     4.741962     20.46958     44.30774         7     0.961     0.599 -38.63   0
       267    207.4474    384.0510 300.1131192 +22.5459987     2082.807     72.59057      1.474     2.55     4.842223     20.46958     259.0018        24     1.106     1.080  56.83   0
       268    593.4266    373.4079 300.2366994 +22.6585960      6616.59     72.55362      1.273     2.32     4.693105     20.46958     818.0536        35     1.169     1.021  69.80   0
       269   1007.0504    373.8135 300.3655221 +22.7825480     1133.267     72.60904      1.419     2.53     4.710268     20.46958     156.4731        15     1.096     0.816 -87.43   0
       270    308.2191    372.8763 300.1480887 +22.5729944     526.5822     72.55362      1.207     2.68     5.091767     20.46958     98.75204        10     0.883     0.750  39.16   0
       271    165.8238    365.9645 300.1060463 +22.5283306     393.7873      72.5721      1.190     2.56     4.923191     20.46958      64.3714         7     0.715     0.658  74.01   0
       272    853.2094    365.4794 300.3202372 +22.7341061     292.6895     72.51665      1.187     3.10     4.676261     20.46958     48.81733         6     0.771     0.498  -4.09   0
       273    707.3923    363.7303 300.2753477 +22.6899461      434.217     72.53513      1.224     3.01     4.738188     20.46958     69.05509         9     0.981     0.632  45.60   0
       274     13.2799    363.4355 300.0594559 +22.4818706      1258.14     72.49815      1.506     2.80     5.377921     20.46958     173.8056        20     1.199     1.061  52.04   0
       275    797.6248    362.1619 300.3039824 +22.7165122     1199.174      72.5721      1.417     3.70     4.709831     20.46958     145.6084        20     1.273     0.917  66.44   0
       276    500.0774    359.6234 300.2121016 +22.6266747      6119.12     72.55362      1.324     2.40     5.076067     20.46958     877.9877        30     1.115     1.026  75.72   0
       277    892.0715    354.0482 300.3360667 +22.7424532     1357.418     72.53513      1.372     2.56     4.786822     20.46958     172.6472        18     1.085     0.907 -86.06   0
       278    989.3334    354.2615 300.3663392 +22.7716242     613.0693     72.59057      1.364     3.49     4.874992     20.46958     76.85031        10     1.002     0.736  43.97   0
       279    484.7399    348.4442 300.2109539 +22.6188692     390.1143     72.59057      1.105     2.56     5.269053     20.46958     63.64359         8     0.849     0.626   3.56   0
       280    567.3742    346.3795 300.2373560 +22.6430286     445.9221     72.53513      1.297     2.59     4.657154     20.46958     61.49862         8     0.901     0.557 -69.60   0
       281     11.4729    344.9526 300.0648917 +22.4760258     1093.384     72.55362      1.630     3.49     5.490713     20.46958     125.4567        18     1.167     1.044  77.49   0
       282    845.5266    345.2609 300.3244028 +22.7259947     340.9237     72.59057      1.462     3.45     4.778056     20.46958     38.92551         5     0.761     0.452 -69.65   0
       283    548.1714    344.0581 300.2321287 +22.6366101       251.51     72.55362      1.237     2.01     4.631499     20.46958      58.0362         5     0.730     0.470 -37.44   0
       284    864.8491    341.5116 300.3316451 +22.7307010      575.346     72.55362      1.357     2.23     4.781379     20.46958     92.36594         9     0.857     0.649  70.34   0
       285    387.5626    338.7505 300.1838505 +22.5869717     2436.557     72.55362      1.350     2.44     5.392623     20.46958     359.2958        26     1.161     0.983  59.17   0
       286    105.8243    336.0814 300.0970909 +22.5017681     904.4443     72.51665      1.463     4.06     4.972725     20.46958     106.5849        17     1.309     0.890  52.19   0
       287    356.9429    328.2423 300.1777316 +22.5747798     29594.94     72.51665      1.374     2.50     5.436834     20.46958     3654.075        67     1.285     1.172  52.60   0
       288    891.6290    325.9346 300.3450517 +22.7342388     1402.442      72.5721      1.320     2.50     4.841638     20.46958     175.4934        17     1.010     0.899  38.28   0
       289    847.2407    323.9608 300.3318490 +22.7203851     405.2312      72.6275      1.362     3.05     4.840757     20.46958     42.59469         7     0.738     0.651  72.57   0
       290     53.2025    315.9921 300.0872543 +22.4802274      4985.49     72.36858      1.598     3.22      5.22879     20.46958     534.7176        41     1.405     1.280  41.61   0
       291    806.9835    314.6578 300.3223152 +22.7056604     493.3429     72.55362      1.222     3.03     4.909529     20.46958     82.14469        10     0.934     0.744  55.05   0
       292    455.2503    313.5147 300.2131067 +22.6000029     513.0381     72.53513      1.170     2.41     5.140318     20.46958      80.9092         8     0.761     0.668  74.71   0
       293    231.4202    314.1459 300.1432570 +22.5331180     514.3019     72.53513      1.380     3.29     4.963588     20.46958     66.27644         8     0.961     0.691   3.98   0
       294    823.3793    312.5609 300.3281076 +22.7099656     84.73208     72.59057      1.174     4.79     4.900119     20.46958     35.60537         6     0.964     0.804  44.85   0
       295    767.4340    308.1230 300.3121058 +22.6919425     2124.812     72.55362      1.390     2.36     4.877264     20.46958     246.3707        24     1.097     1.022  82.41   0
       296    575.8053    303.0485 300.2540414 +22.6331055     468.0432     72.53513      1.378     2.65     4.691994     20.46958     49.28992         6     0.720     0.572 -36.88   0
       297    982.3423    301.1237 300.3814005 +22.7542529     628.6396     72.59057      1.277     2.95     4.893611     20.46958     83.96211         9     0.925     0.657  53.03   0
       298    505.2130    300.7889 300.2327907 +22.6113136     218.4696     72.46116      1.139     3.47      4.80556     20.46958     24.17152         5     0.994     0.349  44.90   0
       299    429.1747    292.5387 300.2117950 +22.5861670     2312.838     72.55362      1.525     3.24       5.2321     20.46958     258.2677        24     1.307     0.928  62.92   0
       300    641.4047    291.2543 300.2783027 +22.6493611     394.0301     72.53513      1.233     3.05     4.741557     20.46958     48.79633         7     0.826     0.614 -58.57   0
       301    860.7104    286.4760 300.3482115 +22.7136410     297.7632     72.71975      1.385     3.86     4.917634     20.46958     40.81824         6     0.940     0.453  89.21   0
       302    868.4467    285.7867 300.3508478 +22.7157582     546.1894      72.5721      1.301     2.41     4.910254     20.46958      82.9235         8     0.791     0.654 -33.54   0
       303    750.8356    283.5196 300.3149140 +22.6799020     334.2903     72.49815      1.204     2.69     4.881187     20.46958     69.87749         7     0.809     0.652 -62.70   0
       304      1.8398    282.9884 300.0820012 +22.4553579     521.0235     59.31518      1.607     4.67     5.531338     20.46958     64.28073        11     1.255     0.831  86.20  24
       305    505.0637    272.0141 300.2420790 +22.6030029     1235.208     72.51665      1.379     2.23     4.762425     20.46958     175.5476        19     1.078     0.917  26.46   0
       306     78.4161    272.2432 300.1092820 +22.4752307     259.3509      72.5721      1.306     3.41     5.090463     20.46958     35.06558         5     1.054     0.320 -68.08   0
       307    312.6893    272.2768 300.1821189 +22.5454498      330.202     72.70131      1.369     3.10     5.204525     20.46958      44.2529         6     0.693     0.669  17.07   0
       308    590.1943    269.9400 300.2692641 +22.6279020     308.5557     72.51665      1.203     3.07     4.734365     20.46958     39.29213         5     0.787     0.493  41.26   0
       309   1016.2925    268.3487 300.4026276 +22.7549859      423.091     72.60904      1.815     4.25     4.903044     20.46958     40.69971         7     0.953     0.666   9.67   0
       310    749.8697    263.8961 300.3209789 +22.6739725      2225.32     72.68286      1.299     2.44     4.869755     20.46958     341.4838        21     0.997     0.956  48.67   0
       311   1011.1498    258.2284 300.4043058 +22.7505366     3207.053      72.5721      1.546     3.00     4.905468     20.46958     376.6683        30     1.267     1.144  81.86   0
       312    458.2511    247.8398 300.2353458 +22.5820374     573.4301     72.55362      1.205     2.29     4.996646     20.46958     96.14458        11     0.821     0.783 -22.75   0
       313    132.9753    241.8128 300.1361107 +22.4828494     1374.529     72.55362      1.704     3.26      4.99242     20.46958     127.2908        21     1.258     1.033 -35.36   0
       314    164.0343    241.7780 300.1457779 +22.4921478     569.6688      72.5721      1.413     3.48     4.940335     20.46958     76.23712        12     0.982     0.870  82.29   0
       315    880.6136    239.6979 300.3695934 +22.7061484      306.699     72.44265      1.211     3.42     4.872564     20.46958      34.3419         5     0.747     0.453  72.48   0
       316    870.7589    235.3805 300.3679203 +22.7019579     283.4473     72.59057      1.394     3.29      4.86293     20.46958     41.65074         6     0.842     0.701  -5.84   0
       317    217.0634    234.2608 300.1647052 +22.5058809     424.4517     72.59057      1.314     2.48     4.940636     20.46958     73.80055         7     0.829     0.573 -28.32   0
       318   1012.3716    231.6622 300.4133045 +22.7432615     287.9807     72.55362      1.295     3.77     4.912891     20.46958     37.85392         5     0.993     0.412 -14.93   0
       319    893.5304    227.6458 300.3775312 +22.7065483     322.0136     72.53513      1.311     4.02     4.872515     20.46958     53.01011         7     1.018     0.453  -9.73   0
       320    821.5790    225.3086 300.3558511 +22.6843438     691.2366     72.49815      1.252     2.89     4.851528     20.46958     88.58179        12     1.054     0.688 -69.44   0
       321    411.8132    224.9504 300.2283146 +22.5615530     291.7849     72.59057      1.176     3.33      5.32646     20.46958     51.45717         8     0.874     0.798 -37.14   0
       322    912.2842    218.6422 300.3863010 +22.7095710     382.7908     72.51665      1.209     2.66     4.887938     20.46958     45.02578         5     0.711     0.457 -15.31   0
       323    919.7694    214.4257 300.3900034 +22.7105982     2074.059     72.55362      1.465     2.59     4.894893     20.46958     237.5377        20     1.066     1.010   7.98   0
       324    415.9731    206.7071 300.2355259 +22.5575585     972.7078     72.49815      1.483     2.69     5.326824     20.46958     121.7389        14     1.118     0.815  47.02   0
       325    167.5338    207.3001 300.1580474 +22.4832982     389.6996     72.64596      1.313     2.76      5.09476     20.46958     59.09929         6     0.928     0.601 -27.10   0
       326    818.0550    206.0657 300.3609933 +22.6777566     555.6201     72.60903      1.255     2.70     4.936698     20.46958     82.87772        11     0.865     0.785  57.28   0
       327    338.2186    211.7015 300.2097088 +22.5357022     2088.282     72.47966      1.345     2.43      5.34782     20.46958     272.0189        20     1.092     0.908  58.86   0
       328     14.6748    200.3103 300.1128033 +22.4354786     303.4529     72.71975      1.614     3.96     5.384871     20.46958     33.35115         6     0.874     0.514  43.86   0
       329    233.0132    198.7834 300.1811709 +22.5004733     778.8386     72.49815      1.513     3.36     5.192685     20.46958     113.9808        11     1.072     0.732  76.38   0
       330    350.6880    198.3957 300.2179037 +22.5356159     214.6643     72.46116      1.261     3.41     5.362679     20.46958     42.05984         6     0.824     0.554  45.02   0
       331    770.6695    195.7535 300.3495644 +22.6606100     1732.471     72.53513      1.293     2.64     5.019267     20.46958     247.6413        17     1.143     0.824  56.57   0
       332     85.4927    196.8679 300.1359268 +22.4557167      139.907     72.70131      1.049     4.28      5.23331     20.46958     38.67906         5     0.784     0.665 -25.58   0
       333    835.7570    195.5667 300.3699179 +22.6800356     594.7336     72.60904      1.318     2.39     4.950039     20.46958     74.23998         8     0.828     0.608 -54.69   0
       334    497.6211    191.6089 300.2658399 +22.5776737     266.9116     72.53513      1.852     3.80     4.826089     20.46958     32.46879         5     1.393     0.298 -45.04   0
       335    254.6257    192.2132 300.1900234 +22.5050621     458.8856     72.55362      1.167     3.90     5.314592     20.46958     67.98917         9     1.087     0.594 -29.15   0
       336    775.0309    187.3312 300.3536553 +22.6594940      752.142     72.53513      1.439     2.79     5.069554     20.46958     108.6604        11     0.963     0.702  73.23   0
       337    695.3995    186.5066 300.3291026 +22.6354221     1243.227     72.42414      1.253     2.29     5.065711     20.46958     175.7942        14     0.904     0.838  63.68   0
       338    516.7230    183.0777 300.2745543 +22.5809425      463.859     72.66441      1.205     2.42      4.82407     20.46958     59.79586         7     0.732     0.593 -85.02   0
       339    890.9252    178.1215 300.3927801 +22.6915274     1448.199     72.66441      1.361     2.52     4.921045     20.46958     185.9729        18     1.003     0.949  82.99   0
       340    621.4669    178.2744 300.3087358 +22.6109236     1053.553      72.6275      1.304     2.68     4.875287     20.46958     130.1194        14     0.974     0.814  57.76   0
       341    902.9399    177.0254 300.3968830 +22.6948071     741.1562     72.53513      1.314     3.04     4.917457     20.46958     111.8845        16     1.100     0.967 -29.33   0
       342    949.3312    176.6459 300.4114776 +22.7085778      364.917     72.53513      1.713     2.95     4.908351     20.46958     50.74566         6     0.721     0.646  51.00   0
       343   1019.5557    167.4660 300.4363662 +22.7269450     1034.265     72.53513      1.440     3.09     4.911287     20.46958     126.8489        16     1.082     0.958 -89.90  16
       344     43.6454    164.2784 300.1334884 +22.4338197       571.28     72.53513      1.546     3.07     5.341593     20.46958     57.28131         6     0.843     0.489  47.30   0
       345    253.7625    160.6256 300.1999971 +22.4957322     694.2339      72.5721      1.412     2.96     5.495733     20.46958     90.48188        15     1.023     0.901 -68.84   0
       346    115.4346    155.0300 300.1587991 +22.4526790     2159.907      72.5721      1.545     2.88     5.394102     20.46958     269.1793        26     1.269     1.059  44.37   0
       347    938.5458    152.3783 300.4159820 +22.6983713     674.2203      72.5721      1.264     3.05     4.966801     20.46958     93.73041        13     1.102     0.763  17.04   0
       348     64.8103    152.2766 300.1439569 +22.4367176     498.2141     72.53513      1.388     4.12     5.367013     20.46958     54.59084         7     0.969     0.553  19.28   0
       349    272.8136    148.4559 300.2098686 +22.4979444     5675.357     72.53513      1.469     2.76     5.501773     20.46958     696.0928        39     1.313     1.115  64.97   0
       350     57.1368    142.8792 300.1446187 +22.4317201     1334.414     72.64596      1.609     3.97     5.392029     20.46958     146.5939        21     1.190     1.119  12.90   0
       351    256.3817    139.2285 300.2077490 +22.4903717      601.103     72.53513      1.267     2.62     5.497703     20.46958     74.66186         9     0.797     0.720 -29.65   0
       352    917.0215    130.1518 300.4164740 +22.6855390     3696.761      72.5721      1.410     2.79     5.087246     20.46958     489.4456        27     1.176     1.056  72.17   0
       353   1020.6771    128.9112 300.4492174 +22.7161891     2887.965     70.24377      1.506     2.89     5.290902     20.46958     296.3111        25     1.177     1.055  81.70  16
       354    466.4101    125.2921 300.2776247 +22.5492726     672.5785     72.49815      1.275     2.68     5.006263     20.46958     78.62167        11     0.925     0.787   2.34   0
       355    580.5726    123.2508 300.3138372 +22.5828665     280.3698      72.5721      1.238     4.28     4.938928     20.46958      37.7712         6     0.907     0.590  20.62   0
       356    390.4862    116.9621 300.2566919 +22.5241432     776.7726     72.53513      1.396     3.57     5.449907     20.46958     73.71903        11     1.159     0.666  62.31   0
       357    156.8445    114.4704 300.1848214 +22.4534411     573.0761     72.51665      1.340     2.76     5.486167     20.46958     80.07631        11     0.886     0.847  20.86   0
       358    517.7923    112.6008 300.2977375 +22.5610103     1747.964     72.36858      1.299     2.32     4.865755     20.46958     264.3701        16     0.962     0.860  57.03   0
       359    445.8304    113.1565 300.2751521 +22.5396231     487.6256     72.59057      1.206     2.73     5.193921     20.46958     70.43253         8     0.791     0.672  44.08   0
       360    580.0458    111.8942 300.3173548 +22.5794447     349.0229     72.57209      1.475     4.43     4.966825     20.46958     44.78384         7     1.101     0.513 -39.37   0
       361    341.6664    108.7808 300.2441516 +22.5071718     263.6104     72.51665      1.043     2.74     5.496146     20.46958     42.42721         6     0.698     0.638 -16.01   0
       362    261.2741    108.2180 300.2193236 +22.4829306      406.502     72.55362      1.438     3.76     5.501591     20.46958      54.0331         8     1.023     0.548 -30.11   0
       363    806.4745    102.0582 300.3911065 +22.6443845     317.7508     72.60904      1.191     2.04     5.250005     20.46958     64.70972         6     0.732     0.499  88.72   0
       364    952.1839     96.6677 300.4382986 +22.6864261     335.8431     72.55362      1.320     4.60     5.366745     20.46958     45.30527         6     0.935     0.643  64.59   0
       365    696.6724     96.7324 300.3586061 +22.6099949     229.3308     72.60904      1.077     3.67     5.343511     20.46958     43.01275         5     1.001     0.388  73.35   0
       366    798.1315     93.1588 300.3913901 +22.6393289     394.8457     72.53513      1.317     4.52     5.264023     20.46958     45.11583         8     1.214     0.546  47.25   0
       367    291.8216     92.3916 300.2339561 +22.4875347     5965.552     72.55362      1.420     2.54     5.505672     20.46958     784.7046        38     1.281     1.106  61.78   0
       368    142.7451     92.0371 300.1877094 +22.4427749     770.4197     72.55362      1.775     3.81     5.478409     20.46958     87.00888        12     1.215     0.824  35.05   0
       369    921.2824     90.2165 300.4307498 +22.6753267     330.5087     72.51665      1.269     3.57     5.283154     20.46958     40.16277         6     0.738     0.634 -30.35   0
       370    263.5718     85.9827 300.2272457 +22.4772321     383.7363     72.55362      1.637     4.18     5.485411     20.46958     44.20152         7     0.867     0.805 -38.11   0
       371    307.2442     83.3229 300.2416936 +22.4895488     400.4151     72.53513      1.330     2.74     5.497079     20.46958     50.73879         6     0.706     0.616 -75.27   0
       372     53.7201     82.4832 300.1631343 +22.4133570     395.7324     72.70131      1.290     2.97     5.620128     20.46958     62.69418         9     0.897     0.712 -67.13   0
       373    537.9300     77.7553 300.3153038 +22.5570245     6355.845     72.51665      1.376     2.43     4.823628     20.46958     941.2822        32     1.235     1.006  76.92   0
       374    423.3005     77.3495 300.2797456 +22.5225879     648.7361     72.64596      1.448     3.29     5.439732     20.46958     71.36025        12     1.151     0.657 -59.09   0
       375    790.1666     68.2816 300.3969707 +22.6297916     1016.767     72.51665      1.774     4.98     5.275713     20.46958     104.2954        17     1.599     0.972 -61.09   0
       376    732.1430     68.5439 300.3787980 +22.6125050     331.1611      72.6275      1.657     4.75       5.3709     20.46958     63.23442         9     1.400     0.746 -48.72   0
       377    883.1273     66.5904 300.4265068 +22.6571168     454.9986     72.55362      1.334     3.53     5.286564     20.46958     60.91179         6     0.789     0.489   5.20   0
       378    230.9042     61.6591 300.2249684 +22.4604604       513.23      72.6275      1.439     2.62     5.429486     20.46958      78.2952         9     0.897     0.774  -2.96   0
       379    666.3043     57.8124 300.3617580 +22.5897165     6153.378     72.47966      1.383     2.54     5.258099     20.46958      796.707        37     1.238     1.092  64.58   0
       380    589.4318     60.3449 300.3369877 +22.5674368     402.0034      72.5721      1.205     2.94     5.026303     20.46958     54.87245         7     0.818     0.631 -15.99   0
       381    441.1372     56.7405 300.2919774 +22.5220064     1416.314     72.59057      1.371     2.72     5.334507     20.46958     192.9483        17     1.022     0.931  45.54   0
       382    707.4008     55.2056 300.3754097 +22.6012656     958.0225     72.36858      1.345     2.86     5.306806     20.46958     102.4588        16     1.107     0.839 -65.30   0
       383    776.7211     52.3678 300.3979368 +22.6211920     314.4617     72.53513      1.311     4.45     5.282499     20.46958     40.78693         7     1.036     0.544  26.59   0
       384    723.4238     51.3232 300.3816619 +22.6049440     651.6943      72.5721      1.381     3.05     5.313886     20.46958     71.83123         9     0.842     0.785  87.01   0
       385     37.4807     50.1798 300.1685568 +22.3992160      176.713     72.53513      0.923     2.00     6.009064     20.46958     53.97151         5     0.688     0.454 -66.20   0
       386    993.1111     49.2704 300.4664318 +22.6850313     486.4771     72.71975      1.309     2.54     5.547573     20.46958     69.90227         8     0.801     0.625  37.77   0
       387    190.0463     49.2716 300.2162768 +22.4446635     595.9993     72.53513      1.368     2.50     5.393971     20.46958     82.68198         8     0.799     0.671 -12.55   0
       388    761.8568     46.6203 300.3951657 +22.6150916     543.9872      72.5721      1.217     2.62     5.290706     20.46958     84.68217        10     0.912     0.713 -76.34   0
       389    710.4971     42.8101 300.3803921 +22.5986279     2731.067     72.46116      1.371     2.58     5.289199     20.46958     358.3979        24     1.135     0.974  71.10   0
       390    725.5969     41.6472 300.3854751 +22.6028119     839.4637     72.53513      1.662     4.30     5.294183     20.46958      94.9914        15     1.322     0.743  55.02   0
       391    351.2445     43.2121 300.2683839 +22.4912023     448.6012     72.55362      1.437     3.13     5.509605     20.46958     55.90039         8     0.823     0.747  14.26   0
       392      4.1958     36.8543 300.1625324 +22.3854163     682.7075     69.70726      1.590     3.60     6.559368     20.46958     86.88219        13     1.124     0.911  78.40  16
       393    797.0055     34.3643 300.4100955 +22.6220832     1525.112      72.5721      1.388     2.34     5.256093     20.46958     221.7235        20     1.104     0.946  77.63   0
       394    956.9963     33.1284 300.4603949 +22.6695859      179.175     72.49815      1.046     3.23     5.494552     20.46958     44.56742         5     0.634     0.595  89.45   0
       395    540.6297     26.9840 300.3325992 +22.5432391     1180.205     72.55362      1.535     2.46     4.723594     20.46958     157.9361        16     1.075     0.860  77.89   0
       396    735.0292     27.6348 300.3929561 +22.6016047     798.7027      72.5721      1.511     2.48     5.257524     20.46958     106.5353        11     0.856     0.792 -43.67   0
       397    113.8011     26.5434 300.1999368 +22.4152954     679.7955     72.47966      1.986     2.21     5.357752     20.46958     74.33705         7     0.789     0.571 -74.01   0
       398    444.2921     24.8335 300.3032997 +22.5137814     799.3222     72.49815      1.319     3.54     5.371829     20.46958     102.0283        14     1.129     0.878  34.65   0
       399    826.6796     23.7965 300.4227726 +22.6279212     351.0758     72.46116      1.216     2.29     5.254238     20.46958     58.36941         6     0.709     0.558  43.19   0
       400    740.2345     21.2760 300.3966393 +22.6013335     283.9748     72.53513      1.358     3.89     5.237065     20.46958     34.49252         5     0.962     0.451  45.81   0
       401    784.0822     15.8237 300.4120748 +22.6128843     513.1898     72.51665      1.288     2.34     5.245924     20.46958     80.30733         8     0.765     0.659  30.80   0
       402    283.4925   1009.4877 299.9335320 +22.7482031     2136.474     72.71975     -2.986    47.87     49.49131     20.46958     91.42706       326    20.395     3.117 -12.96  19
       403    245.0501    997.3537 299.9255246 +22.7331881     4319.894     72.59057      7.982    33.51     62.55979     20.46958     83.11955       345     7.286     4.487 -76.58  19
       404    264.2293    996.7911 299.9316720 +22.7387827     5661.419     72.55362     10.152    34.96     52.96893     20.46958     112.3979       546     8.088     5.358 -47.94  19
       405    283.1715    985.2930 299.9413042 +22.7411712      8057.91     72.49815      8.736    29.66     37.26484     20.46958     170.1105       684    10.193     4.824  59.84  19
       406    176.5746   1018.1211 299.8974768 +22.7185876     1124.117     72.55362      3.011     9.95     90.46031     20.46958     44.57466        23     2.194     1.258 -28.29  18
       407    215.3142   1010.6277 299.9119592 +22.7280680     1112.589     72.55362      4.406     3.56     84.52535     20.46958     57.06538         5     1.062     0.345  42.88   3
