#   1 NUMBER                 Running object number                                     
#   2 X_IMAGE                Object position along x                                    [pixel]
#   3 Y_IMAGE                Object position along y                                    [pixel]
#   4 ALPHA_J2000            Right ascension of barycenter (J2000)                      [deg]
#   5 DELTA_J2000            Declination of barycenter (J2000)                          [deg]
#   6 FLUX_APER              Flux vector within fixed circular aperture(s)              [count]
#   7 FLUXERR_APER           RMS error vector for aperture flux(es)                     [count]
#   8 FLUX_RADIUS            Fraction-of-light radii                                    [pixel]
#   9 FWHM_IMAGE             FWHM assuming a gaussian core                              [pixel]
#  10 BACKGROUND             Background at centroid position                            [count]
#  11 THRESHOLD              Detection threshold above background                       [count]
#  12 FLUX_MAX               Peak flux above background                                 [count]
#  13 ISOAREA_IMAGE          Isophotal area above Analysis threshold                    [pixel**2]
#  14 A_IMAGE                Profile RMS along major axis                               [pixel]
#  15 B_IMAGE                Profile RMS along minor axis                               [pixel]
#  16 THETA_IMAGE            Position angle (CCW/x)                                     [deg]
#  17 FLAGS                  Extraction flags                                          
         1    682.1275     15.9858 300.3929748 +22.6015988     903.0436     72.25277      1.789     2.62     6.185562      20.3847     115.8618        16     1.179     0.941 -63.09   0
         2    487.4962     15.0051 300.3326306 +22.5431033     1060.999     72.16069      1.670     3.92     6.779782      20.3847     103.8069        19     1.155     1.128 -83.96   0
         3     60.5260     15.2124 300.1996665 +22.4153795      676.593     72.27117      2.259     5.27     7.289557      20.3847     43.05603         9     1.065     0.805   9.78   0
         4    773.7065     12.1764 300.4227699 +22.6278850     425.0221     72.17912      1.374     3.60      6.19925      20.3847     49.22078         8     0.900     0.727 -11.34   0
         5    391.7102     13.2771 300.3033551 +22.5139489     738.3603     72.39985      1.446     3.50     6.570377      20.3847     86.19768        15     1.171     0.835 -46.84   0
         6    162.8807      3.0942 300.2354288 +22.4425378     3550.697     65.33289      1.603     3.07     6.886435      20.3847     339.5608        34     1.448     1.150   7.78  24
         7    730.9711      3.7231 300.4121797 +22.6126740     619.9178     67.75085      1.627     4.77     6.165383      20.3847     50.38553        13     1.124     0.908  49.95  16
         8    191.1469    985.0372 299.9254221 +22.7330268     3877.164     72.27117      7.924    22.33      69.2903      20.3847     80.31801       236     5.053     4.080 -41.81   3
         9    960.6222   1022.6084 300.1529733 +22.9744413      267.343     61.90509      1.867     4.94     4.877559      20.3847     22.95913         5     1.155     0.599  32.27  24
        10     75.7534   1008.9650 299.8817497 +22.7052745     5541.882     72.27117     17.154    91.79     71.50018      20.3847     159.1218      2558    18.007    17.292  69.65  27
        11     67.3302    947.0387 299.8992760 +22.6849857     5320.479     72.21595     29.483     3.91     27.40378      20.3847     1350.878      4459    22.434    16.680 -55.70  27
        12    123.4749   1006.3910 299.8974264 +22.7188531     1183.918     72.23436      2.817     8.58     91.47676      20.3847     43.83846        19     1.675     1.228 -71.11   2
        13    154.2518    995.0815 299.9106778 +22.7248414     1042.734     72.27117      2.797     9.64     81.33506      20.3847     47.57192        15     2.364     1.096  63.69   3
        14      8.4486   1022.0253 299.8565770 +22.6888252     936.5875     64.67831      6.129     8.42    -4.347021      20.3847     36.49464        18     1.922     1.031 -39.88  19
        15    538.0231    990.7359 300.0315579 +22.8386691     2366.824     72.23436      2.101     5.04     5.218069      20.3847     143.8806        36     1.551     1.450  13.41   0
        16    625.5771    986.3188 300.0602785 +22.8636415     8280.476     72.21595      2.162     6.68     5.293652      20.3847     433.1678        35     1.575     1.488  32.98   3
        17    630.2521    984.1215 300.0624506 +22.8644115     9817.989     72.25277      2.373    13.18     5.288997      20.3847     476.8898        69     3.053     1.583 -10.98   3
        18      3.2670   1021.6741 299.8550808 +22.6871697     1417.129     59.89634     11.333    14.68    -10.55912      20.3847      49.8015        41     4.692     1.277 -60.40  27
        19    725.3649    987.0289 300.0911561 +22.8937468     696.7745     72.27117      2.431     6.08     4.420931      20.3847     41.71897        10     1.390     0.747 -29.35   0
        20      2.3997   1012.5617 299.8577759 +22.6842965      1289.36     61.99094      9.629    13.11     -9.61281      20.3847     56.15434        31     2.764     1.730 -56.95  27
        21    179.7479    978.3870 299.9240396 +22.7276999     691.5167     72.28957      3.585     4.65     63.77395      20.3847     35.71674         5     1.218     0.505 -69.04   2
        22    917.0363    967.1809 300.1574053 +22.9454605     226.1195     72.27117      1.214     3.76     4.587892      20.3847     30.58859         5     1.485     0.274 -45.23   2
        23    918.8414    970.5309 300.1568787 +22.9469638     588.9752     72.23436      2.056     5.67     4.579642      20.3847     45.21809         9     1.149     0.788 -43.23   3
        24    915.7045    970.4234 300.1559348 +22.9459934     328.0281     72.14226      1.542     4.51     4.577065      20.3847     40.53731         5     0.805     0.719  77.38   3
        25    136.4646    954.8164 299.9182443 +22.7079552     2079.524     72.23436     12.449    14.12     44.45614      20.3847     83.58391        81     3.448     2.566 -18.00   3
        26    155.5508    951.6496 299.9252106 +22.7127715     697.5018     72.28957      4.379     5.55     41.69022      20.3847     38.69772         7     1.526     0.569 -32.30   3
        27    157.3488    947.4519 299.9271353 +22.7121065     862.4097     72.28957      4.641     5.70     37.08036      20.3847     43.35316         8     1.193     0.766  20.46   3
        28    235.3847    946.9032 299.9515902 +22.7353531     45.01042     72.16069      1.082     3.46     25.68655      20.3847        42.29         5     0.797     0.435 -70.87   0
        29    551.3489    944.0588 300.0508952 +22.8292610     1556.535     72.30796      1.933     4.44     5.052017      20.3847     101.3344        29     1.435     1.276 -52.75   0
        30    445.2289    940.4181 300.0190223 +22.7964084     855.3022     72.23436      1.815     5.73     4.816278      20.3847     59.66504        23     1.325     1.281 -68.36   0
        31    728.8503    940.8640 300.1072620 +22.8815306     358.7655     72.30796      1.429     3.84     4.712824      20.3847     26.74672         5     1.332     0.318  57.99   0
        32    375.8099    938.3621 299.9980749 +22.7750077     6607.149     72.27117      2.053     4.64     5.053602      20.3847      427.548        48     1.595     1.509  -0.47   0
        33    229.0046    972.7121 299.9412096 +22.7408451     7262.871     72.16069      7.796    29.66      51.4715      20.3847     150.6356       645     9.527     4.967  63.78  18
        34    642.8400    953.2892 300.0764050 +22.8593291     6863.904     72.25277      2.092     4.98     5.212374      20.3847     379.8423        55     1.646     1.604  88.27   0
        35    409.1829    925.5632 300.0126291 +22.7813386     578.9758     72.25277      1.740     3.87     5.029662      20.3847     45.24791         7     1.067     0.484   6.51   0
        36    922.3955    917.3195 300.1752987 +22.9327365     2191.535     72.17912      2.219     5.52     4.774249      20.3847     96.14931        39     1.646     1.558  -9.92   0
        37    159.2209    977.0250 299.9180977 +22.7211521     2173.221     72.23436      9.679    22.90     64.73955      20.3847      64.9917        98     5.522     2.637  49.39   3
        38    155.6946    970.4315 299.9191458 +22.7182029     1443.826     72.17912      6.785    12.59     58.28574      20.3847     45.34991        39     2.772     1.593  85.94   3
        39    711.8090    906.2639 300.1132030 +22.8664860     891.0698     72.23436      2.578     6.65     4.903389      20.3847     55.36193        15     1.385     1.123 -47.38   0
        40    746.1279    900.3536 300.1258269 +22.8750688     1050.356     72.23436      2.008     6.75     4.799697      20.3847     63.16469        23     1.486     1.291  57.39   0
        41    523.0775    901.0114 300.0560888 +22.8084272     370.2894     72.25277      1.819     5.13     4.939566      20.3847     35.37994         8     1.176     0.806  70.57   0
        42    768.0685    894.0458 300.1347210 +22.8798287     11577.52     72.23436      2.007     4.71     4.740846      20.3847     662.2125        61     1.616     1.517 -34.33   0
        43    163.5595    997.2020 299.9128830 +22.7282417     3002.324     72.25277      6.217    24.38     82.92313      20.3847     60.41624       151     5.135     3.213  25.59  19
        44    163.1407    991.4780 299.9146149 +22.7264741      2413.85     72.28957      5.536    14.88      77.4677      20.3847     58.42384        52     3.104     1.985 -12.66   3
        45    959.3515    892.9473 300.1947607 +22.9367975     493.6938     72.28957      1.982     8.12     4.952148      20.3847     33.74443         9     1.441     1.278  86.40   0
        46    813.7507    894.5308 300.1488121 +22.8936508     456.4936     72.25277      1.648     4.10     4.631899      20.3847     36.56601         7     0.975     0.494  -4.97   0
        47    201.3018    893.0375 299.9585056 +22.7096754     829.4559     72.25277      7.220     7.04     10.85974      20.3847     36.61302         8     1.437     0.967  82.31   1
        48     80.3303    885.0875 299.9234662 +22.6711138     838.7534     72.39985      2.805     5.55      11.9657      20.3847     58.00929        11     1.448     0.618  70.57   0
        49    473.5198    881.8560 300.0468808 +22.7880744     405.1001     72.28957      1.829     4.33     4.969349      20.3847     34.70737         5     0.920     0.579  46.95   0
        50    776.8925    876.1405 300.1432965 +22.8773271     1330.267     72.32635      1.952     4.66     4.779884      20.3847     79.66396        27     1.474     1.193   0.08   0
        51    629.7479    873.1779 300.0983813 +22.8323970     370.3386     72.25277      1.777     4.46     5.088488      20.3847     36.08741         5     1.214     0.466  61.86   0
        52    814.8202    869.5294 300.1572769 +22.8867870     1081.618     72.25277      2.803     8.01     4.750104      20.3847     44.32004        20     1.392     1.288 -80.68   0
        53    138.7217   1005.5692 299.9024356 +22.7231912      483.811     72.23436      2.029     6.55     91.47676      20.3847     44.39566        10     1.771     0.709  28.17   0
        54    863.2371    861.2552 300.1750728 +22.8989087     597.2579     72.25277      2.077     7.24     4.790388      20.3847     38.01968        13     1.446     1.017   0.62   0
        55    714.1861    859.4955 300.1291544 +22.8537622     827.1102     72.17912      2.018     6.93     4.946672      20.3847     49.32391        18     1.404     1.070  -6.69   0
        56    427.1434    856.0049 300.0408435 +22.7667522     4271.556     72.21595      1.865     3.83     5.098134      20.3847     337.3661        44     1.535     1.366 -38.27   0
        57    725.8175    857.0894 300.1335638 +22.8565550     688.4723     72.17912      1.920     6.19     4.923311      20.3847     49.53361        14     1.311     0.922  21.96   0
        58    205.7972    845.3205 299.9754204 +22.6973297     456.4186     72.16069      1.740     3.63     6.795408      20.3847     35.86671         5     0.958     0.395  85.09   0
        59    152.9215    842.1876 299.9599906 +22.6805754     767.1508     72.23436      1.805     3.63     8.374977      20.3847      65.6515        12     1.000     0.858   3.21   0
        60    129.2895    838.6647 299.9537858 +22.6724777     1592.204     72.36311      1.993     4.98      8.18105      20.3847      113.717        30     1.565     1.320   5.41   0
        61   1001.4332    828.1337 300.2289755 +22.9307642     2066.221     72.25277      2.133     5.05     5.035735      20.3847     115.4963        30     1.482     1.331 -19.15   0
        62    955.5361    826.6400 300.2151334 +22.9165949     2045.694     72.21595      2.131     4.84     5.055683      20.3847     101.2823        34     1.532     1.388  -8.70   0
        63    660.2105    826.7662 300.1229689 +22.8281906     473.5278     72.23436      1.961     7.00     4.999046      20.3847     37.16083        12     1.490     0.922  -6.51   0
        64    739.5191    820.5552 300.1497161 +22.8501616     665.6916     72.23436      1.919     6.30     4.900942      20.3847     42.58727        13     1.255     1.086 -33.80   0
        65    607.1183    814.2369 300.1104937 +22.8086863     4729.161     72.21595      1.793     3.92     5.072373      20.3847     372.3638        38     1.392     1.336  14.44   0
        66     97.2578    814.7568 299.9515970 +22.6560115     437.4658     72.23436      1.573     5.92     6.629634      20.3847      52.6365         8     1.332     0.741  76.27   0
        67    409.5911    811.2899 300.0499162 +22.7486524     590.7081     72.17912      1.640     4.61     5.226048      20.3847     71.39586        13     1.265     0.769  50.50   0
        68    157.4614    807.9404 299.9725368 +22.6721086     1300.974     72.28957      1.958     4.62     6.177138      20.3847      96.5284        23     1.423     1.152 -54.67   0
        69    627.5491    806.6888 300.1193156 +22.8126385     703.4733     72.27117      1.732     5.68     5.034799      20.3847     60.14771        14     1.192     0.960  26.34   0
        70   1001.2934    795.3785 300.2395819 +22.9213048     664.8647     72.17912      1.596     5.49     5.065679      20.3847     63.06391        11     1.320     0.643 -65.81   3
        71    998.6418    794.6814 300.2389807 +22.9203107     523.5157     72.21595      1.532     5.96      5.06711      20.3847     61.45955        11     1.432     0.698 -60.31   3
        72    783.1165    794.1145 300.1719096 +22.8556202     4313.134     72.36311      1.877     3.91     4.919182      20.3847     308.1105        42     1.540     1.354 -37.68   0
        73    980.9201    792.7930 300.2340622 +22.9144630     4655.595     72.17912      0.515     0.84     5.082508      20.3847     3273.896         5     0.494     0.242  73.61   0
        74    192.3187    788.2932 299.9897668 +22.6769211     429.2516     72.39985      1.735     5.37     5.672469      20.3847     38.97845         8     1.112     0.731 -85.72   0
        75    500.1090    786.5219 300.0861607 +22.7686646     602.4901     72.39985      1.835     4.83     5.090764      20.3847     60.62466        10     1.225     0.662 -23.27   0
        76    146.1918    784.3708 299.9766932 +22.6619652     1105.659     72.25277      2.085     5.45     5.698376      20.3847     79.05968        20     1.499     1.069  -6.60   0
        77    296.1683    776.3662 300.0259587 +22.7046296     54014.93     72.27117      1.884     3.72     5.570068      20.3847     4899.931       100     1.615     1.523  -2.10   0
        78    561.7189    779.8713 300.1075179 +22.7852133     447.0576     72.38148      1.658     5.95     5.086712      20.3847     43.39369         9     1.281     0.777   4.39   0
        79    554.0682    775.4877 300.1065590 +22.7816620     1610.935     72.39985      1.739     4.00     5.084293      20.3847     130.0626        23     1.247     1.152 -27.94   0
        80    968.2274    775.0679 300.2358624 +22.9055673     556.3594     72.23436      1.816     3.66     5.138115      20.3847     53.96024         9     0.892     0.740 -86.07   2
        81    225.4575    774.6933 300.0044977 +22.6829525     423.4313     72.30796      1.519     2.62     5.634872      20.3847     44.88869         5     0.687     0.485 -76.32   0
        82    583.1420    771.3914 300.1169504 +22.7891952     981.2681     72.21595      1.741     4.00     5.115149      20.3847     85.19865        19     1.172     1.091 -18.80   0
        83    594.3484    769.9996 300.1208952 +22.7921525     524.8145     72.21595      1.615     4.60     5.127842      20.3847     53.39664        14     1.209     0.904  34.29   0
        84    699.5422    766.6129 300.1547873 +22.8226881     503.0017     72.21595      1.876     5.70     4.992917      20.3847     37.09913        10     1.027     0.890  60.40   0
        85    494.3861    763.5686 300.0918392 +22.7603572     345.0964     72.25277      1.799     3.97     5.127698      20.3847     34.02256         6     0.926     0.486 -87.71   0
        86    345.9380    753.6211 300.0488438 +22.7130162     31844.95     72.21595      1.780     3.63     5.497145      20.3847     2899.689        80     1.538     1.451 -12.08   0
        87    737.2107    756.6373 300.1697758 +22.8311025     778.8458     72.23436      1.814     3.97     5.005587      20.3847     64.14401        15     1.299     0.850   3.88   0
        88    360.2912    754.2186 300.0531181 +22.7174894     1870.153     72.17912      1.719     3.27     5.459651      20.3847     175.6073        24     1.210     1.158   9.70   0
        89    869.0174    749.8978 300.2130817 +22.8686316     2861.682     72.17912      1.883     3.91     5.379736      20.3847     190.0759        36     1.465     1.358  81.08   0
        90    357.1726    748.5823 300.0539791 +22.7149363     883.1118     72.25277      2.271     3.79     5.493974      20.3847     66.50426        13     1.102     0.887   3.73   3
        91    626.8113    745.6236 300.1389364 +22.7948732     1023.052     72.25277      1.770     5.28     5.154705      20.3847      82.4884        20     1.408     1.005  21.19   0
        92    228.5862    745.3213 300.0150179 +22.6754588     748.6766     72.27117      1.790     4.29     5.623682      20.3847     70.66133        18     1.272     1.042  -7.66   0
        93    474.0363    740.6851 300.0929381 +22.7476871     853.0786     72.23436      1.690     3.87     5.188931      20.3847      93.6092        17     1.166     1.015 -12.98   0
        94     33.5132    741.3635 299.9556329 +22.6158353     501.6288     72.23436      2.036     4.44     5.469109      20.3847     55.81267         9     1.211     0.810 -27.35   0
        95    875.5251    737.9562 300.2189939 +22.8671469     499.9074     72.23436      1.591     5.44     5.457824      20.3847     46.59439        10     1.159     0.719 -19.05   0
        96    376.3589    736.5341 300.0638684 +22.7172263     341.0526     72.21595      1.629     4.29     5.455371      20.3847     29.56465         6     1.094     0.479 -54.80   0
        97    628.2013    734.9507 300.1428386 +22.7922229     356.7084     72.23436      1.577     5.53      5.17867      20.3847     42.02177         8     1.183     0.729  73.62   0
        98    420.7929    735.4493 300.0780570 +22.7302299     455.9131     72.25277      1.667     2.48     5.259741      20.3847      51.7412         5     0.697     0.479 -15.31   0
        99     61.7995    734.6670 299.9666035 +22.6223958     548.6022     72.21595      1.837     5.81     5.549552      20.3847     52.31301        11     1.246     0.910  12.01   0
       100    852.8726    732.3652 300.2137431 +22.8587579     369.1633     72.25277      1.588     5.21     5.424492      20.3847     42.65557         7     1.047     0.733   0.72   0
       101    226.0799    729.9463 300.0192348 +22.6702936     394.5943     72.28957      1.351     4.36     5.622753      20.3847     59.64031         9     0.946     0.784   4.10   0
       102    549.3288    720.2095 300.1230493 +22.7643621     459.9991     72.23436      1.704     4.06     5.196863      20.3847     45.21377         8     0.958     0.658 -27.37   0
       103    519.3093    718.5667 300.1142300 +22.7548973     686.8419     72.23436      1.587     4.18     5.231707      20.3847     69.62154        14     1.093     0.922  -1.91   0
       104    428.1818    718.2231 300.0859565 +22.7274964     343.2396     72.25277      1.532     3.48      5.35698      20.3847     26.54358         5     1.007     0.347 -45.99   0
       105    935.5094    715.1917 300.2451126 +22.8785578     4590.749     72.16069      1.859     3.94     5.540359      20.3847     329.9267        42     1.477     1.382 -20.47   0
       106    540.7883    716.0294 300.1217467 +22.7606028     1329.553     72.25277      1.591     3.71     5.219952      20.3847     115.7619        21     1.169     1.091  70.83   0
       107    460.4132    715.4064 300.0969103 +22.7363445     380.3445     72.12383      1.685     5.93     5.332168      20.3847      41.9488         9     1.104     0.898  22.38   0
       108    622.0435    711.1469 300.1486555 +22.7835388     316.6515     72.28957      1.505     5.70     5.279534      20.3847        43.98        10     1.275     0.854   6.75   0
       109    923.9869    706.7258 300.2442677 +22.8726747     1745.542     72.27117      1.891     4.30     5.620612      20.3847       109.72        26     1.435     1.146 -28.73   0
       110    286.9615    700.0093 300.0479092 +22.6799465     796.3952     72.27117      1.671     4.53     5.594856      20.3847     74.07127        13     1.137     0.861  47.16   0
       111    955.1765    696.8289 300.2572192 +22.8791641     1614.337     72.25277      1.842     4.42     5.539614      20.3847     117.5553        27     1.438     1.292  49.82   0
       112    750.4639    697.8193 300.1930255 +22.8181662     2633.073     72.23436      1.812     3.67     5.423204      20.3847     199.1934        35     1.589     1.228  -2.12   0
       113    832.3738    683.6001 300.2231960 +22.8386020     585.0267     72.21595      1.633     4.05     5.860763      20.3847     52.12457        11     0.938     0.856  61.93   0
       114    135.5111    684.0406 300.0059771 +22.6299656     684.3364     72.25277      1.928     6.34     5.723199      20.3847     54.10638        14     1.468     0.823   2.55   0
       115    868.8011    674.7662 300.2374320 +22.8469667     149107.3     72.21595      1.779     3.70      5.78738      20.3847     10744.01       154     1.608     1.550 -33.02   0
       116   1015.9101    676.9103 300.2826524 +22.8916116     1250.951     72.41821      1.833     4.24     5.369142      20.3847     94.19705        22     1.358     1.078   6.14  16
       117    631.2818    678.6083 300.1621089 +22.7769555     347.5389     72.19753      1.657     3.71     5.352913      20.3847      35.0075         7     0.964     0.472   8.61   0
       118    721.2103    675.2112 300.1912495 +22.8029087     692.9646     72.14226      1.506     4.51      5.43244      20.3847     69.45561        12     1.126     0.761   2.52   0
       119    900.8864    667.5345 300.2497942 +22.8544912     268.5027     72.34473      1.348     4.93     5.804618      20.3847     44.13386         8     0.861     0.800  39.58   0
       120    554.9963    663.3919 300.1432784 +22.7497353       1674.5     72.08694      1.638     3.39     5.583027      20.3847     158.6422        24     1.223     1.105 -50.44   0
       121    736.2375    660.8436 300.2006041 +22.8032783     9500.028     72.32635      1.630     3.25     5.549434      20.3847     864.4034        46     1.348     1.279 -24.51   0
       122    237.6984    655.6707 300.0469848 +22.6524507     5043.668     72.38148      1.763     3.64     5.605912      20.3847     452.8325        37     1.372     1.326 -25.92   0
       123    319.8910    653.7025 300.0732048 +22.6765171     1196.567     72.43657      1.705     4.08     5.579341      20.3847     104.9158        18     1.133     1.094  36.55   0
       124    195.2038    652.2226 300.0348833 +22.6387243      435.649     72.21595      1.632     4.02     5.648341      20.3847     47.36509         8     0.943     0.915  76.43   0
       125    528.1569    649.4450 300.1394471 +22.7376889     644.9462     72.28957      1.358     2.98     5.738122      20.3847     78.55935        11     1.021     0.698   4.60   0
       126    519.7709    641.5081 300.1394130 +22.7328966     3168.331     72.21595      1.577     3.19     5.782681      20.3847     349.8278        30     1.247     1.142   8.59   0
       127    510.2157    635.4502 300.1384042 +22.7282939     1336.634     72.27117      1.461     3.02     5.802056      20.3847     135.4268        19     1.087     0.996 -43.67   0
       128    903.7238    633.0145 300.2618958 +22.8454138     472.6313     72.27117      1.937     7.11     5.851565      20.3847     38.22143         9     1.284     1.104 -49.88   0
       129    173.6823    631.5016 300.0349195 +22.6263244     700.4539     72.41821      1.696     2.68     5.651474      20.3847     73.78333        10     0.833     0.790  21.42   0
       130    187.8913    629.6340 300.0399465 +22.6300469     717.5446     72.23436      1.926     4.31     5.632876      20.3847     65.53127        12     1.159     0.989 -42.94   0
       131     73.8074    629.6008 300.0044743 +22.5958405      318.362      72.0685      1.498     3.13     5.879372      20.3847     32.04393         5     0.728     0.457  18.09   0
       132    244.7393    627.3991 300.0583603 +22.6464426     447.1364     72.21595      2.312     4.74     5.585645      20.3847     30.68525         6     1.056     0.603 -59.37   0
       133    956.5452    627.0894 300.2803072 +22.8595177     467.6923     72.28957      1.580     4.66     5.699671      20.3847     37.21152         5     1.060     0.581  14.85   0
       134    533.9409    625.5117 300.1490247 +22.7325444     512.6568     72.32635      1.971     5.79     6.014914      20.3847      51.4599         9     1.198     0.788  66.18   0
       135    434.8118    624.8021 300.1183756 +22.7026475     1730.455      72.0685      1.597     3.33     5.672755      20.3847     180.4976        22     1.258     1.034  39.10   0
       136    214.0103    626.4018 300.0491226 +22.6369470     638.2701      72.0685      1.828     2.72     5.599605      20.3847     65.68791         7     0.744     0.628 -35.24   0
       137   1010.4780    622.7360 300.2985588 +22.8744040     590.3073     72.34473      1.670     4.45     5.409358      20.3847     71.28085        14     1.344     0.994  56.08   0
       138     88.6672    619.6897 300.0123145 +22.5974501     20109.44     72.39985      1.889     3.79      5.86544      20.3847     1742.715        70     1.596     1.532  14.41   0
       139      9.9617    621.3334 299.9873099 +22.5743264     661.8896     72.23436      1.763     4.78     6.064911      20.3847     54.00085        13     1.284     0.965 -23.38   0
       140    519.7963    620.3740 300.1462867 +22.7268316     1115.414     72.21595      1.794     3.36      5.98853      20.3847     91.59784        16     1.043     0.969 -43.00   0
       141    555.4086    619.9547 300.1575191 +22.7373772     317.6793     72.27117      1.453     4.37     6.058037      20.3847     33.17942         6     0.978     0.557 -18.10   0
       142    436.9851    617.6848 300.1213646 +22.7012538     356.8018     72.21595      1.799     4.98     5.682908      20.3847     30.77315         7     1.061     0.662  13.56   0
       143    273.5889    612.1267 300.0722994 +22.6507021     459.7546     72.27117      1.771     4.83     5.575756      20.3847     37.88373         5     1.103     0.599 -24.97   0
       144    602.8405    608.1956 300.1761207 +22.7482025     363.9738     72.27117      1.432     3.58     5.604934      20.3847     38.22482         5     1.113     0.331  11.85   0
       145    937.7102    606.6184 300.2810786 +22.8479936     1066.898     72.17912      1.754     4.66     5.829913      20.3847     73.34605        18     1.228     1.130 -79.25   0
       146     34.5997    603.8101 300.0006611 +22.5766832     1636.579      72.0685      2.341     5.78     6.055835      20.3847     98.90487        34     1.668     1.436 -84.95   0
       147    804.0176    604.9551 300.2399020 +22.8075023     509.0146     72.27117      1.406     3.67      6.15319      20.3847     64.55402         5     0.811     0.477 -14.72   0
       148    101.4403    604.8406 300.0211099 +22.5970161     463.6568     72.32635      1.495     3.42     5.847815      20.3847     36.28001         5     0.772     0.439 -68.54   0
       149    877.6737    599.4727 300.2646633 +22.8279717     913.6811     72.30796      2.097     5.25     5.927698      20.3847     60.59994        19     1.480     0.998  23.33   0
       150    482.7142    600.3800 300.1412293 +22.7099799     476.4163     72.17912      1.636     5.89     5.856238      20.3847     49.16248        11     1.393     0.898 -78.52   0
       151    439.6307    593.1620 300.1301543 +22.6950010     731.0098     72.25277      1.602     4.30     5.801951      20.3847     69.75244        12     1.130     0.813  16.58   0
       152    587.5883    591.8613 300.1766730 +22.7389407     444.0825     72.21595      1.407     5.13     5.791062      20.3847     47.61665        11     1.088     0.797  31.44   0
       153    635.2130    590.3329 300.1920133 +22.7527622     456.3463     72.23436      1.409     3.06     5.560796      20.3847     55.11578        11     0.886     0.859  15.43   0
       154    605.7336    589.9283 300.1829561 +22.7438187     558.7087     72.28957      1.593     3.82     5.579437      20.3847     58.44554        13     1.140     0.874 -13.84   0
       155    483.9598    589.2217 300.1452417 +22.7071468     1004.942     72.28957      1.815     3.52     5.950584      20.3847      83.2443        17     1.193     0.949 -49.74   0
       156    917.8629    584.7689 300.2819816 +22.8357702      3252.82     72.27117      1.692     3.52     5.957949      20.3847     256.1404        34     1.363     1.285 -73.21   0
       157    449.5409    584.6295 300.1360123 +22.6955180      1775.57     72.27117      1.594     3.20      5.88103      20.3847     182.3563        22     1.186     1.019  -9.22   0
       158   1015.8814    583.4526 300.3130074 +22.8647205     734.4515     72.28957      1.534     4.31     5.661097      20.3847     60.97855        12     1.240     0.751   9.19  16
       159    814.7235    582.3298 300.2505912 +22.8042012     349.5463     72.36311      1.646     3.44     6.126683      20.3847     39.65668         5     0.748     0.458 -10.50   0
       160     11.4865    577.7916 300.0019261 +22.5622856     5153.833     72.17912      1.992     3.90     6.134157      20.3847     421.1929        44     1.562     1.471  17.75   0
       161    479.0871    575.3190 300.1482395 +22.7016925     263.2854     72.38148      1.333     3.39     6.043421      20.3847     33.74421         6     0.823     0.718  -5.68   0
       162    312.9542    571.1407 300.0978642 +22.6507254     9196.486     72.28957      1.634     3.20     5.553958      20.3847     791.7001        45     1.346     1.317   7.25   0
       163    435.3886    568.2961 300.1369094 +22.6865860     9039.777     72.16069      1.567     2.89     5.944985      20.3847     950.9062        44     1.292     1.242  22.25   0
       164    681.8760    564.6501 300.2149024 +22.7593506     261.7793     72.25277      1.309     5.36     5.678175      20.3847     32.85118         7     0.961     0.844  -9.31   0
       165    513.5804    565.2068 300.1622694 +22.7091174     176.8512     72.21595      1.425     5.18     6.218808      20.3847     29.09927         5     1.051     0.722  -8.10   0
       166    201.2544    565.3295 300.0649903 +22.6155867     503.8153     72.28957      2.691     3.84     5.468143      20.3847     43.94558         6     0.770     0.625 -40.56   0
       167    847.1301    562.6252 300.2671017 +22.8082339     1811.866     72.25277      1.579     3.20     6.084739      20.3847     173.4175        23     1.216     1.074 -16.72   0
       168    931.8420    559.9080 300.2944198 +22.8328026     12426.11     72.25277      1.689     3.43     6.032351      20.3847     919.2582        54     1.399     1.388 -35.82   0
       169    496.0062    557.8637 300.1591792 +22.7017439     11528.45     72.21595      1.540     3.09     6.216599      20.3847     1105.117        47     1.292     1.266  51.45   0
       170    223.4331    553.1773 300.0758375 +22.6187429     1442.232     72.25277      1.759     3.83     5.428848      20.3847     132.8476        24     1.298     1.216  52.38   0
       171    665.4164    553.7858 300.2132992 +22.7512996     600.1973     72.19753      1.582     3.85     5.670432      20.3847     61.62542        12     1.063     0.788 -23.23   0
       172    381.6136    552.6857 300.1252332 +22.6659929     391.6292     72.19753      1.327     3.49     5.840097      20.3847       52.846         9     0.976     0.688 -50.53   0
       173    470.0552    551.0313 300.1533141 +22.6920084      383.884     72.27117      1.334     5.12     6.201869      20.3847      42.8342         9     1.088     0.740  46.11   0
       174    427.6623    546.0525 300.1417271 +22.6778805     4610.011     72.30796      1.562     3.04     6.049488      20.3847     449.4255        36     1.276     1.222 -23.65   0
       175    770.6384    546.2795 300.2485486 +22.7806398     729.0533     72.21595      1.487     3.20      6.03874      20.3847     76.02208        12     0.934     0.876 -37.55   0
       176    405.9316    544.4738 300.1354724 +22.6709180      1271.15     72.32635      1.569     3.19     5.965134      20.3847     129.1328        20     1.128     1.076  31.52   0
       177    160.5520    543.8685 300.0592972 +22.5972263     640.7267     72.25277      1.504     2.74     5.413024      20.3847     88.46307        11     0.965     0.767 -32.72   0
       178    847.5938    541.7850 300.2740149 +22.8023793     1578.922     72.16069      1.606     3.74     6.121713      20.3847     139.4117        19     1.248     0.976 -40.98   0
       179     94.9291    541.2827 300.0397264 +22.5768166     353.8889     72.38148      1.644     3.93     5.925267      20.3847     34.74894         5     0.866     0.511 -54.62   0
       180    728.1706    538.8277 300.2377240 +22.7657853     845.1049     72.23436      1.534     3.66     5.876358      20.3847       83.539        16     1.202     0.883  41.14   0
       181    544.3129    533.6187 300.1821034 +22.7092425     206699.1     72.19753      1.563     2.82      6.31374      20.3847     24146.24       198     1.575     1.456 -21.94   0
       182    230.4255    533.4345 300.0844244 +22.6151678     3630.692     72.27117      1.699     3.23     5.411701      20.3847     383.7419        35     1.377     1.208  35.80   0
       183    312.3626    533.1274 300.1100249 +22.6396287     308.2513     72.21595      1.604     4.76     5.562937      20.3847     27.99847         6     1.159     0.554 -25.27   0
       184    796.4509    530.0913 300.2618573 +22.7837104     406.1357     72.28957      1.535     4.53      6.11089      20.3847     50.13363         9     1.101     0.761  37.37   0
       185    279.5085    516.5389 300.1051853 +22.6250207     247.2832     72.34473      1.257     3.74     5.489101      20.3847     38.97723         6     0.999     0.403  18.75   0
       186    434.9411    513.8300 300.1544575 +22.6708017     2527.721     72.27117      1.560     2.99     6.138708      20.3847     254.5874        28     1.202     1.124 -69.06   0
       187    846.1331    510.9763 300.2835641 +22.7930814     337.2994     72.23436      1.650     4.66     6.065962      20.3847     34.34883         7     0.869     0.710  20.67   0
       188    751.6760    502.6048 300.2568172 +22.7624053     411.2758     72.16069      1.751     3.84     5.938015      20.3847     40.14253         7     1.031     0.846  -1.50   0
       189    832.0225    500.3470 300.2826131 +22.7858016     1712.885     72.27117      1.586     3.20     6.048979      20.3847     170.6566        23     1.199     1.122 -16.52   0
       190    703.1462    497.8757 300.2432189 +22.7465198     2567.469     72.28957      1.502     2.99      5.89964      20.3847     259.4621        28     1.173     1.152  81.46   0
       191    946.1298    491.6923 300.3210324 +22.8174542     1011.781     72.38148      2.518     6.61     6.070263      20.3847     57.61571        15     1.596     1.099  29.60   2
       192    912.9271    494.6797 300.3096991 +22.8083799     313.7239     72.36311      1.640     5.32     6.028574      20.3847     30.43931         6     1.109     0.800 -75.75   0
       193    608.0521    494.8695 300.2145495 +22.7171886     392.2318     72.23436      1.431     3.93     6.156901      20.3847     48.06304         6     0.805     0.550 -29.84   0
       194    490.5389    493.8452 300.1782644 +22.6817086     655.4016     72.27117      1.412     2.90     6.321501      20.3847     99.05933        13     1.052     0.772 -49.87   0
       195    960.4510    492.0283 300.3253937 +22.8218353     1210.535     72.27117      1.573     3.72     6.108745      20.3847     116.0287        16     1.061     1.006 -71.80   0
       196    832.2222    490.2318 300.2859599 +22.7829521     2161.645     72.25277      1.862     4.85     6.028739      20.3847     189.0735        35     1.761     1.164  77.55   0
       197    585.7867    488.7378 300.2096009 +22.7087600     755.2938     72.21595      2.206     6.34     6.277348      20.3847     71.08321        12     1.617     0.699 -81.98   2
       198    870.4263    485.5443 300.2994021 +22.7930356     4396.167     72.25277      1.599     2.95     6.018403      20.3847     438.7833        36     1.279     1.223 -52.95   0
       199    424.2997    487.0714 300.1598315 +22.6599252     407.6607     72.39985      1.332     3.49     6.151715      20.3847     52.57809         7     0.997     0.504 -30.52   0
       200    531.4899    481.3878 300.1950674 +22.6903903     375.3884     72.19753      1.555     4.82     6.369252      20.3847     36.40872         9     1.069     0.616  -8.58   0
       201    962.1309    476.0763 300.3310976 +22.8177484      747.449     72.34473      1.648     4.18     6.121845      20.3847     65.01217        12     1.108     0.922  53.54   0
       202    102.5401    475.5479 300.0634360 +22.5602219     972.4791     72.30796      1.752     3.73     6.003419      20.3847     103.4964        19     1.272     1.045   4.41   0
       203    763.4135    469.6021 300.2711935 +22.7564273     258.2879     72.08694      1.253     3.43     5.944149      20.3847     31.08146         5     1.049     0.324  68.18   0
       204     95.6381    465.6952 300.0644879 +22.5553242     405.5287     72.23436      1.285     2.90     6.067877      20.3847     50.01475         5     0.706     0.476  82.84   0
       205    958.4842    465.4455 300.3334108 +22.8135989     425.5644     72.23436      1.543     3.71     6.113237      20.3847     36.45807         6     0.983     0.402  19.00   0
       206    702.4841    460.5443 300.2551329 +22.7355871     451.7135     72.34473      1.684     3.35     5.915032      20.3847       49.173         8     0.921     0.662  -2.57   0
       207    591.4832    457.9124 300.2213840 +22.7016037     394.1043     72.36311      1.549     4.63     6.213668      20.3847     37.59235         8     0.878     0.833 -52.78   0
       208    311.8194    458.0985 300.1342157 +22.6179108     275.2632     72.17912      1.431     3.78     5.678938      20.3847     36.42878         5     0.802     0.511  42.28   0
       209    643.8602    455.7443 300.2384138 +22.7166596     958.5682     72.32635      1.665     3.14     6.035999      20.3847     91.11476        14     1.015     0.899  77.81   0
       210    958.5377    448.5709 300.3389059 +22.8087597     580.8135     72.27117      1.564     4.15     6.122644      20.3847     68.23681        13     1.197     0.945  28.39   0
       211    704.6667    447.8510 300.2599343 +22.7325902     868.9698     72.27117      1.508     3.71     5.899135      20.3847     90.62609        16     1.154     0.910  41.95   0
       212    861.7491    444.4210 300.3100457 +22.7786098     1105.935     72.25277      1.670     3.35     6.034383      20.3847     103.2185        19     1.174     1.010  56.30   0
       213    846.2746    440.7702 300.3064025 +22.7729296     674.1777     72.27117      1.537     4.26     6.036317      20.3847     69.12842        11     1.085     0.821 -69.11   0
       214    590.3934    438.5966 300.2273148 +22.6957242     3256.246      72.0685      1.496     2.56     6.115737      20.3847     420.1635        29     1.260     1.071  61.56   0
       215    951.1915    437.5578 300.3401880 +22.8033934      537.412     72.27117      1.612     3.75     6.104369      20.3847     56.90124        11     1.146     0.703   7.69   0
       216     67.0560    429.8828 300.0672243 +22.5364746     473.4942     72.32635      1.757     3.74     6.325528      20.3847     47.94855         7     0.968     0.646 -23.18   0
       217    430.4603    425.5019 300.1817373 +22.6440757     442.6809     72.32635      1.459     4.02     6.193375      20.3847     51.11636         6     1.006     0.459  53.44   0
       218   1001.7314    417.7691 300.3623897 +22.8128163     1326.675     72.23436      1.655     3.19      6.24629      20.3847     129.2618        22     1.183     1.129 -15.56   0
       219    873.4196    417.5926 300.3223963 +22.7743834     573.3807     72.21595      1.600     4.41     6.051881      20.3847     56.04048        13     1.058     0.967 -55.14   0
       220    960.1003    416.5065 300.3498025 +22.8000009     1001.961     72.43657      1.622     3.79      6.13777      20.3847     100.4704        16     1.221     0.931  41.83   0
       221    701.0813    412.6549 300.2702411 +22.7213955     1147.206     72.28957      1.460     2.61     5.864942      20.3847     148.2556        16     1.005     0.941  23.43   0
       222    496.3878    413.1024 300.2062978 +22.6602519     463.0156     72.14226      1.426     2.71     6.277592      20.3847     64.21027         6     0.770     0.594 -20.18   0
       223    204.8366    410.7661 300.1162849 +22.5722652     703.9521     72.30796      1.557     3.16     5.729098      20.3847     71.56799        12     0.974     0.812  26.18   0
       224    267.3417    406.3112 300.1371813 +22.5897088      3900.93     72.32635      1.584     2.89      5.67306      20.3847     439.2022        33     1.296     1.188  -7.06   0
       225   1000.4926    405.0516 300.3661309 +22.8087860     4181.521     72.30796      1.656     3.45     6.115297      20.3847     387.7975        34     1.327     1.255 -44.19   0
       226    214.5410    400.9783 300.1224810 +22.5723604     7733.692     72.25277      1.657     3.29     5.744594      20.3847     782.0851        47     1.379     1.322  39.01   0
       227    980.5045    396.2744 300.3627393 +22.8002819     1964.898     72.39985      1.747     2.97      6.02669      20.3847      192.638        27     1.238     1.193  19.02   0
       228    355.3747    395.3314 300.1681481 +22.6129197     4846.061     72.25277      1.569     2.82     5.783256      20.3847     550.8576        34     1.214     1.205 -75.69   0
       229    599.5886    392.1195 300.2452662 +22.6851135     18570.95     72.23436      1.486     2.72     5.924074      20.3847     2020.915        59     1.336     1.278   2.32   0
       230    617.1562    392.3950 300.2506524 +22.6904511     873.3657     72.25277      2.009     7.62     5.893353      20.3847     72.17746        19     1.830     0.888 -30.81   0
       231    456.3937    388.6511 300.2017750 +22.6412488     238.5534     72.23436      1.581     3.91     6.253885      20.3847     26.74911         5     1.018     0.431 -75.53   0
       232    796.9864    382.6140 300.3099023 +22.7414530     347.5594     72.17912      1.500     3.93     6.040213      20.3847     41.91966         8     1.058     0.781  11.16   0
       233    933.1169    374.9908 300.3548544 +22.7799835     738.5638     72.19753      1.558     4.35     6.014038      20.3847     68.15341        14     1.174     0.953 -29.66   0
       234    469.8159    374.0897 300.2106815 +22.6410815     352.2227     72.17912      1.472     5.22     6.288208      20.3847     43.45498         6     1.043     0.739 -63.15   0
       235    154.2220    372.1443 300.1130720 +22.5460073     2133.558     72.28957      1.662     3.00     5.853791      20.3847       209.37        27     1.331     1.173 -31.21   0
       236    953.9436    362.0729 300.3655477 +22.7824953     1142.928     72.28957      1.486     3.58     5.893085      20.3847     115.0938        16     1.224     0.869 -35.58   0
       237    540.2596    361.5279 300.2367048 +22.6585585       6639.5     72.28957      1.508     2.75     5.991024      20.3847     732.4908        37     1.245     1.169  73.34   0
       238    255.0014    360.9362 300.1480658 +22.5729749     639.7629     72.25277      1.460     3.30      5.75943      20.3847     61.95607        12     0.986     0.849   3.28   0
       239    112.4826    353.4417 300.1061578 +22.5281303     592.6222     72.21595      1.828     6.97     5.894421      20.3847     56.31931        16     1.475     1.063  66.52   0
       240    799.7893    353.4492 300.3202414 +22.7339015     277.6199     72.27117      1.298     4.28     6.048898      20.3847     44.48034         5     0.894     0.584  47.72   0
       241    654.0093    352.0222 300.2752425 +22.6898706     421.7859     72.25277      1.339     3.93     5.830644      20.3847     53.86482         9     0.931     0.710 -69.09   0
       242    744.5435    350.5887 300.3039376 +22.7165494     1042.757     72.23436      1.522     3.31     5.887973      20.3847     126.8764        17     1.134     0.955  57.29   0
       243    446.8791    347.7566 300.2120820 +22.6266445     6262.889     72.23436      1.518     2.86      6.21948      20.3847     729.5193        34     1.240     1.145  48.48   0
       244    936.3375    342.9414 300.3662603 +22.7717239     654.4237     72.30796      1.643     4.18     5.945457      20.3847     68.06885        11     1.172     0.663 -43.91   0
       245    838.9790    342.3369 300.3360737 +22.7424284     1509.699     72.21595      1.503     2.95     6.026984      20.3847     174.8556        21     1.093     1.058  69.87   0
       246    431.9126    336.4105 300.2111020 +22.6189021     399.2226     72.19753      1.510     4.70     6.201626      20.3847     47.73956         8     1.034     0.605 -65.15   0
       247    514.2614    334.5677 300.2373523 +22.6430245     426.1069     72.28957      1.439     3.85     6.049205      20.3847     57.53651         8     0.850     0.758  35.48   0
       248    812.0824    329.9067 300.3317156 +22.7308059      495.026     72.41821      1.478     3.83     6.000772      20.3847     52.18619        10     1.025     0.789 -73.96   0
       249    334.4761    326.8951 300.1838488 +22.5869929     2726.739     72.39985      1.591     2.85     5.997595      20.3847     299.8766        29     1.241     1.174 -70.22   0
       250     93.2247    327.9977 300.1084239 +22.5150519     200.6279     72.19753      1.212     4.98     6.008563      20.3847      25.3506         5     1.143     0.613   0.17   0
       251     53.0145    324.2992 300.0971198 +22.5019427     905.6639     72.16069      1.587     3.53     6.456536      20.3847     98.43157        19     1.221     0.980  19.29   0
       252    281.8458    320.6520 300.1694912 +22.5694383     284.4231     72.28957      1.085     3.51     6.019948      20.3847      31.7082         5     0.799     0.446  14.63   0
       253    303.7942    316.3265 300.1777263 +22.5747678     30343.36     72.19753      1.595     2.95     6.082888      20.3847     3329.768        74     1.410     1.340  60.34   0
       254    838.5479    314.1898 300.3450721 +22.7342007     1440.426     72.25277      1.467     2.96     5.963834      20.3847     140.1757        17     1.073     0.978 -54.67   0
       255    793.7941    312.0105 300.3318171 +22.7201859     335.2508     72.12383      1.405     2.92     5.948158      20.3847     42.13742         5     0.796     0.481 -37.85   0
       256      1.4263    304.0881 300.0876374 +22.4806810     2246.373     56.77349      1.127     2.84     6.930054      20.3847     448.3615        16     1.236     0.627 -85.72  24
       257    753.7081    303.2143 300.3221674 +22.7056629     519.0909     72.17912      1.390     2.93     5.862566      20.3847     60.45652        11     0.965     0.732 -14.66   0
       258    178.0658    302.6346 300.1430421 +22.5331794     577.3821     72.25277      1.704     4.49     6.027748      20.3847     59.77036        12     1.100     0.992 -61.19   0
       259    402.3412    301.7792 300.2131282 +22.6000932     386.1616     72.23436      1.209     4.17     6.284658      20.3847      57.6343         9     1.020     0.725   3.80   0
       260    714.2615    296.3542 300.3120910 +22.6918876     2064.242     72.27117      1.521     2.83     5.824398      20.3847     211.9986        21     1.190     0.969 -37.97   0
       261    522.7394    291.1033 300.2540953 +22.6330644     370.6298     72.32635      1.242     3.41     5.865771      20.3847     52.82174         8     1.129     0.567 -27.22   0
       262    929.3510    289.0479 300.3815659 +22.7541239     465.8152     72.28957      1.269     3.72     5.854715      20.3847     71.59001        10     1.046     0.699  59.02   0
       263    376.0436    280.7962 300.2117461 +22.5861881     2241.709     72.27117      1.671     3.52     6.310375      20.3847     200.9207        27     1.396     1.034  68.03   0
       264    815.0201    274.2306 300.3506955 +22.7156649     545.7148     72.25277      1.417     3.72     5.905441      20.3847     67.16528        11     1.020     0.810 -15.27   0
       265    698.2164    271.3499 300.3151992 +22.6798939     428.5917     72.27117      1.407     4.33     5.814589      20.3847     47.47427         9     0.894     0.742 -11.41   0
       266    451.9077    260.0033 300.2421173 +22.6029206     1330.132     72.16069      1.622     3.46     5.950902      20.3847     127.4009        23     1.205     1.100  83.09   0
       267    963.0027    256.8158 300.4025265 +22.7549095     361.8308     72.12383      1.055     2.15     5.773059      20.3847     53.11416         5     0.638     0.521  89.79   0
       268    696.7971    252.0593 300.3210140 +22.6739197     2295.897     72.21595      1.562     3.07     5.809671      20.3847     226.3804        26     1.262     1.118  50.86   0
       269    958.1674    246.6673 300.4043090 +22.7505424     3288.788     72.25277      1.663     3.17     5.790126      20.3847     335.4174        32     1.339     1.192 -60.88   0
       270   1019.8619    241.5820 300.4252203 +22.7675245     355.9529     71.77267      1.678     5.01     5.787123      20.3847      48.6116         8     1.280     0.556  64.84  16
       271    405.0454    236.1759 300.2352501 +22.5820421     651.1749     72.27117      1.370     2.93     5.941764      20.3847     89.78011        11     1.016     0.694  12.42   0
       272     79.9559    229.9333 300.1361062 +22.4829042      1526.53     72.23436      2.140     4.47     6.362202      20.3847     103.3323        26     1.600     1.094 -43.82   0
       273    111.0240    230.3269 300.1456408 +22.4923229     601.4509     72.28957      1.618     2.75      6.32971      20.3847     72.84949         8     0.905     0.653  78.00   0
       274    974.1146    227.1779 300.4156088 +22.7497001     543.2935     72.19753      1.600     3.89     5.827726      20.3847     50.93525         8     0.874     0.765 -57.54   0
       275    817.8870    224.0067 300.3678806 +22.7020695     398.9135     72.16069      1.610     3.33     5.886788      20.3847     38.32904         7     0.861     0.639  24.61   0
       276    164.3792    222.3801 300.1648146 +22.5060189     442.0992     72.25277      1.325     2.53     6.273061      20.3847     65.16455         6     0.881     0.431 -16.84   0
       277    959.0630    219.9030 300.4132695 +22.7431056     399.3564     72.34473      1.518     4.23     5.832477      20.3847     45.05647         6     1.020     0.501  16.71   0
       278    840.3540    216.0579 300.3774683 +22.7065012     270.5567     72.30796      1.401     4.23     5.849798      20.3847     34.07574         5     0.848     0.603   6.06   0
       279    768.2535    213.6959 300.3557415 +22.6842572     632.0519     72.32635      1.548     3.11     5.874999      20.3847     82.03516        12     0.952     0.887 -51.35   0
       280    359.1163    213.3206 300.2283603 +22.5617221     456.2292     72.39985      1.728     4.40     6.282438      20.3847      46.0141         8     1.130     0.647 -68.59   0
       281    776.0602    206.0553 300.3606545 +22.6843935     2664.374     72.32635      0.424     1.62     5.876823      20.3847     2177.572         7     0.310     0.279  64.17   0
       282    866.6772    202.7519 300.3899972 +22.7105435     2085.771     72.25277      1.561     2.85     5.809063      20.3847       253.02        23     1.149     1.062 -23.98   0
       283    285.1159    199.6469 300.2097573 +22.5356375     2062.608     72.23436      1.632     2.96     6.358832      20.3847     228.8461        28     1.314     1.156  85.21   0
       284    363.0063    194.9421 300.2355313 +22.5576026     998.1854     72.21595      1.573     3.56     6.255558      20.3847     96.47543        18     1.148     1.028  38.25   0
       285    765.1190    194.2076 300.3610839 +22.6777115     605.3557     72.17912      1.500     4.01     5.873127      20.3847     69.38908         9     1.157     0.675  74.50   0
       286    297.5330    186.5549 300.2178676 +22.5355913     429.1699     72.25277      1.792     6.05     6.367693      20.3847     33.94399         9     1.230     0.836  -1.57   0
       287    179.9338    186.9052 300.1811572 +22.5004817     649.6858     72.38148      1.526     3.27     6.317156      20.3847     80.82079        13     1.089     0.935 -19.00   0
       288    717.7366    184.0967 300.3495850 +22.6606295     1686.796     72.34473      1.484     2.89     5.879779      20.3847      200.901        20     1.108     1.000 -55.68   0
       289    782.4911    183.7961 300.3698789 +22.6799111      672.192     72.16069      1.711     3.59     5.864927      20.3847     67.99824        11     1.082     0.787  12.81   0
       290    201.3296    180.4496 300.1899074 +22.5050329     520.6145     72.25277      1.580     4.07     6.349184      20.3847     58.58307         9     1.045     0.640 -45.56   0
       291    989.2695    176.7741 300.4366865 +22.7397196     912.2518     72.25277      1.625     3.22     6.135942      20.3847     103.4306        15     1.032     0.999 -25.58   0
       292    721.6477    175.4592 300.3536055 +22.6593139     806.9791     72.30796      2.128     5.97     5.892798      20.3847     84.32047        16     1.524     0.972 -77.93   0
       293    642.3731    174.9480 300.3290534 +22.6354529     1225.383     72.27117      1.380     2.58     5.829997      20.3847     158.2709        19     1.083     0.951 -15.13   0
       294    491.4931    176.3155 300.2815890 +22.5907019     294.9204     72.43657      1.303     3.43     5.733626      20.3847     44.64465         5     0.802     0.424  67.03   0
       295    837.8204    166.5107 300.3927452 +22.6914828      1535.19     72.19753      1.538     2.40     5.804374      20.3847     195.6838        23     1.232     1.018  37.01   0
       296    568.5593    166.7331 300.3087095 +22.6110059     1006.591     72.21595      1.434     2.84     5.774689      20.3847     118.7061        14     1.041     0.822 -31.12   0
       297    849.7081    165.6144 300.3967450 +22.6947797     908.3036     72.17912      1.563     3.23     5.794258      20.3847     91.15255        14     1.060     0.818  37.14   0
       298    895.8073    165.3130 300.4112284 +22.7084772     355.3419     72.16069      1.334     4.12     5.815001      20.3847     44.18706         6     1.076     0.451   6.34   0
       299   1010.7600    156.5165 300.4499651 +22.7403110     1630.821     72.21595      1.676     3.28     6.369175      20.3847     171.2987        23     1.312     1.125 -30.47   0
       300    966.7662    155.8971 300.4364304 +22.7269813     1222.048     72.23436      1.586     3.48     6.094788      20.3847     114.8119        20     1.181     1.056 -18.10   0
       301    200.4924    148.7518 300.1999238 +22.4956712     751.5797     72.28957      1.520     3.60     6.386384      20.3847      96.7751        13     1.209     0.757  -5.21   0
       302     62.4797    143.0685 300.1588366 +22.4527104     2265.517     72.36311      1.893     3.63      6.47272      20.3847     201.3141        34     1.455     1.397  58.88   0
       303    885.6588    140.8443 300.4159948 +22.6983989     719.5104     72.27117      1.518     3.04     5.808143      20.3847     87.98444        11     1.066     0.659  -8.53   0
       304     11.6067    140.2316 300.1439384 +22.4366588     490.4878     72.25277      1.743     5.62     6.480652      20.3847     54.32914        11     1.564     0.672  27.65   0
       305    219.7405    136.6300 300.2098429 +22.4979496     5630.546     72.27117      1.668     3.12     6.426819      20.3847     592.5836        36     1.331     1.285 -31.24   0
       306    201.8618    137.9254 300.2038597 +22.4929692      506.838     72.28957      1.809     4.58     6.407964      20.3847     34.27016         8     1.001     0.595 -27.08   0
       307      4.1028    131.0576 300.1445795 +22.4317753     1327.346     69.16875      1.741     3.50     6.481725      20.3847     119.9905        21     1.277     1.096  -4.84  24
       308    203.5049    127.4266 300.2077744 +22.4904432     710.2224     72.19753      1.612     3.69     6.428781      20.3847     74.86707        13     1.108     0.899 -45.35   0
       309   1018.7991    124.4257 300.4628799 +22.7334730     18431.09     72.19753      1.766     3.30     6.415777      20.3847     1757.832        65     1.544     1.424 -72.18  16
       310    864.0367    118.4168 300.4165183 +22.6854776     3681.396     72.25277      1.629     3.03     5.784073      20.3847     398.4913        38     1.406     1.246 -80.57   0
       311    967.7567    117.2635 300.4492652 +22.7161534     2817.021     72.25277      1.680     3.08     6.113165      20.3847     307.2788        30     1.351     1.176 -86.96   0
       312    413.4764    113.4493 300.2776690 +22.5492743     522.1552     72.25277      1.559     3.22     6.381998      20.3847     69.16628        11     1.011     0.772  13.70   0
       313    167.0191    114.4574 300.2006267 +22.4757913     353.1211     72.23436      1.415     2.48     6.430691      20.3847     46.14746         6     0.780     0.498  -2.19   0
       314    338.7540    104.7775 300.2572121 +22.5244176     968.9443     72.28957      2.840     8.74     6.487353      20.3847     68.66431        20     2.048     1.067 -16.51   0
       315    464.7564    100.8265 300.2977331 +22.5609887     1675.566     72.27117      1.546     3.19     5.936186      20.3847     186.9085        19     1.142     0.976  68.76   0
       316    392.9065    101.4058 300.2751668 +22.5396548     365.9446     72.14226      1.182     3.58     6.493139      20.3847     56.46213        10     1.037     0.646 -32.81   0
       317    103.6505    102.2719 300.1848648 +22.4533150     655.1442     72.25277      1.507     3.76     6.467686      20.3847     73.22721        10     1.074     0.678   4.40   0
       318    526.2594    100.4014 300.3170322 +22.5792683     310.0294     72.21595      1.312     2.67     6.135172      20.3847     39.39475         5     0.712     0.455  19.51   0
       319    208.2072     96.4044 300.2192933 +22.4829329     371.9375     72.10538      1.440     3.55     6.482519      20.3847     37.77839         5     0.811     0.448  17.24   0
       320    753.2090     90.4848 300.3909975 +22.6442980     257.4019     72.19753      1.345     2.75     6.286033      20.3847     39.64217         5     0.726     0.473  17.06   0
       321    109.6060     86.7541 300.1917467 +22.4506381     253.4399     72.25277      1.449     4.21     6.530397      20.3847     34.94295         6     0.743     0.680  -6.75   0
       322    899.5082     85.1022 300.4383874 +22.6864910     408.8871     72.43657      1.628     4.16     5.949353      20.3847      40.1293         5     0.774     0.638  15.82   0
       323    238.8343     80.4240 300.2340034 +22.4875071     5871.347     72.27117      1.684     3.22      6.51319      20.3847     620.4666        44     1.409     1.313  67.94   0
       324     89.8785     80.1415 300.1877542 +22.4428306      656.386     72.28957      2.073     4.77     6.592141      20.3847     62.37784        10     1.252     0.836 -25.48   0
       325    868.1353     78.0854 300.4308711 +22.6750917     302.0594     72.34473      1.302     5.11     5.993258      20.3847     38.88696         7     1.013     0.729  23.81   0
       326    210.6621     74.6716 300.2271010 +22.4774199     340.9871     72.28957      1.586     4.88     6.504095      20.3847     35.95463         6     0.901     0.748  77.36   0
       327    253.8013     71.8447 300.2414420 +22.4895205     397.7952     72.25277      1.484     4.64     6.549626      20.3847     49.82986         7     1.111     0.550 -12.95   0
       328      1.4281     70.3639 300.1634200 +22.4135340     248.3687      56.7735      1.319     4.05     6.904786      20.3847     34.91006         7     0.995     0.472 -80.14  24
       329    484.9358     65.8180 300.3153664 +22.5569559     6360.911     72.23436      1.590     3.14     6.163065      20.3847     635.5189        45     1.504     1.226 -73.97   0
       330    370.4581     65.9221 300.2796773 +22.5227317       594.12     72.28957      1.336     3.18     6.525337      20.3847     77.65251        13     1.098     0.753  12.21   0
       331    542.3182     60.7567 300.3348859 +22.5726668      273.538     72.21595      1.424     4.26     6.448212      20.3847     43.59287         6     0.923     0.717 -50.54   0
       332    737.1964     56.4355 300.3970393 +22.6297091     870.2826     72.25277      1.769     6.20     6.252822      20.3847     88.03688        19     1.783     0.901 -73.90   0
       333    678.9438     58.0039 300.3783655 +22.6127403     379.9921     72.21595      1.514     3.21     6.256186      20.3847     36.16076         5     0.949     0.384  27.52   0
       334    829.9640     54.9057 300.4264733 +22.6570062     376.8362     72.25277      1.347     3.55     6.229699      20.3847     59.78335         9     1.057     0.664   0.94   0
       335    177.8877     49.6507 300.2250121 +22.4604153     471.2237     72.27117      1.419     5.13     6.631538      20.3847     54.13975        10     1.101     0.675  42.46   0
       336    613.3088     46.0743 300.3617695 +22.5896769     6208.071     72.41821      1.514     2.89     6.266631      20.3847     658.6117        37     1.297     1.206  74.71   0
       337    536.7349     48.5386 300.3371057 +22.5674812     321.4793     72.28957      1.236     2.24     6.487193      20.3847     50.70437         5     0.693     0.439 -26.19   0
       338    388.0698     45.0442 300.2919276 +22.5219971     1429.636     72.21595      1.552     3.05     6.549959      20.3847     142.4401        23     1.189     1.081  20.61   0
       339    654.3140     43.5113 300.3753831 +22.6012033     882.5125     72.41821      1.585     3.83     6.245891      20.3847     85.33836        17     1.122     1.078  51.38   0
       340    670.5836     39.4546 300.3817703 +22.6049014     603.8129     72.23436      1.723     4.83     6.226565      20.3847     62.81274        15     1.363     0.898 -29.40   0
       341    940.1136     37.6562 300.4664391 +22.6849665     500.8924     72.34473      1.492     2.74     6.314568      20.3847     62.08059         7     0.820     0.586  21.87   0
       342    137.0325     37.2652 300.2163158 +22.4446239       741.54     72.25277      1.893     3.74     6.787275      20.3847     67.62904        11     1.127     0.794  17.09   0
       343    708.6451     35.4086 300.3949497 +22.6151190     488.2019     72.27117      1.436     2.77     6.217511      20.3847     58.99906         7     0.782     0.662 -63.71   0
       344    657.5719     31.0175 300.3804476 +22.5985819     2691.188     72.25277      1.531     2.78     6.239456      20.3847     281.9551        26     1.181     1.120 -53.75   0
       345    298.3300     31.8721 300.2682557 +22.4913537     394.0692     72.32635      1.870     3.65     6.681301      20.3847     40.47952         5     0.828     0.464 -38.74   0
       346    672.5420     29.9803 300.3854512 +22.6027603      905.423     72.25277      1.964     5.31     6.209103      20.3847     68.46696        15     1.421     0.797  45.50   0
       347    744.0896     22.7143 300.4101173 +22.6220635     1460.447     72.41821      1.519     3.02     6.199172      20.3847       165.32        19     1.137     0.975  -3.65   0
       348    221.0943    999.6253 299.9299927 +22.7461944     814.9755     72.17912      2.095     6.11     80.96061      20.3847     58.78336        16     1.610     1.324  42.34   0
       349    209.6561    984.5123 299.9313509 +22.7384278     4708.272     72.30796      8.236    25.76     67.50111      20.3847     97.62855       371     6.503     4.466 -52.53  19
       350    346.1739    997.3493 299.9696591 +22.7830519     605.3063     72.27117      2.305     7.58     5.446628      20.3847     35.18572        10     1.556     1.034  33.68   0
       351    287.3410   1011.3963 299.9467768 +22.7694401     949.0146     72.21595      1.860     5.23     9.722041      20.3847     79.43214        19     1.516     1.073  59.51   2
       352      2.6393   1005.5922 299.8601179 +22.6823698     1151.305     63.13863     11.773    14.85    -6.864285      20.3847     44.75712        23     3.728     1.645 -63.19  27
       353    191.3419   1002.0923 299.9199340 +22.7379781     1745.742     72.30796      4.051    22.60     85.34109      20.3847     59.63067        83     4.529     3.131   7.72  19
