#   1 NUMBER                 Running object number                                     
#   2 X_IMAGE                Object position along x                                    [pixel]
#   3 Y_IMAGE                Object position along y                                    [pixel]
#   4 ALPHA_J2000            Right ascension of barycenter (J2000)                      [deg]
#   5 DELTA_J2000            Declination of barycenter (J2000)                          [deg]
#   6 FLUX_APER              Flux vector within fixed circular aperture(s)              [count]
#   7 FLUXERR_APER           RMS error vector for aperture flux(es)                     [count]
#   8 FLUX_RADIUS            Fraction-of-light radii                                    [pixel]
#   9 FWHM_IMAGE             FWHM assuming a gaussian core                              [pixel]
#  10 BACKGROUND             Background at centroid position                            [count]
#  11 THRESHOLD              Detection threshold above background                       [count]
#  12 FLUX_MAX               Peak flux above background                                 [count]
#  13 ISOAREA_IMAGE          Isophotal area above Analysis threshold                    [pixel**2]
#  14 A_IMAGE                Profile RMS along major axis                               [pixel]
#  15 B_IMAGE                Profile RMS along minor axis                               [pixel]
#  16 THETA_IMAGE            Position angle (CCW/x)                                     [deg]
#  17 FLAGS                  Extraction flags                                          
         1    407.3743     15.8291 300.3408759 +22.5071314     2132.961     72.54603      1.373     2.48     4.890965     20.46744     275.2563        19     1.124     0.836  64.57   0
         2     54.4650     13.6687 300.2318611 +22.4007802     1468.736     72.60144      1.590     3.11      5.73627     20.46744     144.2467        20     1.135     1.032  23.35   0
         3    538.2922     10.2805 300.3834185 +22.5447405     483.7474     72.67526      1.637     3.57     4.811064     20.46744     57.90779         9     1.175     0.511  74.74   0
         4    881.9392      4.3220 300.4924087 +22.6458829     427.1663     70.16004      1.429     2.85     5.051198     20.46744     41.68832         7     0.732     0.649  -8.36  16
         5     41.2457    995.1017 299.9089065 +22.6783006     2741.055     72.58298      7.980    25.92      32.5892     20.46744     64.49223       193     7.353     2.536 -18.78  19
         6    185.0030   1017.2643 299.9463511 +22.7278197     1243.436     72.54603      5.911     8.81     12.87471     20.46744     39.53628        11     2.315     0.936  65.75  19
         7    192.9012   1022.1818 299.9472045 +22.7316003     1658.399     64.19341      7.206    14.57     11.89243     20.46744     53.99852        41     2.743     2.151  72.55  26
         8    174.6197   1023.1707 299.9412014 +22.7263945     601.4856     59.30897      6.844     6.63     15.18909     20.46744     39.49588         9     1.637     0.754   8.76  24
         9    135.1034   1023.6287 299.9287739 +22.7146599     496.6765     56.65009      3.234     4.32     23.30112     20.46744     40.42899         5     1.389     0.382  12.79  25
        10    129.6850   1021.2885 299.9278524 +22.7123622     1048.873     68.08493      4.564     7.99     23.78452     20.46744     42.35485        14     1.479     1.208 -59.86  27
        11    123.8079   1020.0893 299.9264169 +22.7102538     1383.209      71.5787      6.722    12.69      24.8106     20.46744      43.9828        30     2.696     1.661  57.98  26
        12     84.6894   1022.0259 299.9136343 +22.6990612     1436.988     64.94083     21.225    26.33     33.52863     20.46744      48.2054       104     6.751     2.852  10.20  27
        13     60.3250   1016.9958 299.9077043 +22.6903029     2226.346     72.45358     14.219    28.23     37.44901     20.46744     52.07311       157     6.152     3.595 -85.10  27
        14     71.1510   1012.9385 299.9123877 +22.6923918     2335.694     72.60144     12.047    18.70     33.78793     20.46744     56.44324        94     3.814     2.546 -45.17  19
        15     40.4069    983.7720 299.9123342 +22.6748029     2408.775     72.54603      7.294    26.47     28.24816     20.46744     50.75253       200     6.496     2.995 -25.70   3
        16    416.0280   1014.6408 300.0190353 +22.7964182     966.6747     72.56451      1.731     3.79     3.535564     20.46744     80.83756        18     1.164     1.044 -43.57   0
        17    699.6741   1014.8635 300.1072538 +22.8815847     331.6682     72.58298      1.550     4.89     3.834349     20.46744      33.5095         7     1.068     0.635 -39.99   0
        18    346.4785   1012.6230 299.9980603 +22.7749654     6543.007     72.52755      1.747     3.61      3.61844     20.46744     537.1661        45     1.421     1.365 -54.58   0
        19     40.7412   1014.9073 299.9023020 +22.6838229     3607.926     72.60144      9.542    37.15     40.71091     20.46744     88.06264       488     7.480     5.848  41.55  27
        20     52.8951   1000.1146 299.9108926 +22.6832353     1689.379     72.73058     14.784    16.81      32.5938     20.46744     47.61839        56     4.456     1.762   0.27  19
        21    379.2188    999.5107 300.0125118 +22.7810332     497.2178     72.47208      1.506     4.56     3.571593     20.46744     49.20679        12     1.078     0.800  28.08   0
        22     80.1235    991.9873 299.9219955 +22.6890838      986.232     72.56451      5.828     6.39     25.62401     20.46744     39.75345        11     1.358     0.975 -16.51   2
        23    892.8962    991.0217 300.1752248 +22.9326863     2013.415     72.45358      1.627     3.45      3.24808     20.46744     159.5907        24     1.188     1.153 -20.71   0
        24    543.3159    988.4304 300.0671766 +22.8270975     483.0553     72.56451      1.638     4.13     2.871885     20.46744      40.7869         9     0.962     0.870 -52.25   0
        25    391.1261    987.0284 300.0202792 +22.7810281     356.3146     72.56451      1.823     3.84     3.542722     20.46744     27.96167         5     1.242     0.340 -25.02   0
        26    681.6860    980.0378 300.1129903 +22.8661982     836.6482     72.52755      1.877     7.04     3.779963     20.46744     54.45536        17     1.435     0.994  52.64   0
        27     56.2417    978.0474 299.9191156 +22.6779182     1061.292     72.58298      6.223    10.50     24.03875     20.46744     40.19289        19     2.433     1.263  81.08   1
        28   1008.5848    978.5337 300.2153638 +22.9637815     503.3169     72.52755      1.879     5.23     2.812182     20.46744      34.4079         8     1.108     0.697  87.28   0
        29    716.5653    974.3369 300.1257102 +22.8750236     993.0363     72.54603      1.458     3.21      3.77064     20.46744     94.04229        16     1.078     0.899 -73.41   0
        30    494.1390    975.0975 300.0562124 +22.8085190      436.005      72.6199      1.940     3.90     2.999279     20.46744     34.68634         6     0.955     0.455 -38.01   0
        31    738.7369    967.8809 300.1347186 +22.8798205     11100.17     72.65681      1.580     3.11     3.758522     20.46744     1022.664        50     1.325     1.303  -4.32   0
        32    784.3821    967.7012 300.1489980 +22.8934569     454.3606     72.45358      1.629     3.25     3.695633     20.46744     56.38279         7     0.879     0.783  14.57   0
        33     50.6055    959.4841 299.9234076 +22.6709071     255.4239     72.47208      1.356     2.94     17.38184     20.46744     53.66981         6     0.894     0.413 -70.79   0
        34    443.9160    956.4284 300.0466627 +22.7880956     571.7571     72.54603      1.708     5.26     3.364129     20.46744     62.84545         8     0.966     0.809 -17.48   0
        35    790.1832    955.5696 300.1547550 +22.8917150      434.279     72.52755      1.564     6.12     3.683342     20.46744     36.74051        13     1.279     0.824 -30.95   0
        36    747.3115    949.9224 300.1432361 +22.8772387     1394.755      72.6937      1.496     3.03     3.723544     20.46744     152.1206        20     1.087     1.034 -11.19   0
        37    930.0051    949.1113 300.2004386 +22.9317808     372.4564     72.45358      1.496     6.16     3.314682     20.46744     33.76435        12     1.209     0.884  65.60   0
        38    599.2860    947.5818 300.0978977 +22.8321715     480.3979     72.49057      1.554     4.99     3.267272     20.46744     55.77837         7     1.155     0.637  16.22   0
        39    785.3449    943.3079 300.1572391 +22.8867453     771.0572     72.60144      1.492     3.16     3.683202     20.46744     76.43595        12     1.014     0.834 -23.14   0
        40    893.8989    940.0784 300.1921225 +22.9183643      368.664     72.67526      1.606     2.74     3.569923     20.46744     41.74246         5     0.851     0.776   0.95   0
        41    833.7950    934.4888 300.1752079 +22.8987410     515.3157     72.45358      1.489     4.98     3.669478     20.46744     50.14774        12     1.222     0.788  65.89   0
        42    684.9352    933.7696 300.1290643 +22.8538978     657.4937     72.56451      1.502     4.23     3.708485     20.46744     61.33332        12     1.080     0.803  87.53   0
        43    397.6924    930.2861 300.0407924 +22.7667289     4154.541     72.71214      1.568     3.03     3.479386     20.46744     419.1633        34     1.271     1.163 -15.86   0
        44    696.4657    930.7762 300.1336299 +22.8564969     592.4054     72.52755      1.455     4.02     3.703824     20.46744     71.45465        13     1.110     0.842   4.51   0
        45    176.3412    918.8156 299.9757060 +22.6970048     355.5884     72.50906      1.554     5.23     5.191044     20.46744     41.83498         8     1.164     0.662  44.52   0
        46    440.9364    918.3907 300.0581167 +22.7762934     479.3239     72.50906      1.648     4.99     3.448348     20.46744     41.20158         8     1.160     0.646   8.84   0
        47    122.8194    915.8590 299.9600380 +22.6800894     794.6411     72.49057      1.653     3.90     5.944561     20.46744     72.20667        13     0.993     0.925 -36.97   0
        48    100.0118    913.0563 299.9538646 +22.6724386     1548.452     72.52755      1.691     3.60     6.143775     20.46744     172.3971        22     1.253     1.163 -21.70   0
        49     31.1954    914.5287 299.9320108 +22.6521976     351.4406     72.49057      1.615     3.55      5.14675     20.46744     55.23199         6     1.038     0.639 -49.26   0
        50    971.9094    901.6957 300.2289392 +22.9307280     2130.667     72.73058      1.623     3.38     3.497826     20.46744     156.4261        24     1.195     1.123 -26.29   0
        51    926.1055    900.3103 300.2151078 +22.9166019     2124.244     72.73058      1.589     3.14     3.613367     20.46744     184.0518        25     1.164     1.122 -17.46   0
        52    632.1382    900.2150 300.1235438 +22.8284360     351.2992     72.49057      1.310     4.00     3.626516     20.46744     37.33607         5     0.967     0.473  47.00   0
        53    403.3175    899.4033 300.0525933 +22.7595608     259.8014     72.47208      1.210     3.90     3.439229     20.46744     28.20053         5     1.027     0.424  15.30   0
        54    709.5588    894.4662 300.1495263 +22.8500040      597.527     72.52755      1.268     2.57     3.680428     20.46744     74.73657        10     0.888     0.707 -12.39   0
        55    132.4158    894.3946 299.9700046 +22.6768188     460.2203     72.47208      1.486     4.64     5.035733     20.46744     41.02615         8     1.032     0.593  72.36   0
        56    577.7268    888.2642 300.1104924 +22.8086878     4684.906     72.58298      1.433     2.64      3.51987     20.46744     511.8342        31     1.134     1.117 -10.58   0
        57     67.8080    888.9418 299.9517084 +22.6558591      396.011     72.52755      1.570     5.70     4.697292     20.46744     42.91057         9     1.440     0.636 -71.24   0
        58    379.9741    885.3502 300.0499056 +22.7485264     689.6843     72.56451      1.486     2.81      3.44368     20.46744     86.76859        10     0.898     0.744 -66.01   0
        59    127.8619    882.1638 299.9725697 +22.6719462     1409.798     72.56451      1.672     3.55     4.613336     20.46744     113.5496        21     1.228     1.051  75.59   0
        60    317.4877    883.1309 300.0311948 +22.7291394     288.2657      72.6937      1.181     3.35     3.556032     20.46744     45.44489         7     0.874     0.608  -8.13   0
        61    598.4387    880.7465 300.1193870 +22.8127431     783.6213     72.54603      1.612     2.69     3.611923     20.46744     85.14517        12     1.008     0.717  30.57   0
        62    396.8013    880.4616 300.0567304 +22.7521735     252.9703     72.50906      1.227     2.41     3.422515     20.46744     46.87375         5     0.767     0.659 -63.05   0
        63    147.0744    879.4186 299.9794324 +22.6769269     510.6826     72.54603      1.568     5.83     4.532769     20.46744     46.23344        10     1.059     1.044 -43.77   0
        64    514.4869    871.5151 300.0962586 +22.7849138     284.1233     72.67526      1.500     2.88     3.508349     20.46744     50.70118         5     0.921     0.484   9.15   0
        65    970.6290    868.1851 300.2394462 +22.9207220     1093.615     72.56451      1.593     3.51     3.558052     20.46744     94.86331        19     1.177     1.034   1.59   0
        66    753.7527    867.9054 300.1719373 +22.8556324     4159.319     72.56451      1.453     2.64     3.657456     20.46744     467.9369        32     1.171     1.131   6.78   0
        67   1008.3933    868.0466 300.2512689 +22.9319992      344.304     72.56451      1.638     5.40     3.511738     20.46744     32.83926         7     1.247     0.659 -14.88   0
        68    484.4651    864.6754 300.0891415 +22.7739460     341.4323     72.60144      1.702     4.75     3.455193     20.46744      29.2117         6     0.963     0.664  22.37   0
        69    161.9165    862.0186 299.9897059 +22.6763947     382.7633     72.49057      1.339     5.54     4.223511     20.46744     48.90221        10     1.120     0.772  46.47   0
        70    470.7676    860.3563 300.0862846 +22.7685981     498.8924     72.60144      1.239     2.67     3.450325     20.46744     74.91489        10     0.836     0.787   7.49   0
        71    117.4445    858.5750 299.9770085 +22.6620578     964.9313     72.56451      1.588     3.19     3.883618     20.46744     109.8739        17     1.093     0.983   8.77   0
        72    532.4814    853.7816 300.1076296 +22.7852240     544.7241     72.52755      1.482     4.63     3.653617     20.46744     59.91565        10     1.192     0.674 -72.13   0
        73    266.7640    850.6890 300.0259801 +22.7046154      52704.9     72.52755      1.552     2.84      3.81309     20.46744     5660.493        98     1.419     1.390  61.86   0
        74    937.5572    848.6888 300.2354781 +22.9052124     931.1147     72.54603      1.559     3.67     3.613017     20.46744     87.44345        15     1.080     0.982 -27.57   0
        75    524.6604    849.7318 300.1065131 +22.7817163     1540.685     72.58298      1.373     2.54     3.649289     20.46744      194.041        19     1.045     0.953 -25.22   0
        76    194.7504    848.0121 300.0044667 +22.6822349     438.0005     72.58298      1.695     6.51     4.186091     20.46744     58.31441        10     1.414     0.842  33.07   0
        77    553.6364    845.6286 300.1168672 +22.7892302     904.2376     72.56451      1.377     2.69     3.752081     20.46744     117.1439        16     0.968     0.958  13.67   0
        78    564.3956    844.0795 300.1207204 +22.7920126     523.6644     72.45358      1.245     3.83     3.771956     20.46744     62.76724        10     0.950     0.792 -27.58   0
        79    884.3132    841.2616 300.2212952 +22.8871222     283.6061     72.63836      1.264     3.42      3.74301     20.46744     47.94339         7     0.802     0.656 -59.12   0
        80    669.9481    840.2907 300.1548185 +22.8225793     507.2635     72.60144      1.414     3.30     3.676944     20.46744     71.09497         7     0.944     0.661  68.26   0
        81    813.6962    834.7602 300.2014007 +22.8640888      2595.61     72.52755      0.711     1.30     3.699725     20.46744     1066.346         9     0.559     0.480 -31.61   0
        82    316.4685    827.8982 300.0488492 +22.7129956     31206.35     72.63836      1.497     2.66     3.488948     20.46744     3675.344        76     1.355     1.316  73.91   0
        83    707.5880    830.6431 300.1696810 +22.8310964     759.6643     72.54603      1.438     2.46     3.587182     20.46744     109.7227        12     0.942     0.774 -63.36   0
        84    330.6772    828.4917 300.0530745 +22.7174291     1929.208      72.6937      1.445     2.88       3.4755     20.46744     204.0768        20     1.104     1.001  37.22   0
        85    839.6205    823.4694 300.2131537 +22.8686181      2828.45     72.52755      1.477     2.76     3.797646     20.46744     315.1386        29     1.367     1.031  81.01   0
        86    868.5052    822.1569 300.2225838 +22.8768989     334.0613     72.56451      1.745     3.03     3.870357     20.46744     41.08365         5     0.799     0.681 -32.56   0
        87    328.0926    822.0951 300.0543518 +22.7148192     686.4442     72.71214      1.591     3.48     3.471961     20.46744     71.18618        10     0.925     0.771 -24.79   0
        88    597.3830    819.6871 300.1389262 +22.7949067     838.9221     72.49057      1.404     3.08     3.943571     20.46744     105.0108        15     1.103     0.855  26.93   0
        89    198.7949    819.7993 300.0149023 +22.6753605     688.3504     72.36101      1.437     3.32     4.102726     20.46744     85.32591        14     1.049     0.881 -69.29   0
        90    433.3929    819.6458 300.0879015 +22.7457085     380.3746     72.56451      1.419     5.12     3.474595     20.46744     53.52141        10     1.203     0.765  24.97   0
        91      3.8801    815.1615 299.9558588 +22.6155217      508.973     68.59493      1.433     4.12     3.586955     20.46744     50.95456        10     1.022     0.723  57.04  16
        92    444.7539    814.7708 300.0930222 +22.7477182     788.1102     72.58298      1.337     2.69     3.510314     20.46744     92.01218        11     0.844     0.796  27.72   0
        93    845.7029    811.0892 300.2190774 +22.8668868     471.5027     72.73058      1.309     2.99     3.859788     20.46744     64.98011        11     0.952     0.765  -6.77   0
        94    390.4012    809.6848 300.0777680 +22.7299541     400.0946     72.43507      1.174     3.44     3.455463     20.46744     55.63161         9     0.932     0.733  37.67   0
        95    302.6825    809.7894 300.0504537 +22.7036659     294.1459     72.50906      1.318     2.09      3.45867     20.46744     51.61572         5     0.725     0.420  70.10   0
        96     31.9076    809.1232 299.9665268 +22.6222057     650.1376      72.6937      2.213     5.27     3.633072     20.46744     78.46427        12     1.456     1.074  44.71   0
        97    599.3604    808.7629 300.1430959 +22.7923649     316.5817      72.6199      1.278     2.88       4.0118     20.46744     37.41525         5     0.727     0.451 -73.16   0
        98    823.4383    805.9558 300.2138085 +22.8587396     218.5477     72.63836      1.460     3.61     3.770969     20.46744     34.81023         5     0.767     0.596  -6.16   0
        99    196.8487    804.0373 300.0194250 +22.6702574     355.2522     72.56451      1.233     3.61     4.035058     20.46744     55.10609         8     0.850     0.629  48.95   0
       100    519.8258    794.5511 300.1229611 +22.7644349     511.4155     72.56451      1.339     3.32     3.884859     20.46744     67.51622         7     0.945     0.530 -26.68   0
       101    489.7832    792.3945 300.1143129 +22.7548056     645.9365     72.50906      1.390     2.74     3.753226     20.46744      91.7829        10     0.918     0.750 -20.71   0
       102    398.8054    791.7125 300.0862287 +22.7273202     392.7929     72.45358      1.590     3.17     3.466814     20.46744     47.58363         6     0.892     0.557  63.51   0
       103    511.5326    790.1878 300.1217994 +22.7606957     1330.942     72.54603      1.326     3.33     3.868098     20.46744       184.62        18     1.102     0.961  31.16   0
       104    905.9773    788.8793 300.2450918 +22.8785739     4393.364     72.49057      1.420     2.74     3.823676     20.46744     500.1814        30     1.169     1.092   0.19   0
       105    431.0346    789.4183 300.0970012 +22.7363301     365.2341     72.54603      1.266     4.33     3.526693     20.46744     45.01128         7     0.801     0.667   2.18   0
       106    592.9052    784.9044 300.1488477 +22.7835827     261.7648     72.71214      1.132     2.26     4.058281     20.46744     55.67877         5     0.735     0.498 -34.53   0
       107    894.3463    780.1815 300.2442953 +22.8725906     1710.038     72.52755      1.486     2.76     3.893454     20.46744     158.1236        22     1.106     1.051  49.37   0
       108    257.4641    774.5406 300.0478609 +22.6799895     877.7736     72.58298      1.370     2.54     3.625999     20.46744     108.8826        13     0.950     0.804 -51.71   0
       109    721.0507    771.6833 300.1930559 +22.8182090     2619.463     72.56451      1.463     2.80     3.561977     20.46744     327.0611        31     1.489     1.020   6.18   0
       110    925.5690    770.4203 300.2572049 +22.8791438     1611.621     72.54603      1.422     2.59     3.833728     20.46744     171.5988        19     1.137     0.895  63.70   0
       111    939.3516    761.3214 300.2644621 +22.8806606     296.5132     72.54603      1.168     3.41     3.819426     20.46744     39.30105         6     0.853     0.498 -43.69   0
       112    105.9763    758.3354 300.0060531 +22.6298815     624.8122     72.52755      1.617     3.68     3.760531     20.46744     67.81606        11     1.004     0.846  -6.20   0
       113    802.6461    757.3146 300.2231522 +22.8385421     583.8832     72.52755      1.332     2.40     3.893264     20.46744     67.26222         7     0.877     0.469  82.91   0
       114    839.2079    748.5419 300.2374001 +22.8469810     145804.1     72.52755      1.387     2.44     3.967187     20.46744     18145.31       163     1.417     1.373 -85.69   0
       115    986.1868    750.2139 300.2826803 +22.8915031     1144.447     72.47208      1.422     2.59     3.580793     20.46744     143.9513        19     1.060     0.967  50.38   0
       116    691.5237    749.0396 300.1912238 +22.8028573     758.3488     72.50906      1.261     2.50     3.688259     20.46744     101.0878        12     0.919     0.784  59.23   0
       117    872.0687    740.9312 300.2501181 +22.8546432     393.8868     72.60144      1.304     3.34     3.990567     20.46744     54.93018         9     0.954     0.653 -81.06   0
       118    525.5053    737.5813 300.1432592 +22.7497913     1628.579     72.47208      1.267     2.42     4.099641     20.46744      203.699        16     0.972     0.885 -63.26   0
       119    706.6823    734.7659 300.2005879 +22.8033039     9268.284     72.50906      1.330     2.28      3.69218     20.46744     1307.253        40     1.173     1.077  84.49   0
       120    208.1333    730.0070 300.0470104 +22.6524164     4829.008     72.52755      1.472     2.77     3.351584     20.46744     495.2707        32     1.185     1.137  14.71   0
       121    290.3569    728.0533 300.0732065 +22.6765263     1216.133     72.56451      1.453     2.52     3.299603     20.46744     147.0122        20     1.192     0.929  20.13   0
       122    166.2132    725.6484 300.0353996 +22.6385875     617.1156     72.56451      1.545     2.61     3.401492     20.46744      61.1544         7     0.807     0.570  31.66   0
       123    498.4720    723.3909 300.1394606 +22.7376125      826.893     72.52755      1.310     2.99     4.166012     20.46744     86.44745        13     0.999     0.822  64.18   0
       124    490.1010    715.6301 300.1393793 +22.7328751     3175.392     72.49057      1.304     2.28     4.186033     20.46744      424.243        24     1.035     0.999  55.04   0
       125    480.3850    709.3953 300.1383833 +22.7281724     1377.227     72.41656      1.317     2.28     4.197744     20.46744      172.757        15     0.891     0.857 -29.51   0
       126    873.9244    707.1155 300.2616944 +22.8454879     432.3469     72.65681      1.313     2.53     3.994415     20.46744     67.08245         8     0.812     0.652  43.04   0
       127    143.4870    705.6670 300.0348351 +22.6260382     696.1226     72.65681      1.473     3.60     3.552963     20.46744     82.30378        15     1.078     1.003 -42.01   0
       128    157.8770    704.2170 300.0397781 +22.6299406     655.5337     72.54603      1.466     3.86     3.394305     20.46744     62.97416        12     1.022     0.870  64.66   0
       129    927.1548    700.2865 300.2805103 +22.8594757     533.3672     72.52755      1.387     3.56     4.013868     20.46744      66.3062        12     1.099     0.737  37.79   0
       130    214.7669    700.9727 300.0585135 +22.6460804     457.1683     72.56451      1.533     2.67     3.313934     20.46744     53.51085         7     0.704     0.687  19.64   0
       131    183.4820    701.0713 300.0487580 +22.6367218     540.2371     72.67526      1.497     4.61     3.338994     20.46744     50.69766        11     1.181     0.639 -23.55   0
       132    504.3927    699.7623 300.1489870 +22.7326074     462.0793     72.56451      1.106     3.12     4.188891     20.46744     61.15241         5     0.725     0.458 -72.33   0
       133    405.1073    699.0582 300.1183232 +22.7026301     1738.751     72.60144      1.347     2.46     3.701311     20.46744     247.9521        22     1.149     0.952  68.35   0
       134    438.7948    698.3502 300.1290338 +22.7125304     362.8409     72.52755      1.203     4.05      3.90819     20.46744     45.98849         7     1.015     0.463   7.26   0
       135     59.0981    694.2106 300.0123431 +22.5974279     19516.28     72.43507      1.571     2.94     4.318717     20.46744     1918.755        66     1.417     1.330  46.05   0
       136    980.8533    696.0665 300.2986276 +22.8743511      760.171     72.58298      1.315     2.98     3.884176     20.46744     108.8056        13     0.915     0.906   1.83   0
       137    490.1213    694.3591 300.1463026 +22.7267773     1127.101     72.52755      1.352     2.49     4.212668     20.46744     142.6365        15     1.046     0.788  77.32   0
       138    525.4568    693.5861 300.1575512 +22.7371512      365.293     72.52755      1.184     3.12     4.173796     20.46744     51.75824         7     0.818     0.722 -44.02   0
       139    861.0825    689.9463 300.2632748 +22.8367089     157.7291     72.58298      0.924     2.58     3.979117     20.46744     42.61327         5     0.607     0.598  63.47   0
       140    243.2744    685.6599 300.0723538 +22.6502417      306.673     72.58298      1.390     3.57     3.292659     20.46744      48.7233         6     0.753     0.641  47.31   0
       141    573.1915    681.8844 300.1762151 +22.7481051     226.6329     72.49057      1.352     3.51     4.129218     20.46744     39.68402         7     0.911     0.605  17.37   0
       142    908.0836    680.5176 300.2809928 +22.8480835     946.5844     72.67526      1.291     2.38     4.014264     20.46744     148.0108        16     1.029     0.853 -33.62   0
       143      5.0722    678.4592 300.0006853 +22.5766970     1460.605     72.04539      1.867     4.69     4.912961     20.46744     104.3703        26     1.487     1.136  86.49  16
       144    774.9454    678.5265 300.2401437 +22.8076171     475.0986     72.52755      1.306     2.17     3.703185     20.46744     70.47809         8     0.769     0.639 -88.78   0
       145     71.3906    678.6771 300.0212118 +22.5966636     408.8585     72.50906      1.304     3.45      4.40079     20.46744     46.00834         7     1.018     0.452 -30.89   0
       146    246.7814    675.0397 300.0768970 +22.6482478     326.3547     72.56451      1.619     3.83     3.285913     20.46744     33.99134         5     1.177     0.358  79.40   0
       147    453.4155    675.0785 300.1411498 +22.7102374     433.3773     72.56451      1.417     3.31     4.091235     20.46744      61.6103         6     0.788     0.648  62.96   0
       148    848.1697    672.8998 300.2647929 +22.8279439     782.4848     72.50906      1.321     2.44     3.921125     20.46744     104.8125        11     0.919     0.692 -82.89   0
       149    844.0268    672.7183 300.2635606 +22.8266504     391.5473     72.52755      1.322     2.76       3.9048     20.46744     43.79974         7     0.718     0.668 -19.52   1
       150    410.1784    667.2043 300.1302579 +22.6950114      705.521     72.50906      1.220     2.42     3.899447     20.46744     98.73848        10     0.849     0.699  85.37   0
       151    558.2889    665.7834 300.1768110 +22.7390157     475.2701     72.47208      1.368     2.73     4.172081     20.46744     61.02844         8     0.910     0.602 -83.97   0
       152    605.1771    664.3247 300.1918829 +22.7526540     460.8793     72.58298      1.287     3.46     4.082279     20.46744     65.45771         9     0.879     0.831   7.11   0
       153    575.9037    663.9402 300.1828939 +22.7437677     567.7489      72.6199      1.284     2.60     4.138705     20.46744     79.89391         9     0.900     0.642  72.69   0
       154    454.4761    663.3356 300.1452978 +22.7071856     1059.755      72.6199      1.552     3.38      4.12579     20.46744     120.2279        17     1.326     0.862  27.26   0
       155    888.1570    658.5364 300.2819279 +22.8357995     3325.716     72.54603      1.327     2.34      4.02492     20.46744     455.1637        28     1.109     1.045 -89.61   0
       156    419.9004    658.6672 300.1360580 +22.6954774     1606.823     72.63836      1.273     2.27     3.980204     20.46744     237.2075        18     1.029     0.870  26.49   0
       157    986.2247    656.6936 300.3131058 +22.8646488     711.4979     72.49057      1.408     3.04     4.031333     20.46744     68.28294        12     0.944     0.814 -66.01   0
       158    449.0999    649.5721 300.1480996 +22.7016238     333.8532     72.49057      1.291     2.00     4.134471     20.46744     52.40126         5     0.679     0.456 -22.43   0
       159    927.7217    648.3028 300.2975904 +22.8447131     276.0259     72.65681      1.094     3.36      4.04359     20.46744     48.41743         5     0.805     0.492 -45.72   0
       160    283.3488    645.4090 300.0978988 +22.6507179     9198.343     72.54603      1.341     2.34     3.470216     20.46744     1041.177        44     1.196     1.144   6.32   0
       161    540.6484    646.1987 300.1776872 +22.7281055     346.2079     72.52755      1.283     2.25     4.219777     20.46744     41.09581         5     0.708     0.445 -71.79   0
       162    405.7962    642.3902 300.1369619 +22.6865770     8843.422     72.37953      1.275     2.24     4.007605     20.46744     1180.164        42     1.156     1.104 -71.26   0
       163    171.0072    639.9081 300.0647662 +22.6154381     288.6946     72.45358      1.348     2.48     3.515489     20.46744     42.71262         5     0.655     0.531  89.74   0
       164   1010.1803    637.4343 300.3268392 +22.8662907     856.8725     72.56451      1.408     2.87     4.025335     20.46744     119.6132        14     1.029     0.880 -74.94   0
       165    652.0021    638.3629 300.2149045 +22.7592371     226.5824     72.56451      1.344     4.26     3.979314     20.46744       33.043         7     0.760     0.681   0.88   0
       166    817.5923    636.2371 300.2671831 +22.8082519     1785.047     72.54603      1.308     2.33     3.981399     20.46744     207.4005        19     0.977     0.954  84.50   0
       167    902.0709    633.5842 300.2943782 +22.8328005     12430.01     72.54603      1.357     2.33     4.057463     20.46744     1740.304        48     1.212     1.150  88.38   0
       168    466.3652    631.9925 300.1591869 +22.7017559     11429.01     72.54603      1.269     2.25     4.232666     20.46744     1524.522        42     1.131     1.101  60.23   0
       169    193.6804    627.5811 300.0758198 +22.6187048     1484.248     72.54603      1.556     4.44     3.593802     20.46744     153.1931        21     1.219     0.986 -49.82   0
       170    635.8865    627.7505 300.2133358 +22.7513598     483.8833     72.54603      1.267     2.51     4.041248     20.46744     75.37578        10     0.875     0.708 -84.35   0
       171    351.5505    626.3927 300.1252891 +22.6657184     356.2273     72.54603      1.644     4.00     4.010367     20.46744     38.84079         6     1.047     0.436  34.92   0
       172    440.4558    624.5856 300.1535329 +22.6918612     397.4142     72.52755      1.321     3.65     4.171974     20.46744     50.09167         6     0.973     0.394  70.02   0
       173    398.0025    620.1882 300.1417548 +22.6778689     4569.199     72.36101      1.333     2.24     4.112915     20.46744     649.2805        31     1.132     1.031  65.33   0
       174    740.8572    620.0258 300.2485428 +22.7806022     776.6842     72.54603      1.246     2.45     3.732767     20.46744     111.9879         9     0.770     0.729 -69.76   0
       175    376.2684    618.6984 300.1354783 +22.6709237     1174.049     72.63836      1.239     2.36     4.101712     20.46744      172.841        14     0.923     0.800  52.82   0
       176    130.6112    618.0963 300.0593036 +22.5970624     795.2965     72.45358      1.528     2.92     3.785267     20.46744     85.16844        13     0.998     0.810 -17.25   0
       177    817.7331    615.6192 300.2739298 +22.8023723     1549.688     72.50906      1.417     2.71     4.080161     20.46744      175.703        21     1.208     1.005 -48.34   0
       178    514.6359    607.7075 300.1821033 +22.7092585     199140.5     72.47208      1.274     2.15     4.275046     20.46744     30113.28       220     1.460     1.432  61.69   0
       179    918.6202    614.0278 300.3058956 +22.8321401     268.9605     72.54603      1.332     4.15     4.068461     20.46744     34.65519         6     0.852     0.618 -51.05   0
       180    698.3188    612.4528 300.2377531 +22.7656795     824.4423     72.58298      1.264     2.41     3.935682     20.46744     127.5233        14     1.012     0.793  52.83   0
       181    791.8792    610.9867 300.2673787 +22.7932952     161.8612     72.52755      1.267     4.83     4.049727     20.46744      35.8567         6     1.135     0.581 -73.36   0
       182    200.7771    607.8106 300.0844517 +22.6151630     3393.557     72.54603      1.337     2.31     3.723928     20.46744        479.8        25     1.091     1.006 -24.25   0
       183    766.6740    603.6085 300.2619232 +22.7836236     478.9429     72.52755      1.324     2.83     3.911276     20.46744     56.19059         8     0.780     0.741  28.43   0
       184    785.3719    601.8101 300.2683340 +22.7887098     233.6161     72.54603      1.102     3.36     4.017842     20.46744     36.17888         5     0.777     0.421 -68.70   0
       185    546.6172    594.4524 300.1963663 +22.7150412     257.9419     72.52755      1.060     3.30      4.26471     20.46744     58.81922         5     0.739     0.441 -22.93   0
       186    405.2540    587.9948 300.1544747 +22.6708048     2747.617     72.52755      1.385     2.16     4.227949     20.46744     364.2161        21     1.057     0.910 -84.14   2
       187    249.3806    590.2666 300.1052620 +22.6247098      413.672     72.50906      1.434     4.16     3.757689     20.46744      51.7974         6     0.726     0.680 -12.70   0
       188    816.7634    584.6062 300.2837086 +22.7931738      404.699     72.56451      1.486     3.46     4.107983     20.46744      41.0478         5     0.747     0.463  15.40   0
       189    635.8803    583.6807 300.2276591 +22.7387048     166.8633     72.67526      1.140     3.01     4.087338     20.46744     39.87496         6     0.739     0.620 -58.29   0
       190    722.2080    576.6320 300.2568381 +22.7625518     569.8875     72.54603      1.455     2.20     3.833338     20.46744     60.85716         7     0.686     0.638  -7.50   0
       191    802.1913    574.0300 300.2826049 +22.7857700     1725.911     72.52755      1.245     2.29     4.101818     20.46744     252.9981        19     1.117     0.883  50.12   0
       192    688.7493    574.3856 300.2471458 +22.7518802     344.7473     72.56451      1.457     3.32     4.005015     20.46744     40.96839         5     0.716     0.476 -10.98   0
       193    673.3569    571.8383 300.2431795 +22.7465360     2665.725     72.63836      1.250     1.98     4.087338     20.46744     389.0382        21     0.962     0.915 -83.14   0
       194     32.4429    572.7241 300.0435540 +22.5545953     349.8728     72.52755      1.726     5.49     3.975828     20.46744     37.87267         8     1.170     0.750 -11.23   0
       195    311.6959    571.2819 300.1308073 +22.6379529     361.3637      72.6937      1.341     4.14     3.928292     20.46744     38.07534         6     0.950     0.515  45.25   0
       196    916.7832    564.8445 300.3213099 +22.8174593     1007.393     72.56451      2.538     4.61     4.088539     20.46744     82.02527        14     1.388     0.787  67.15   2
       197    578.1220    568.3745 300.2146498 +22.7169984     496.5295     72.54603      1.431     2.47     4.191007     20.46744     63.97816         7     0.717     0.643  29.66   0
       198    460.7983    567.7853 300.1783244 +22.6816586     715.6304     72.39805      1.201     2.21     4.307716     20.46744     110.9451        11     0.841     0.737 -48.36   0
       199    930.8520    565.7289 300.3254091 +22.8219274     1252.644     72.54603      1.294     2.51     4.080468     20.46744     170.8896        16     0.981     0.886  31.57   0
       200    802.5928    564.5330 300.2858167 +22.7831623     2083.659     72.54603      1.232     2.21     4.098756     20.46744      291.686        22     1.130     0.912  89.29   2
       201    801.6623    560.7130 300.2867682 +22.7817862      498.428     72.63836      1.236     1.97     4.097023     20.46744       58.841         5     0.657     0.474   7.99   3
       202    555.7971    562.4244 300.2096335 +22.7085983     794.9434     72.49057      1.665     2.88     4.270489     20.46744     69.23875        10     0.914     0.727  62.57   0
       203    840.6323    559.2562 300.2993870 +22.7930426     4107.812     72.56451      1.258     2.23     4.107702     20.46744     518.5275        26     1.031     0.985  63.93   0
       204    394.2224    561.2491 300.1597353 +22.6598213     378.2203     72.54603      1.143     3.31     4.295048     20.46744     59.42272         5     0.912     0.349 -41.37   0
       205    341.5903    562.2977 300.1430237 +22.6443399     217.0953     72.45358      1.043     3.31     4.198679     20.46744     38.53469         5     0.726     0.457 -71.26   0
       206    501.3975    555.1205 300.1950746 +22.6901945     344.7763     72.45358      1.324     2.28     4.325116     20.46744     55.33378         6     0.746     0.476 -78.43   0
       207     72.6808    549.8305 300.0634918 +22.5601031     1054.014     72.54603      1.498     2.97     4.041845     20.46744     123.1381        17     1.050     1.003 -21.63   0
       208    932.4763    549.7520 300.3311082 +22.8178232     788.8382     72.54603      1.280     2.38     4.085952     20.46744     111.5629        14     0.946     0.882  88.17   0
       209    733.4688    543.0959 300.2712454 +22.7562943     437.3203     72.67526      1.401     2.96     3.817733     20.46744     42.14597         6     0.770     0.499  88.24   0
       210     65.2165    540.0273 300.0643585 +22.5550521     419.3302     72.56451      1.603     3.18     4.056197     20.46744     55.19928         7     0.950     0.588 -84.77   0
       211    928.8017    538.3684 300.3336619 +22.8134516     313.7301     72.50906      1.378     3.09     4.093802     20.46744     57.93138         5     0.732     0.689  75.81   0
       212    672.8851    533.6630 300.2554390 +22.7354316     509.1061     72.65681      1.297     1.82     4.115741     20.46744     80.14442         7     0.651     0.631  17.13   0
       213    561.7947    531.6393 300.2215048 +22.7015574     399.9799     72.56451      1.463     3.31     4.260183     20.46744     49.09289         8     0.909     0.624  21.67   0
       214    281.4258    532.1697 300.1341049 +22.6176521     278.1714     72.54603      1.484     3.49     3.867028     20.46744     35.38599         5     0.780     0.451  71.45   0
       215    614.0669    529.7507 300.2383932 +22.7166816     638.3746     72.52755      1.081     1.93      4.12294     20.46744     131.4764         8     0.739     0.620  33.17   0
       216   1021.5819    527.2907 300.3661972 +22.8380534     1030.607     66.81294      1.448     2.96     4.013372     20.46744     111.4602        16     1.050     0.930  78.09  24
       217    592.7477    527.8522 300.2323720 +22.7097471      289.047     72.58298      1.167     4.29      4.17213     20.46744      43.3192         6     1.000     0.526  24.56   0
       218    928.3362    522.2207 300.3387642 +22.8086722     560.7274     72.50906      1.322     3.74     4.102291     20.46744     79.79737        13     1.183     0.764 -86.27   0
       219    674.9292    521.9592 300.2598788 +22.7326829     942.9304     72.50906      1.293     2.17     4.141633     20.46744     144.5963        11     0.891     0.736  47.90   0
       220    832.0345    518.0851 300.3100869 +22.7786392     968.8383     72.50906      1.323     2.41     4.204181     20.46744       151.49        15     0.971     0.881 -25.66   0
       221    816.3335    514.3954 300.3063923 +22.7728758      611.401     72.54603      1.213     2.33     4.216174     20.46744     94.28862         9     0.824     0.681  48.36   0
       222    796.6602    514.7921 300.3001324 +22.7670963     299.5968     72.50906      1.013     2.11     4.199067     20.46744     56.07891         5     0.718     0.427  69.25   0
       223    560.6354    512.6485 300.2273148 +22.6957572     3264.544     72.58298      1.180     2.07     4.255655     20.46744      489.434        22     1.029     0.888  64.88   0
       224    707.0731    512.1778 300.2730695 +22.7395051     218.3646     72.58298      1.196     2.31     4.118898     20.46744     50.30716         5     0.753     0.477 -48.06   0
       225    921.0883    511.1446 300.3401035 +22.8033187     457.6066     72.58298      1.310     2.16     4.121937     20.46744     83.46188         9     0.765     0.706  67.78   0
       226     36.6017    504.0820 300.0671492 +22.5361577     336.1898     72.45358      1.448     2.10     4.056197     20.46744      54.3734         6     0.766     0.489  88.11   0
       227    400.3081    499.4720 300.1817023 +22.6439149     197.3734     72.71214      1.135     3.18     4.341648     20.46744     48.15316         6     0.898     0.647  84.71   0
       228    332.3691    499.9359 300.1604195 +22.6236784     214.3151     72.56451      1.117     2.98     4.278786     20.46744     44.55344         7     0.834     0.606 -13.75   0
       229    971.9821    491.4697 300.3623668 +22.8129058     1222.945     72.58298      1.334     2.47     4.077178     20.46744      167.281        19     1.061     1.002  19.65   0
       230    930.3781    490.1627 300.3498177 +22.8000713     979.9148     72.56451      1.309     2.70     4.113894     20.46744     128.6423        16     1.032     0.962  19.38   0
       231    843.9241    491.2244 300.3225205 +22.7744833     450.1759     72.56451      1.191     2.19     4.306702     20.46744      91.5588         8     0.788     0.617  57.65   0
       232    467.1601    487.6107 300.2063560 +22.6605508     411.6018     72.54603      1.350     5.05     4.275871     20.46744     62.45485         9     1.155     0.658  54.77   0
       233    580.2688    488.5414 300.2412597 +22.6947192     271.0063     72.56451      1.303     2.74     4.235483     20.46744     40.41629         5     0.701     0.478 -15.75   0
       234    671.2072    486.4026 300.2702725 +22.7213555     1043.258     72.36101      1.174     2.19      4.23926     20.46744     156.6869        12     0.851     0.756  86.90   0
       235    175.2937    484.8719 300.1164802 +22.5722511     703.0952     72.65681      1.287     2.64     3.925978     20.46744     85.50835        12     0.908     0.806  37.78   0
       236    237.5798    480.6241 300.1372203 +22.5897124     3718.531     72.54603      1.333     2.24      4.04404     20.46744     509.8095        28     1.117     1.047  57.41   0
       237    970.6763    478.7950 300.3660777 +22.8088720     4360.478     72.45358      1.321     2.35     4.080514     20.46744     572.4214        31     1.152     1.010 -74.17   0
       238    184.7448    475.3489 300.1225111 +22.5723534     7396.079     72.58298      1.336     2.41     3.966919     20.46744     932.4094        37     1.176     1.069  62.77   0
       239    892.6399    474.1433 300.3432562 +22.7841659     143.1038     72.52755      1.610     4.22     4.222021     20.46744     25.68325         6     1.620     0.313  23.17   0
       240    325.5385    469.5634 300.1681625 +22.6129133      4802.49     72.56451      1.267     2.19     4.333486     20.46744     656.0857        32     1.104     1.031  57.50   0
       241    950.6237    469.7509 300.3627626 +22.8002680      1711.76     72.54603      1.240     2.49     4.083289     20.46744     251.0012        20     1.038     0.962 -42.90   0
       242    569.7503    466.1863 300.2452476 +22.6851474     18011.99     72.58298      1.215     2.05     4.254715     20.46744     2782.012        48     1.131     1.048  68.81   0
       243    417.2596    467.7754 300.1972734 +22.6398981     298.2086     72.54603      1.187     3.79     4.333322     20.46744     45.39457         6     1.077     0.383  77.79   0
       244    587.3118    466.0905 300.2507462 +22.6903826     858.1355     72.71214      1.794     6.25     4.253407     20.46744      78.2004        14     1.368     0.856 -52.29   0
       245    196.4629    464.4264 300.1297013 +22.5727338      269.691     72.54603      1.099     3.89     4.023827     20.46744      37.4951         5     1.017     0.426  15.81   0
       246    813.3353    461.9090 300.3225111 +22.7568981     222.4127     72.65681      1.278     3.67     4.266685     20.46744     37.24673         6     0.754     0.632  35.91   0
       247    766.5714    456.4899 300.3096989 +22.7413333     259.9437     72.52755      1.079     2.73      4.29739     20.46744      52.9161         7     0.799     0.641 -67.60   0
       248    189.6874    453.5024 300.1311438 +22.5675674     443.6577     72.71214      1.292     2.96     4.055479     20.46744     53.98892         7     0.888     0.530  57.75   0
       249    903.2181    448.3720 300.3549266 +22.7799278     713.7091     72.54603      1.314     2.20     4.114367     20.46744     129.1443        13     1.019     0.769  72.24   0
       250    440.3623    448.1445 300.2108383 +22.6411877     326.6774     72.54603      1.435     3.47      4.30231     20.46744     46.81139         5     1.023     0.446  31.52   0
       251    124.2899    446.3377 300.1131480 +22.5458980     2114.475     72.63836      1.406     2.61     4.051475     20.46744     237.8618        23     1.119     1.020  -4.33   0
       252    510.3726    435.6216 300.2366930 +22.6585757     6600.969     72.54603      1.194     2.13     4.264106     20.46744     953.4154        30     1.068     0.972  82.37   0
       253    923.9693    435.6858 300.3655176 +22.7824959     1149.846     72.54603      1.329     2.57     4.045319     20.46744     180.4153        17     1.189     0.952  24.36   0
       254    225.1222    435.0782 300.1481424 +22.5729068     516.4386     72.67526      1.265     2.56     4.184377     20.46744     86.56327         9     0.785     0.727  45.36   0
       255     82.7642    428.3194 300.1060986 +22.5282735     525.2794     72.49057      1.347     3.75     4.056197     20.46744     68.57117        11     1.070     0.750  68.04   0
       256    770.3245    427.4154 300.3203128 +22.7341042     288.3779     72.54603      1.230     3.38     4.233656     20.46744     40.56972         5     0.738     0.449  20.24   0
       257    624.0546    425.8641 300.2752539 +22.6898393     477.5121     72.60144      1.183     2.42     4.312413     20.46744     84.25762         9     0.861     0.650 -75.25   0
       258    714.5526    424.5212 300.3038767 +22.7165663     1128.345     72.54603      1.297     2.54     4.361238     20.46744     134.6562        14     0.976     0.789  49.20   0
       259    416.9944    421.9140 300.2120878 +22.6266525     5860.803     72.47208      1.282     2.14     4.329175     20.46744     928.8762        32     1.129     0.999  73.23   0
       260    808.9512    416.3068 300.3359581 +22.7424818     1381.503     72.58298      1.193     2.01     4.089396     20.46744     233.9753        16     1.148     0.757 -87.57   0
       261    906.1340    416.3270 300.3662449 +22.7715913     718.7429     72.58298      1.274     2.60      4.01879     20.46744     92.55803        11     0.974     0.689 -28.47   0
       262    401.8840    410.7015 300.2110285 +22.6189041     506.2683     72.71214      1.269     2.48     4.335929     20.46744     72.60218         9     0.822     0.691  56.78   0
       263    484.2408    408.5674 300.2373472 +22.6429755      561.281     72.60144      1.237     1.82     4.251413     20.46744     72.09294         5     0.657     0.457 -23.79   0
       264    781.7034    403.9683 300.3314743 +22.7307755     627.2106     72.50906      1.375     2.40     4.207589     20.46744     79.14655         8     0.786     0.670 -89.46   0
       265    304.5415    401.1953 300.1838392 +22.5869946     2497.073     72.50906      1.261     2.30     4.411214     20.46744     343.1863        23     1.053     0.950 -68.52   0
       266     22.9587    398.7259 300.0971324 +22.5018450     1048.466     72.52755      1.573     3.02     4.185815     20.46744     113.8826        15     1.070     0.874 -75.97   0
       267    652.4556    396.2893 300.2937042 +22.6898532      311.535     72.58298      1.294     3.95     4.388492     20.46744     40.94773         5     1.025     0.437  75.02   0
       268    273.8837    390.6413 300.1777337 +22.5747739     29217.57     72.50906      1.336     2.29     4.417726     20.46744     4232.599        68     1.291     1.148  57.98   0
       269    808.5344    387.8508 300.3450703 +22.7341799     1320.689     72.58298      1.222     2.44     4.172718     20.46744     201.0706        15     0.959     0.789  86.50   0
       270    723.8786    376.9348 300.3222371 +22.7056881     565.0543     72.63836      1.315     2.30     4.411756     20.46744     102.7238         9     0.860     0.664  74.03   0
       271    148.1859    376.7838 300.1431617 +22.5331074      544.908     72.49057      1.462     2.80      4.19874     20.46744      61.4091         6     0.732     0.603  78.78   0
       272    372.3282    375.9899 300.2131070 +22.6000793      531.227     72.54603      1.213     2.02     4.386463     20.46744     77.74731         7     0.684     0.632 -72.62   0
       273    684.3039    370.2961 300.3120651 +22.6919265      1839.44     72.71214      1.182     2.09     4.448938     20.46744     275.3381        17     0.981     0.804  82.30   0
       274    492.4738    365.0333 300.2540471 +22.6329412     272.3896     72.52755      1.166     3.73      4.24709     20.46744     43.93764         6     0.811     0.493 -83.15   0
       275    899.2145    362.9740 300.3814153 +22.7541844     731.7551     72.56451      1.455     3.34     3.851422     20.46744     95.12825        11     1.074     0.801 -43.82   0
       276    346.0927    354.9892 300.2117658 +22.5861861     2125.348     72.49057      1.458     2.80       4.4291     20.46744     255.4281        29     1.345     1.054  61.73   0
       277    558.6279    353.7697 300.2782963 +22.6495286     278.7522     72.54603      1.161     2.55     4.256464     20.46744     60.00811         8     0.889     0.595  -4.66   0
       278    785.1608    347.7045 300.3508233 +22.7156430     637.4076     72.52755      1.169     2.22     4.373666     20.46744     104.9109         9     0.864     0.598 -52.45   0
       279    667.3072    345.3277 300.3148788 +22.6796617     485.8801     72.67526      1.211     2.56     4.463382     20.46744     71.63383         6     0.686     0.623 -64.08   0
       280    635.7496    344.7632 300.3052338 +22.6700462     205.8313     72.54603      1.028     2.59     4.383405     20.46744     46.40096         6     0.748     0.524  43.44   0
       281    506.7705    342.0029 300.2659748 +22.6306109     234.4874     72.49057      1.415     4.82      4.23954     20.46744     35.39202         5     0.916     0.718  76.80   0
       282    421.8442    334.2398 300.2420674 +22.6029322     1181.743      72.6199      1.276     2.39     4.307615     20.46744     180.9367        16     0.990     0.862 -80.35   0
       283    229.2897    334.4677 300.1821093 +22.5452807     293.4159      72.6937      1.038     2.57     4.511803     20.46744     51.81042         6     0.837     0.454 -89.88   0
       284    933.2049    330.1855 300.4026604 +22.7549354     370.3315     72.41656      1.393     3.27     3.830005     20.46744     46.85321         7     0.790     0.757 -70.95   0
       285    805.1779    327.4024 300.3636534 +22.7158027     219.2595     72.49057      1.214     3.23     4.354354     20.46744     53.35957         6     0.929     0.543 -66.98   0
       286    666.7968    326.1316 300.3209526 +22.6739935     2200.809     72.52755      1.222     2.03     4.482871     20.46744     359.1192        19     0.948     0.876  55.52   0
       287    928.0173    320.2909 300.4042554 +22.7505379     3139.429     72.47208      1.260     2.19     3.831259     20.46744     470.3459        22     1.043     0.906  83.06   0
       288    989.5644    315.0970 300.4251357 +22.7674686     408.4038     72.54603      1.158     2.62     3.827596     20.46744     59.23452         9     0.813     0.752   2.84   0
       289    375.0468    309.9761 300.2353862 +22.5819400     542.3564     72.56451      1.251     2.29     4.340658     20.46744     90.86639         9     0.761     0.717  49.80   0
       290    997.4813    308.2953 300.4298133 +22.7678826     1693.793     72.71214      1.328     2.27     3.827037     20.46744     206.1323        19     1.041     0.916  88.59   0
       291     80.8299    304.3722 300.1457429 +22.4921299      513.859     72.54603      1.351     2.72     4.412088     20.46744     71.30074        11     0.907     0.766 -44.02   0
       292     49.6907    304.4399 300.1360477 +22.4828114      1346.37     72.54603      1.604     3.61      4.44798     20.46744     128.1353        22     1.331     0.999  -8.60   0
       293    943.6528    300.8517 300.4154423 +22.7496298     511.7423     72.58298      1.323     2.63     3.832227     20.46744      58.3157         7     0.728     0.632  76.71   0
       294    787.9456    297.5174 300.3679858 +22.7020533     321.8702     72.58298      1.233     4.06      4.44066     20.46744     56.66578         8     0.890     0.784   0.79   0
       295    133.7708    296.3115 300.1648084 +22.5056910     542.2917     72.52755      1.468     5.72     4.413912     20.46744     61.27779        11     1.348     0.685  65.88   0
       296    929.0198    293.3241 300.4133232 +22.7430851     283.8643     72.54603      1.127     2.30     3.834686     20.46744     61.76347         5     0.757     0.472 -59.75   0
       297    810.1112    289.5833 300.3774692 +22.7064100     372.2763     72.47208      1.347     3.77     4.368537     20.46744     54.30888         8     0.887     0.662  54.88   0
       298    738.2565    287.5182 300.3557490 +22.6843000     533.9849     72.58298      1.079     2.06     4.435366     20.46744      93.5256         9     0.767     0.684 -16.36   0
       299    874.8313    281.0007 300.4004287 +22.7233201     228.9122     72.50906      1.283     3.88     3.917648     20.46744     25.46511         5     0.836     0.515  34.31   0
       300    836.5552    276.4511 300.3899742 +22.7105528     2065.738     72.56451      1.178     2.15     4.178636     20.46744     267.4616        17     0.988     0.819  76.76   0
       301    255.1743    273.9707 300.2097952 +22.5356736     2065.551     72.54603      1.318     2.32     4.423025     20.46744      289.815        21     1.056     0.949  76.64   0
       302    333.0449    269.1406 300.2355775 +22.5576264     962.7855     72.56451      1.303     2.27     4.402916     20.46744     148.7204        13     0.955     0.752 -68.30   0
       303     84.4963    268.8260 300.1584199 +22.4830284     283.2202     72.50906      1.628     3.79     4.538724     20.46744     52.45089         6     1.223     0.480  38.78   0
       304    734.9238    268.2177 300.3609759 +22.6777551     453.3498     72.54603      1.064     2.17     4.403391     20.46744     80.04676         8     0.732     0.666  51.85   0
       305    491.3468    268.4317 300.2850584 +22.6048580     287.9317     72.56451      1.114     3.48     4.364668     20.46744     39.88051         5     0.738     0.473  14.99   0
       306    842.0394    265.2208 300.3953291 +22.7089665      336.513     72.58298      1.145     3.34     4.208423     20.46744     57.09917         6     0.896     0.453  42.48   0
       307    149.7546    261.2305 300.1811621 +22.5004143     661.7305     72.58298      1.262     2.99     4.442295     20.46744     83.98084        12     1.036     0.757  78.49   0
       308    268.0470    260.9431 300.2180259 +22.5357918     196.4693     72.58298      1.143     3.66      4.41973     20.46744     35.45543         5     0.643     0.598  87.25   0
       309    687.5722    257.8922 300.3495762 +22.6606074     1598.353     72.49057      1.270     2.05     4.515876     20.46744      248.776        19     0.999     0.882  74.30   0
       310    752.4479    257.4432 300.3699331 +22.6799060     557.8958     72.56451      1.194     2.85     4.397247     20.46744     84.28183        10     0.968     0.715 -89.95   0
       311    171.1248    254.7064 300.1899209 +22.5049482     497.0588      72.6937      1.319     2.31     4.418079     20.46744      67.5235         7     0.695     0.641 -55.42   0
       312    959.1289    250.2259 300.4367026 +22.7397057     964.3142     72.54603      1.331     2.20     4.391393     20.46744     143.1489        13     0.969     0.743  84.36   0
       313    691.7385    249.4251 300.3536222 +22.6594219     840.0069     72.54603      1.459     3.33     4.505653     20.46744     91.93359        11     0.968     0.796  41.52   0
       314    612.1238    248.8175 300.3290238 +22.6354031     1249.842     72.54603      1.265     2.13     4.718741     20.46744     203.6882        15     0.920     0.832  67.71   0
       315    461.1153    250.4113 300.2814991 +22.5906243     313.3509     72.49057      1.267     1.98     4.432849     20.46744     51.44131         5     0.679     0.453  22.25   0
       316    433.5073    245.0814 300.2746383 +22.5808215     375.4672      72.6937      1.291     3.26     4.371975     20.46744     51.52169         6     0.779     0.494  82.56   0
       317    807.6330    240.0950 300.3927607 +22.6914427     1403.602     72.52755      1.221     2.05     4.441705     20.46744     213.0672        17     0.929     0.870  42.94   0
       318    538.5427    240.4735 300.3088230 +22.6109655     904.9178     72.58298      1.221     2.56      4.73924     20.46744     115.2713        13     0.939     0.777  85.97   0
       319    819.6240    239.1945 300.3967902 +22.6947738     855.0923     72.52755      1.457     3.45     4.417237     20.46744      107.558        13     1.129     0.803  84.49   0
       320    865.8680    238.2152 300.4115224 +22.7083364     312.2601     72.54603      1.302     2.88     4.334192     20.46744      42.7755         6     0.758     0.541 -43.10   0
       321    980.5045    230.0682 300.4499118 +22.7403067     1608.626     72.67526      1.286     2.39     4.714702     20.46744     232.0465        16     0.971     0.846 -87.50   0
       322    936.4910    229.2672 300.4364457 +22.7269034     1035.209     72.67526      1.284     2.63     4.654334     20.46744     133.5635        18     1.114     0.930  24.59   0
       323    170.5902    222.7627 300.2001215 +22.4956181     736.1508     72.54603      1.319     3.05     4.431259     20.46744     87.75797        13     1.105     0.752 -59.52   0
       324     32.3096    217.6295 300.1588233 +22.4526878      2248.66     72.50906      1.476     2.79     4.746346     20.46744     264.3971        26     1.236     1.037  43.93   0
       325    855.3384    214.3750 300.4159774 +22.6983302      721.384     72.54603      1.209     2.66     4.470695     20.46744     97.37168        14     1.025     0.753  50.38   0
       326    189.6681    210.9628 300.2098801 +22.4979492     5505.903     72.52755      1.389     2.50      4.48056     20.46744     711.1201        33     1.181     1.066  65.35   0
       327    171.3657    211.8946 300.2038892 +22.4927306     341.6844     72.52755      1.391     3.27     4.509718     20.46744     51.95732         8     0.910     0.630  83.56   0
       328    173.2292    201.9570 300.2076930 +22.4904362     618.9006     72.58298      1.337     2.85     4.574769     20.46744     78.90027        13     0.978     0.824  54.98   0
       329    988.5760    198.1060 300.4628022 +22.7335302     17915.87     72.47208      1.321     2.38     4.828159     20.46744     2079.083        51     1.233     1.125  80.09   0
       330    833.7977    192.3042 300.4164253 +22.6855364     3535.565     72.45358      1.252     2.15     4.481557     20.46744     511.3414        24     1.066     0.906  81.91   0
       331    937.4461    190.9578 300.4491761 +22.7161728     2860.344     72.60144      1.337     2.39     4.790636     20.46744     366.2432        25     1.147     0.958  88.09   0
       332    383.2518    187.6155 300.2776513 +22.5492583     586.8026     72.54603      1.346     2.52     4.464211     20.46744     73.03117        10     0.840     0.759  57.97   0
       333    497.5131    185.3210 300.3139497 +22.5828297     295.1193      72.6937      1.176     2.73      4.94906     20.46744      45.7065         5     0.709     0.475  72.89   0
       334    307.3252    179.6525 300.2566193 +22.5242208     571.9422     72.54603      1.380     2.51     4.605347     20.46744     70.60603         6     0.680     0.606 -80.44   0
       335     73.6015    176.6689 300.1849404 +22.4533115      648.434     72.49057      1.478     3.33     4.883653     20.46744     72.34242        14     1.054     0.893 -65.36   0
       336    434.5484    174.8468 300.2977537 +22.5609588     1642.057     72.58298      1.325     2.37     4.712193     20.46744     223.7513        20     1.041     0.963  79.11   0
       337    362.5021    175.5484 300.2751120 +22.5395753     398.5311      72.6199      1.178     3.08     4.412985     20.46744     55.11977         8     0.986     0.500 -88.76   0
       338    496.1701    173.8637 300.3172492 +22.5791357     452.6151     72.56451      1.281     2.36     4.999855     20.46744     70.09521         5     0.729     0.496  46.73   0
       339    177.9774    170.4714 300.2193845 +22.4828200     427.9604     72.58298      1.405     4.59     4.756765     20.46744     53.73109         7     0.995     0.602 -20.21   0
       340    722.9041    163.9817 300.3910587 +22.6441956     384.6767     72.45358      1.342     3.47     4.558413     20.46744     47.13648         9     0.931     0.687  79.82   0
       341    868.7838    158.7242 300.4382271 +22.6863533     485.4767     72.54603      1.440     2.60     4.577729     20.46744     54.88848         6     0.702     0.635 -65.05   0
       342    999.0405    155.4117 300.4799199 +22.7243818     3545.916     72.52755      1.433     2.39     4.860557     20.46744     514.4288        29     1.193     1.114 -31.35   2
       343    208.5896    154.7950 300.2339855 +22.4874938     5793.324     72.39805      1.385     2.50     4.570214     20.46744     774.0219        32     1.209     1.021  61.29   0
       344    715.1437    154.9228 300.3915802 +22.6392681     310.5105     72.58298      1.191     2.67     4.657547     20.46744     66.35652         7     0.911     0.528  75.47   0
       345     59.8595    154.3946 300.1878977 +22.4427981     696.3473     72.50906      1.506     2.98     4.945145     20.46744     76.87071        11     0.974     0.726 -68.77   0
       346    837.9004    151.9646 300.4307932 +22.6751659     381.2257     72.52755      1.271     2.25     4.556051     20.46744     64.43203         9     0.756     0.732  12.79   0
       347    180.2934    148.6248 300.2271919 +22.4772416     268.1327     72.49057      1.194     3.00     4.817485     20.46744     48.32451         5     0.708     0.474 -10.85   0
       348    223.9111    146.0727 300.2415780 +22.4895809     318.2652     72.71214      1.306     3.01      4.50432     20.46744     46.39032         6     0.754     0.679 -75.07   0
       349    454.6957    140.0398 300.3153155 +22.5569945     6230.568     72.52755      1.317     2.34      4.89507     20.46744       831.54        31     1.173     0.969  65.48   0
       350    340.0584    139.8405 300.2797158 +22.5225944     714.0538     72.54603      1.432     2.77     4.595486     20.46744     105.9433        12     1.002     0.769  85.02   0
       351    475.1437    134.4525 300.3234915 +22.5615141     363.4041     72.60144      1.500     3.60     4.966001     20.46744      45.3614         6     0.871     0.658  86.22   0
       352    707.0266    129.6210 300.3972600 +22.6295646     925.2858     72.52755      1.674     2.50      4.87955     20.46744     114.4035        12     1.047     0.666  89.92   2
       353    799.6837    128.3634 300.4265388 +22.6569405     484.4879     72.52755      1.397     3.39     4.608903     20.46744      70.3438         6     0.848     0.512  52.48   0
       354    822.8022    123.8105 300.4352211 +22.6625512     233.2416     72.36101      1.236     2.54     4.670603     20.46744     41.93033         6     0.752     0.529  46.91   0
       355    147.4610    123.9590 300.2249892 +22.4603191     358.2139     72.52755      1.079     2.26     4.957706     20.46744      77.8005         7     0.790     0.558 -60.03   0
       356    583.0627    120.1092 300.3617380 +22.5897132     6231.154     72.63836      1.304     2.11      5.08949     20.46744     953.4995        30     1.144     0.941  74.15   0
       357    505.9868    122.4109 300.3369971 +22.5672921     419.8973     72.45358      1.122     2.61     4.996828     20.46744     68.69871         9     0.851     0.739  85.65   0
       358    357.8343    119.2415 300.2919269 +22.5220031     1271.648     72.60144      1.310     2.29     4.713178     20.46744     175.5764        17     1.061     0.877  58.96   0
       359    624.1669    117.3774 300.3754235 +22.6012364     777.2811     72.54603      1.283     2.71      5.15048     20.46744     122.7196        13     1.029     0.735 -68.56   0
       360    640.1049    113.4327 300.3816666 +22.6048747     651.5496     72.52755      1.334     2.47     5.211202     20.46744     73.98345         8     0.784     0.649 -88.77   0
       361    106.7115    111.7919 300.2162732 +22.4446122     510.1255     72.45358      1.234     2.67     4.949378     20.46744     83.79642        10     0.957     0.655 -32.53   0
       362    910.0110    111.1138 300.4665265 +22.6849998     502.6303     72.49057      1.290     2.63     4.883835     20.46744     80.00549         9     0.890     0.670  17.32   0
       363    678.4227    108.9028 300.3950705 +22.6150451     473.7968     72.47208      1.419     2.09     5.298931     20.46744     67.76192         7     0.691     0.623 -65.53   0
       364    642.2528    103.8755 300.3854357 +22.6027707     998.6121     72.56451      1.925     4.10     5.262114     20.46744     108.7625        18     1.453     0.836  55.97   0
       365    627.2734    104.9468 300.3804231 +22.5985936     2633.102     72.58298      1.286     2.42     5.196919     20.46744     379.0161        21     1.090     0.871  78.15   0
       366    267.9124    106.0524 300.2682399 +22.4912732     287.0688     72.58298      1.210     3.29     4.840704     20.46744     46.74521         8     0.828     0.667  44.87   0
       367    713.6899     96.4374 300.4101001 +22.6220196     1501.166     72.52755      1.251     2.39     5.034237     20.46744     214.3157        16     1.109     0.797  85.39   0
       368    874.0155     95.3742 300.4604096 +22.6697012      424.275     72.56451      1.454     2.95     4.909041     20.46744     51.41297         6     0.934     0.491 -77.49   0
       369    651.7369     89.5735 300.3930285 +22.6014991     679.4321     72.54603      1.192     2.74     5.365941     20.46744     100.6012        10     0.906     0.669  79.79   0
       370     30.1384     89.3462 300.1997647 +22.4152158     577.9471     72.60144      1.340     2.82     5.052397     20.46744     72.36637        10     0.859     0.855 -18.64   0
       371    457.2056     88.9148 300.3326803 +22.5430569     1081.259     72.47208      1.247     2.44     4.880321     20.46744     155.3427        11     0.880     0.703  86.63   0
       372    361.1588     87.3732 300.3032977 +22.5138443     712.6031     72.58298      1.344     2.60     4.885881     20.46744     86.85599        12     0.874     0.819  86.99   0
       373   1004.1600     83.8785 300.5047227 +22.7053361     2189.658     72.52755      1.352     2.46      5.10592     20.46744     324.1327        20     1.026     0.936 -82.44   0
       374    743.4011     85.6001 300.4228720 +22.6277978     318.4844     72.32395      1.185     2.50     4.903879     20.46744     69.95786         6     0.846     0.438 -17.67   0
       375    132.5288     77.3273 300.2354734 +22.4424544     3934.296      72.6199      1.495     2.58     4.950305     20.46744     437.5025        35     1.331     1.141  49.14   0
       376    700.6620     77.6714 300.4121283 +22.6127244      643.838     72.58298      1.240     2.82     5.272492     20.46744     92.43095        12     0.968     0.778  80.94   0
       377    263.4582     77.8279 300.2760092 +22.4818320     265.1656     72.54603      1.524     2.51     4.857054     20.46744     44.73943         5     0.711     0.480 -75.05   0
       378    554.9143     74.1423 300.3678840 +22.5680732     349.9331     72.65681      1.232     3.10     5.036479     20.46744     55.83971         8     0.839     0.710 -23.52   0
       379    458.1095     74.2706 300.3377112 +22.5391197     283.1937     72.71214      1.524     4.20     4.879599     20.46744      48.7131         7     1.089     0.619  -5.97   0
       380    248.6991     69.5439 300.2741068 +22.4750306      1189.18     72.63836      1.413     2.74     4.833079     20.46744     137.6896        19     1.129     0.949 -65.91   0
       381    693.7440     69.5593 300.4126043 +22.6083212     790.2686     72.52755      1.198     2.52     5.361412     20.46744     141.3575        13     1.015     0.687  50.64   0
       382    475.5268     67.1632 300.3454366 +22.5422937     278.0283     72.49057      1.218     2.42     4.879424     20.46744     46.50508         5     0.713     0.476 -73.56   0
       383    731.6327     64.5160 300.4260437 +22.6182129     749.0686     72.50906      1.594     3.39     5.188605     20.46744     76.80836        11     0.963     0.745  70.54   0
       384    655.1833     64.0413 300.4023828 +22.5951911     413.9839     72.56451      1.228     3.38     5.446502     20.46744     74.61154         9     0.939     0.651 -81.51   0
       385    751.6400     60.9037 300.4334490 +22.6231629     2128.715     72.52755      1.296     2.32     5.122317     20.46744     316.9534        22     1.023     0.975 -29.65   0
       386    457.3371     59.3034 300.3423248 +22.5345875      407.297     72.63836      1.174     2.71      4.87876     20.46744     58.41018         8     0.830     0.653  69.56   0
       387    134.8876     56.3893 300.2429965 +22.4371490     913.0068     72.49057      1.379     2.75     4.937855     20.46744     106.6883        14     1.013     0.823  47.86   0
       388    926.7832     53.9738 300.4902899 +22.6735831     793.7466     72.56451      1.377     2.70      5.15957     20.46744     103.6965        13     1.035     0.732 -63.48   0
       389    700.0385     53.5580 300.4197546 +22.6056050     959.3961     72.63836      1.317     2.20     5.417047     20.46744     161.5882        12     0.923     0.725  84.65   0
       390    407.2308     51.4179 300.3292911 +22.5173146     341.0282     72.52755      1.375     4.87     4.883848     20.46744     35.81187         9     1.085     0.734 -52.26   0
       391    284.7052     42.7823 300.2939808 +22.4781311     429.4956     72.47208      1.546     3.80     4.889878     20.46744     61.49072        10     1.154     0.742  52.30   0
       392    687.7236     35.8257 300.4216688 +22.5968203     202.7006     72.56451      1.161     1.99     5.525826     20.46744     61.05791         5     0.708     0.425  75.67   0
       393    552.5988     38.1901 300.3788225 +22.5570464     823.6058     72.36101      1.183     2.86     4.960207     20.46744     114.5492        12     1.085     0.649  73.96   0
       394    161.9863     35.5125 300.2581878 +22.4392743     700.7431     72.49057      1.618     3.50     4.785318     20.46744     73.12692        11     1.086     0.742  38.01   0
       395    123.2541     35.3177 300.2462142 +22.4276118     151.0945     72.58298      1.187     3.37     4.996243     20.46744     33.91607         5     1.135     0.289 -55.33   0
       396    715.6553     32.9921 300.4312890 +22.6043663     791.2292     72.54603      1.449     3.36     5.537168     20.46744      84.0984        14     1.069     0.845  49.35   0
       397    524.2566     31.3748 300.3722095 +22.5466011     1832.047     72.54603      1.296     2.39     4.868286     20.46744     245.6258        20     1.142     0.860  82.10   0
       398    247.1150     29.0530 300.2867446 +22.4629257     702.1406     72.58298      1.370     2.58     4.816888     20.46744      85.7271        10     0.931     0.664 -73.97   0
       399    481.5500     25.2585 300.3609001 +22.5320549     1300.284     72.60144      1.253     2.33     4.870402     20.46744     173.4655        18     1.038     0.947  71.75   0
       400    587.0878     21.9083 300.3948401 +22.5626924     1408.924     72.71214      1.350     2.47     5.313934     20.46744     194.9247        19     1.039     0.930  66.67   0
       401    682.3417     21.1795 300.4247417 +22.5909982      127.619     72.52755      1.064     3.39     5.570893     20.46744     34.45183         5     0.763     0.437  72.83   0
       402    182.1028     21.2340 300.2690698 +22.4412013     495.7074     72.54603      1.362     4.14     4.751726     20.46744      54.3302         7     0.734     0.690  16.20   0
       403    231.0034     18.6030 300.2851239 +22.4550969     583.1866     72.32394      1.578     2.93     4.781957     20.46744     83.83757         7     0.932     0.599  17.27   0
       404    204.7086   1021.4700 299.9511058 +22.7349415     803.0602     67.39229      2.164     6.96     9.710853     20.46744      49.8669        16     1.176     1.153 -22.85  16
       405    765.2377   1020.5108 300.1258387 +22.9028691     377.6104     70.56014      1.460     2.98     3.770146     20.46744     38.19913         5     0.727     0.458 -20.71  16
       406    898.1624     13.1316 300.4946102 +22.6532711      253.019     72.52755      1.228     3.41     5.161954     20.46744     36.33699         6     0.742     0.575  52.36   0
       407    522.1976   1017.9821 300.0509820 +22.8292363     1601.084     72.45358      1.663     3.31     2.736535     20.46744     146.0676        23     1.218     1.119 -65.05  16
