#   1 NUMBER                 Running object number                                     
#   2 X_IMAGE                Object position along x                                    [pixel]
#   3 Y_IMAGE                Object position along y                                    [pixel]
#   4 ALPHA_J2000            Right ascension of barycenter (J2000)                      [deg]
#   5 DELTA_J2000            Declination of barycenter (J2000)                          [deg]
#   6 FLUX_APER              Flux vector within fixed circular aperture(s)              [count]
#   7 FLUXERR_APER           RMS error vector for aperture flux(es)                     [count]
#   8 FLUX_RADIUS            Fraction-of-light radii                                    [pixel]
#   9 FWHM_IMAGE             FWHM assuming a gaussian core                              [pixel]
#  10 BACKGROUND             Background at centroid position                            [count]
#  11 THRESHOLD              Detection threshold above background                       [count]
#  12 FLUX_MAX               Peak flux above background                                 [count]
#  13 ISOAREA_IMAGE          Isophotal area above Analysis threshold                    [pixel**2]
#  14 A_IMAGE                Profile RMS along major axis                               [pixel]
#  15 B_IMAGE                Profile RMS along minor axis                               [pixel]
#  16 THETA_IMAGE            Position angle (CCW/x)                                     [deg]
#  17 FLAGS                  Extraction flags                                          
         1    771.0005      9.8284 300.4119428 +22.6126192     645.3365     72.66109      1.429     2.69     5.015879     20.51035     101.0485        11     1.020     0.716  51.98   0
         2    203.2468      8.9378 300.2354975 +22.4424113      3770.87     72.71665      1.542     2.89     5.778738     20.51035     421.6403        33     1.341     1.150  59.34  16
         3    625.8367      6.2535 300.3678723 +22.5681560     288.0194     72.71665      1.369     4.45     5.308515     20.51035     34.88855         7     0.897     0.627  33.99  16
         4    529.1293      6.5946 300.3376463 +22.5393110     431.7604     72.66109      1.465     2.38     5.048726     20.51035      39.1809         5     0.713     0.444 -22.05   0
         5    764.6191      1.7907 300.4125585 +22.6083977     751.3651     59.11538      1.095     2.18     5.093598     20.51035     137.4588         9     0.788     0.696   0.21  24
         6    319.3962      1.6841 300.2739680 +22.4751103     1007.337     58.52032      1.162     2.60     4.628447     20.51035     143.4344        12     0.985     0.692   2.26  24
         7    207.8257   1004.4337 299.9137001 +22.7295085     2452.042     72.71665      4.652    17.13     79.49298     20.51035      63.6419        68     3.333     2.447  -5.90  19
         8    280.3226   1019.7509 299.9312552 +22.7556576     2918.191     72.47559      5.319    22.56     32.34528     20.51035     69.26467       147     4.287     3.539 -70.03  27
         9    270.3893   1004.1354 299.9332474 +22.7481993     3390.838     72.62403     10.748    58.05     36.77173     20.51035     92.66434       710    22.126     4.226  -8.77  19
        10    251.6223    990.1583 299.9319598 +22.7385597      6480.16     72.73516     14.322    53.55     44.91976     20.51035     140.8884       856    12.541     6.346  -3.88  19
        11    270.6918    979.9901 299.9411970 +22.7413667     9460.704     72.64257     11.313    32.22     27.39336     20.51035     185.6581       894    11.675     5.477  61.19  19
        12      5.3764   1017.0508 299.8466929 +22.6723503     3379.743     72.60549     11.157    46.41    -30.02353     20.51035     69.62768       424     9.692     6.167 -51.91  27
        13    665.4001    992.1340 300.0600807 +22.8632494     8815.521     72.66109      1.966     4.53     4.115421     20.51035     517.4953        49     1.556     1.437  14.12   3
        14    671.0057    989.9256 300.0625453 +22.8642965      9346.12     72.62403      1.900     4.25     4.169698     20.51035     614.4675        49     1.533     1.386  54.47   3
        15    765.4583    993.2073 300.0909038 +22.8935569     614.4561     72.67962      1.948     6.84     4.010994     20.51035     38.12158        14     1.506     0.872 -30.91   0
        16    199.3876    982.9702 299.9180601 +22.7208226     1621.727     72.69814      3.742    11.38     64.34174     20.51035     44.66394        35     2.401     1.501  29.97   2
        17    196.7674    976.3247 299.9194076 +22.7181309     1025.234     72.69814      3.168     6.41     59.05715     20.51035     48.86189         9     1.233     0.935 -31.63   3
        18    202.4857   1003.4321 299.9123660 +22.7276187     2624.839     72.67962      3.956    12.02     79.92986     20.51035     85.50858        60     3.007     1.805  67.77   3
        19    138.8661    981.7685 299.8996414 +22.7023130     868.9171     72.69814      5.790     9.19     66.25248     20.51035     44.86142        11     3.354     0.703 -14.12   3
        20    959.0000    976.0834 300.1568109 +22.9466496     739.2657     72.56841      1.985     6.30     4.337056     20.51035     48.44343        10     1.344     0.923 -44.74   2
        21      3.2504   1000.5422 299.8514036 +22.6669813     2445.541     66.38768     14.961    28.74    -26.03934     20.51035     57.75634       185     7.930     2.892 -81.52  27
        22    578.8214    996.8616 300.0315806 +22.8386429      2365.25     72.66109      1.870     4.37     3.532313     20.51035     183.6411        33     1.475     1.316 -30.22   0
        23    683.7406    959.2225 300.0765013 +22.8593029     6800.869     72.67962      1.832     4.14     4.071669     20.51035     419.5755        45     1.479     1.365  -0.65   0
        24    106.7417    924.8677 299.9081680 +22.6763590     4451.812     72.73516     17.820    68.72     11.24046     20.51035     1152.091      1341    16.710     7.842 -42.39  19
        25    204.5856    996.8066 299.9151744 +22.7263495     1229.454     72.58695      3.828     8.12     74.46245     20.51035     49.02464        22     1.546     1.191 -82.44   3
        26    162.0540    962.1161 299.9132405 +22.7036389     1117.389     72.73516      4.883     4.91     54.26907     20.51035     39.10057         5     1.265     0.540  31.82   2
        27    110.9447    954.4603 299.8998486 +22.6861039     5133.534     72.77217     25.841   109.10     35.12784     20.51035     106.8505      2924    24.272    13.607 -88.61  19
        28    175.3514    959.9664 299.9180726 +22.7070135     1215.796     72.73516      4.221    13.64     50.18437     20.51035     49.00888        24     2.998     1.725  18.13   2
        29    591.9837    949.9198 300.0509510 +22.8291203     1598.891     72.71665      1.860     4.06     3.633626     20.51035     129.6982        26     1.352     1.225  21.36   0
        30    136.3267   1021.3775 299.8859656 +22.7129046     5048.301     67.91126      6.927    31.34     99.20146     20.51035     120.4757       289     7.441     3.663  14.18  27
        31    275.3878    953.4548 299.9512894 +22.7351666      539.208     72.69814      1.559     4.21     16.30652     20.51035     60.23858        11     1.049     0.833  36.95   0
        32    769.5673    947.3336 300.1071092 +22.8816200     431.5498     72.69814      1.896     4.67     3.978136     20.51035     34.86781         7     1.181     0.552 -21.21   0
        33    486.0515    946.3066 300.0191493 +22.7963145     999.4045     72.77217      1.721     4.95     3.888636     20.51035     82.54071        18     1.214     1.080  71.62   0
        34    416.6410    944.3868 299.9981744 +22.7749440     6674.447     72.71665      1.804     4.05     4.211228     20.51035     484.2167        43     1.450     1.351  23.04   0
        35    562.9361    953.3671 300.0407854 +22.8213988       400.35     72.69814      1.761     5.67     3.572519     20.51035     32.90224         8     1.243     0.730 -22.72   0
        36    518.6041   1006.1966 300.0097967 +22.8232604     267.8651     72.49416      1.398     5.08     3.531236     20.51035     32.37234         7     1.047     0.697 -74.06   0
        37    449.1337    931.1695 300.0125841 +22.7808987     495.4187     72.69814      1.593     5.52     4.092024     20.51035     54.31208        12     1.111     1.043  47.03   0
        38    964.0000    923.5004 300.1754773 +22.9330461     1383.464      72.5313      1.615     4.23     4.017435     20.51035     102.4264        18     1.384     0.885  85.95   3
        39    962.0000    923.0206 300.1750096 +22.9323090     1297.724     72.60549      1.580     4.57      4.02073     20.51035      100.842        15     1.501     0.757 -80.25   3
        40    115.4519   1022.4234 299.8791388 +22.7069379     4291.598     63.20917      6.087    20.92     96.61694     20.51035     119.9565       182     5.651     3.351  14.87  27
        41    151.1511    922.4692 299.9227480 +22.6889999     929.4242     72.69814      8.033    14.83     22.41546     20.51035     35.53635        19     5.898     1.037   3.49   3
        42    613.3210    920.6189 300.0671266 +22.8271095     386.9199     72.69814      1.564     5.51     3.758954     20.51035     34.72565         8     1.186     0.721   0.39   0
        43    645.7425    917.9312 300.0780978 +22.8360589     244.7421     72.71665      1.158     4.49     3.850898     20.51035     33.04615         6     1.153     0.497 -39.04   0
        44    751.7815    912.1703 300.1130054 +22.8661938     770.6002     72.69814      2.016     6.89     3.947607     20.51035     41.23021        15     1.378     0.965  34.88   0
        45    786.3762    906.4941 300.1256321 +22.8749334      1084.49     72.60549      1.816     5.60       3.9808     20.51035      77.2245        19     1.361     1.061 -34.86   0
        46    242.8963    907.3714 299.9561761 +22.7122019       672.61     72.64257      4.573     4.82     10.92342     20.51035     34.46467         5     0.991     0.665  85.89   0
        47    564.0878    907.1501 300.0561775 +22.8084816     444.7438     72.69814      1.644     3.87     3.712892     20.51035     45.04999         7     0.841     0.690  45.10   0
        48    808.8743    900.0190 300.1347499 +22.8798172     11371.73     72.69814      1.754     3.89     4.009143     20.51035     758.9051        49     1.439     1.371 -28.60   0
        49     13.0798    978.2856 299.8616969 +22.6635543     1742.676      72.8646      9.290    31.24    -9.134661     20.51035     66.13579       121     6.422     4.218   4.53  19
        50    999.8058    899.7220 300.1943802 +22.9369436     435.7305     72.60549      1.859     6.81     3.958107     20.51035     33.17432        10     1.340     0.971 -45.93   0
        51    120.4558    891.5158 299.9232760 +22.6709131     952.4664     72.79066      3.682     5.97     10.04966     20.51035     62.32825        12     1.251     0.961 -33.35   0
        52    861.4686    887.7932 300.1551206 +22.8920682     372.1739     72.66109      1.420     3.92     4.081947     20.51035     47.93349         8     0.994     0.728  60.96   0
        53    513.9678    887.5897 300.0469365 +22.7878390     370.8876     72.69814      1.499     4.16     3.958746     20.51035     56.84789         6     1.099     0.450  11.46   0
        54    817.4374    882.2705 300.1431915 +22.8772871     1424.327     72.66109      1.661     4.23     4.021182     20.51035     118.6085        19     1.164     1.033  -2.94   0
        55    387.1786   1003.5862 299.9697489 +22.7830857     506.1259     72.67962      1.799     4.66     4.629043     20.51035     42.82722        11     1.278     0.936  84.98   0
        56    854.6446    899.5172 300.1491801 +22.8933900     391.5191     72.66109      1.707     3.90     4.070538     20.51035     34.17208         6     0.913     0.477 -87.28   0
        57    669.8177    879.2960 300.0981623 +22.8321866     429.1097     72.60549      1.887     4.55      3.79789     20.51035     38.50972         7     1.056     0.556  21.68   0
        58    855.4531    875.5775 300.1572183 +22.8867574     756.6754     72.71665      2.014     5.66     4.076662     20.51035     53.04014        17     1.357     1.044  53.79   0
        59    964.0129    872.7957 300.1919736 +22.9184858     292.8412     72.54985      1.501     4.59     4.017435     20.51035     36.36477         6     0.990     0.604  26.61   0
        60    904.1926    866.7596 300.1752818 +22.8988294     573.1074     72.73516      2.108     5.70     4.082438     20.51035     34.86396        11     1.131     0.992 -12.27   0
        61    755.1359    865.8589 300.1291128 +22.8539028     860.2805     72.73516      2.292     5.95     3.901423     20.51035     50.44118        14     1.389     0.863  54.15   0
        62     15.4320    864.7387 299.8993563 +22.6317150     411.5306     72.73516      1.834     3.40      3.40171     20.51035     34.15324         5     0.767     0.437 -68.26   0
        63    467.8426    862.0971 300.0408706 +22.7666916     4229.534     72.69814      1.639     3.48      4.16528     20.51035     342.1448        37     1.308     1.280  44.42   0
        64    765.6521    863.6682 300.1331022 +22.8564256     1209.496     72.71665      0.990     4.33     3.925309     20.51035     679.3756        11     1.135     0.470 -25.16   0
        65    193.0565    847.9327 299.9600111 +22.6802016     771.8511     72.73516      1.632     3.48      6.59767     20.51035     86.88689        11     1.076     0.882 -17.06   0
        66    170.1127    844.6096 299.9539602 +22.6723644     1589.103     72.62403      1.864     4.21     6.797871     20.51035     162.6442        25     1.432     1.227  45.71   0
        67     45.0683    834.7686 299.9183060 +22.6320182      539.638     72.67962      1.943     5.70     3.948999     20.51035     37.53675         8     1.360     0.672   9.78   0
        68    996.2755    832.4647 300.2151524 +22.9165646     2094.103     72.77217      1.865     4.72      3.98375     20.51035     141.0804        26     1.332     1.245 -11.43   0
        69    780.0443    826.4100 300.1497028 +22.8500401     585.5922     72.71665      1.593     4.33     4.012061     20.51035     53.35231        13     1.196     0.743  -4.78   0
        70    202.2673    826.7285 299.9697684 +22.6768840     462.7369     72.73516      1.756     5.79      5.65419     20.51035     37.45756        10     1.227     0.830   4.38   0
        71    647.8596    820.2692 300.1105172 +22.8086591     4782.118     72.71665      1.565     3.24     3.868095     20.51035     407.3043        35     1.263     1.216  28.25   0
        72    450.2084    817.4865 300.0498880 +22.7486021     545.7386     72.62403      1.353     3.39     4.183736     20.51035     61.87613        11     1.042     0.779  36.38   0
        73    198.1225    813.9737 299.9726267 +22.6719822     1276.477     72.69814      1.701     3.59     5.173497     20.51035     116.3815        20     1.273     0.987  39.27   0
        74    668.4875    812.7591 300.1193840 +22.8126861     732.5574     72.67962      1.578     2.99     3.848837     20.51035     83.68281        12     1.006     0.783 -60.40   0
        75    467.2595    811.8286 300.0570338 +22.7520914     335.2774     72.69814      1.443     4.38     4.170876     20.51035     35.14537         6     0.979     0.558 -25.48   0
        76    217.2999    811.0956 299.9795238 +22.6769102     363.9385     72.90154      1.528     4.62     4.975652     20.51035     48.16342         8     1.305     0.713  -7.81   0
        77    823.9337    800.1010 300.1719359 +22.8556361     4122.819     72.79066      1.592     3.35      4.11037     20.51035     303.2624        29     1.247     1.178  40.07   0
        78    232.4305    794.3685 299.9896654 +22.6766514     398.3014     72.69814      1.520     5.20     4.547292     20.51035     49.87185        10     1.372     0.820 -16.16   0
        79    540.9940    792.5926 300.0862385 +22.7686783     584.1012     72.54985      1.424     3.71     3.977312     20.51035     68.21811        11     0.989     0.804  45.33   0
        80    186.9896    790.3776 299.9768368 +22.6618744     995.0964     72.69814      1.774     5.30     4.594335     20.51035     100.7049        20     1.396     1.198  -2.21   0
        81    336.9169    782.4750 300.0260234 +22.7045803     53805.98     72.80916      1.607     3.28     4.180451     20.51035     5561.978        91     1.453     1.364  37.92   0
        82    602.9607    785.7124 300.1077691 +22.7852796     481.6509     72.67962      1.395     2.36      3.93791     20.51035     83.30041         7     0.775     0.680 -72.19   0
        83   1007.4122    781.1809 300.2353007 +22.9051656     858.3925     72.66109      1.609     5.02     4.120955     20.51035     71.72022        12     0.975     0.946 -16.97   0
        84    594.7883    781.6113 300.1065574 +22.7816525     1566.698     72.58695      1.532     3.26     3.936987     20.51035     155.2125        22     1.193     1.055  39.03   0
        85    265.7325    780.8830 300.0044033 +22.6827726     475.6732     72.80916      1.422     3.46     4.395196     20.51035     59.30247         6     0.885     0.546  -3.71   0
        86    623.7192    777.5491 300.1168874 +22.7891584     1030.563     72.71665      1.613     3.04     3.899418     20.51035     106.5658        17     1.053     0.966  21.43   0
        87     23.3540    777.2991 299.9302430 +22.6090241     846.8282     72.71665      2.164     3.99     3.734117     20.51035     86.01965        14     1.206     1.013 -24.42   0
        88    634.8236    776.1404 300.1208036 +22.7920823     534.7669     72.69814      1.385     4.91     3.878878     20.51035     63.56185        10     1.190     0.649  50.59   0
        89    954.3262    773.0078 300.2213994 +22.8869168     327.6065     72.66109      1.327     4.82     4.238092     20.51035     38.05847         7     1.098     0.600 -70.53   0
        90    740.1388    772.6348 300.1547508 +22.8226387     502.0648     72.71665      1.655     3.58     3.963081     20.51035     59.98411         7     0.882     0.580  21.39   0
        91    386.6513    759.7311 300.0488873 +22.7129692     31582.42     72.67962      1.583     3.10     4.109015     20.51035     3546.786        70     1.348     1.310  42.26   0
        92    777.6841    762.6732 300.1696887 +22.8310284      630.318     72.80916      1.449     3.66     4.054249     20.51035     71.39949        12     1.074     0.786  39.94   0
        93    400.8478    760.1982 300.0531523 +22.7173603     1905.831     72.67962      1.544     3.38     4.159509     20.51035     184.9557        23     1.168     1.108  47.78   0
        94    909.8349    755.8196 300.2131122 +22.8686515     2818.296     72.71665      1.632     3.64     4.289065     20.51035     217.4897        28     1.263     1.155  34.23   0
        95    397.7905    754.0516 300.0541989 +22.7146796     776.8714     72.69814      1.872     3.84      4.13866     20.51035     55.74066        12     0.957     0.905 -56.01   0
        96    667.6843    751.6600 300.1389963 +22.7949022     960.7419     72.80916      1.563     3.55      3.78539     20.51035     95.75233        17     1.129     0.985  44.00   0
        97    504.0792    751.9984 300.0879429 +22.7459589      431.975     72.60549      1.447     2.74     3.994251     20.51035     64.12199         8     0.882     0.825  12.29   0
        98    269.1407    751.5155 300.0150086 +22.6753697      964.272     72.80916      1.832     3.71     4.113108     20.51035     83.45915        17     1.256     0.888  28.84   0
        99    514.6688    746.5404 300.0930132 +22.7475669     916.8284     72.71665      1.535     3.98     3.978052     20.51035     74.14462        16     1.116     1.003  70.18   0
       100     73.8596    746.6393 299.9558973 +22.6153878     590.6747     72.69814      1.807     6.03      3.85518     20.51035     52.30546        11     1.323     0.808  52.22   0
       101    915.7264    743.5210 300.2189470 +22.8668829     573.4451     72.80916      1.608     5.02     4.351822     20.51035     55.46716        13     1.157     0.929 -31.36   0
       102    416.7478    742.2770 300.0639243 +22.7169849     352.6487     72.71665      1.476     4.35     4.217216     20.51035     38.64136         7     0.891     0.606  56.44   0
       103    372.3326    741.9261 300.0502199 +22.7035660     318.2166     72.77217      1.551     4.92     3.983661     20.51035     43.70154         7     1.227     0.677  48.91   0
       104    460.7963    741.3438 300.0779346 +22.7299241     434.9356     72.66109      1.383     3.14     4.053996     20.51035      50.7146         8     0.943     0.580  19.83   0
       105    102.6174    740.9877 299.9666691 +22.6223955     686.6944     72.66109      2.425     4.80     3.978809     20.51035     57.57513        15     1.356     0.977   2.14   0
       106    668.9836    740.4827 300.1430341 +22.7920820     345.1905     72.66109      1.370     2.49     3.763091     20.51035      47.0976         6     0.781     0.713   4.58   0
       107    893.4288    738.8174 300.2135231 +22.8588523     483.3188     72.69814      1.525     4.36     4.277377     20.51035     42.81016         7     1.364     0.396 -19.95   0
       108    266.8752    735.7996 300.0194119 +22.6701813     504.4729     72.56841      1.339     3.22     3.972478     20.51035      70.4202        11     0.979     0.784  44.09   0
       109    590.2383    726.2343 300.1231405 +22.7643900     442.5378     72.73516      1.469     5.02     4.016777     20.51035     55.35326        11     1.103     0.803  61.52   0
       110    559.6539    724.7601 300.1140967 +22.7547994     715.5754     72.67962      1.653     3.21     4.065266     20.51035     74.78014        12     1.029     0.810   6.80   0
       111    581.7643    722.0530 300.1218608 +22.7606495     1355.693     72.71665      1.434     2.96     4.071867     20.51035     172.0588        18     1.091     1.005  79.39   0
       112    469.1257    723.6313 300.0862835 +22.7273373     339.3799     72.71665      1.395     4.45     4.088909     20.51035     39.76494         5     1.123     0.502  57.30   0
       113    976.2639    721.1342 300.2451035 +22.8785822     4686.978     72.75367      1.649     3.39     4.451043     20.51035      393.985        37     1.338     1.271 -29.19   0
       114    501.7325    721.4355 300.0971458 +22.7364822     381.0232     72.69814      1.644     3.40     4.088801     20.51035     46.30766         6     0.689     0.669  63.78   0
       115    964.7466    712.4069 300.2443477 +22.8726251     1782.935     72.69814      1.739     3.85     4.469461     20.51035     145.4871        23     1.251     1.106 -55.08   0
       116    733.0635    712.1748 300.1721979 +22.8031547     246.5551     72.67962      1.428     4.85     4.039472     20.51035     27.16989         5     0.977     0.683 -31.99   0
       117    327.5345    705.8176 300.0480198 +22.6797703     842.6645     72.67962      1.496     3.64     4.087605     20.51035     100.0355        17     1.226     0.920  73.59   0
       118    192.8173    707.2584 300.0056629 +22.6397799     416.7835     72.64257      1.973     4.50     4.249739     20.51035     34.34343         5     0.802     0.717 -18.84   0
       119    995.9418    702.6713 300.2572421 +22.8791696     1714.208     72.73516      1.654     3.87     4.452071     20.51035     142.4473        24     1.253     1.191  77.73   0
       120    791.2081    703.7726 300.1930478 +22.8181622     2624.696     72.67962      1.630     3.27     4.144583     20.51035     231.5662        32     1.426     1.131  12.57   0
       121     13.1630    694.1174 299.9541100 +22.5821137     917.6855     72.66109      1.952     5.04     3.735148     20.51035     74.45176        19     1.352     1.153  -9.04   0
       122    176.2910    690.1189 300.0060952 +22.6299058     606.7538     72.80916      1.568     3.96     4.347176     20.51035     86.39658        11     1.136     0.867  47.50   0
       123    873.2194    689.8428 300.2231392 +22.8387280      538.128     72.71665      1.591     4.26     4.440111     20.51035     64.03345        12     1.217     0.716  24.94   0
       124    909.4858    680.7108 300.2374146 +22.8469666       149259      72.8646      1.613     3.24      4.54269     20.51035     14138.29       160     1.471     1.461  59.93   0
       125    671.5228    684.4376 300.1620392 +22.7767482     316.5494     72.67962      1.510     4.53     4.122119     20.51035     44.29819         6     1.210     0.483  26.53   0
       126    761.8560    680.9615 300.1913132 +22.8028159     871.8666     72.69814      1.417     3.07     4.170417     20.51035     107.5686        13     1.019     0.861  15.25   0
       127    942.5682    673.8469 300.2499618 +22.8549022     404.7725     72.73516      1.501     2.74     4.565942     20.51035     44.89876         6     0.704     0.631 -31.07   0
       128    595.6166    669.4003 300.1432845 +22.7496828      1678.85     72.58695      1.364     2.61      4.64475     20.51035     221.0039        19     1.119     0.919  81.22   0
       129    777.0013    666.7851 300.2006396 +22.8032809      9416.41     72.54985      1.429     2.80      4.22988     20.51035     1086.314        40     1.211     1.167 -17.99   0
       130    278.3969    661.7190 300.0470670 +22.6523804     5148.105     72.60549      1.539     2.95     4.254751     20.51035     642.6163        33     1.244     1.160  84.53   0
       131    360.4668    659.9932 300.0731533 +22.6764939     1185.252     72.67962      1.443     3.02     4.333664     20.51035       157.41        18     1.165     0.923  71.62   0
       132    236.2044    657.5079 300.0353160 +22.6385190     462.6141     72.60549      1.295     3.56     4.257396     20.51035     60.08193         9     0.908     0.770   4.29   0
       133    568.7679    655.3670 300.1394840 +22.7376067     670.6932     72.75367      1.341     3.59     4.780705     20.51035     80.83205        11     1.062     0.712  44.60   0
       134    560.4308    647.5392 300.1394315 +22.7328603     3176.214     72.73517      1.383     2.45     4.870437     20.51035     426.7544        28     1.160     1.044  46.69   0
       135    550.6474    641.3438 300.1383983 +22.7281492     1306.969     72.73516      1.317     2.33     4.976171     20.51035     175.6778        16     0.966     0.859  44.99   0
       136    944.0144    639.2800 300.2616447 +22.8454013     429.3249     72.67962      1.433     4.66     4.707372     20.51035     49.28464         7     0.948     0.650  -2.23   0
       137    461.6867    638.7862 300.1115376 +22.7007510     641.6323     72.64257      0.692     0.39     4.499236     20.51035     370.7622         6     0.730     0.359  34.53   0
       138    213.9068    637.3516 300.0349320 +22.6260483     684.1337     72.73516      1.625     3.91      4.28807     20.51035     60.81201        11     1.010     0.804  40.93   0
       139    228.1137    635.8649 300.0398318 +22.6298823     722.3599     72.79066      1.794     4.21     4.271944     20.51035     74.63637        12     1.077     0.947 -55.75   0
       140    115.0009    636.0057 300.0046281 +22.5959976     313.3416     72.51273      1.134     3.69     4.391319     20.51035     25.65202         5     1.520     0.257  67.36   0
       141    997.6899    632.5713 300.2805663 +22.8595457     552.1036     72.67962      1.757     3.65     4.737586     20.51035     60.00969         8     0.962     0.793  68.50   0
       142    284.5448    632.9077 300.0583390 +22.6459558     476.9838     72.75367      1.897     4.37     4.273928     20.51035     38.02868         8     0.883     0.810 -89.85   0
       143    254.0981    632.7272 300.0489301 +22.6367742     595.9916     72.82764      1.327     3.43     4.273928     20.51035     78.90199         9     0.994     0.604  36.86   0
       144    574.4131    631.7775 300.1489058 +22.7325245     423.6488     72.67962      1.228     3.45      4.95588     20.51035     60.45425        10     0.889     0.801  13.66   0
       145    475.3477    631.0109 300.1183153 +22.7026135     1846.364     72.69814      1.397     2.69     4.555798     20.51035     237.6096        20     1.078     0.981  45.41   0
       146    129.3548    625.8313 300.0123937 +22.5973841     19853.28     72.75367      1.657     3.09     4.379879     20.51035     2384.937        64     1.441     1.355  29.63   0
       147     50.9331    627.4329 299.9875070 +22.5743198     715.5811     72.69814      1.857     3.42     4.273696     20.51035     62.05028        11     1.067     0.757  49.56   0
       148    560.5088    626.4133 300.1463191 +22.7268173     1007.919     72.64257      1.336     2.56     5.082048     20.51035     121.3021        15     0.922     0.896  74.99   0
       149    595.8827    625.2985 300.1576960 +22.7370978     282.1352      72.8646      1.257     4.25     4.878715     20.51035     40.78014         7     0.775     0.666 -13.67   0
       150    615.3443    619.3620 300.1656852 +22.7412246     331.3315     72.69814      1.653     4.24     4.803593     20.51035     40.73162         5     1.142     0.473   4.57   0
       151    313.7443    617.7112 300.0723566 +22.6503496     325.4948     72.73516      1.481     4.76     4.317838     20.51035     41.41724         7     1.049     0.612  70.59   0
       152    978.4127    612.8168 300.2809711 +22.8480956     1026.766     72.62403      1.487     2.85     4.852009     20.51035     126.3161        14     1.038     0.819  31.03   0
       153     75.3826    610.2055 300.0006987 +22.5767122     1600.531     72.66109      2.117     5.18      4.37676     20.51035     109.3723        27     1.681     1.187 -86.68   0
       154    845.2244    610.6467 300.2401437 +22.8075872     417.2916     72.71665      1.482     3.99     4.588583     20.51035      50.3328         9     0.991     0.684  32.33   0
       155    141.8573    610.6626 300.0212065 +22.5967821     461.5244     72.75367      1.489     3.36     4.362321     20.51035     52.36144         8     0.907     0.751   0.73   0
       156    523.6137    606.9858 300.1411438 +22.7101814     365.8644     72.62403      1.119     2.01     5.149201     20.51035     77.88972         6     0.741     0.478 -80.68   0
       157    918.8925    605.3909 300.2648202 +22.8281388       906.84     72.62403      1.891     3.49     4.781268     20.51035     87.66511        11     1.034     0.796  26.56   2
       158    383.2667    605.7225 300.0978769 +22.6677515     193.6114     72.79066      1.148     3.81     4.439297     20.51035     33.07749         5     0.976     0.427 -45.18   0
       159    316.3030    605.8597 300.0770022 +22.6477152     354.8719     72.77217      1.438     4.70     4.339911     20.51035     40.33677         8     1.139     0.631 -80.16   0
       160    480.4777    599.3997 300.1301808 +22.6950750     694.4019     72.56841      1.334     2.67     4.729864     20.51035     93.90242        14     0.920     0.907   4.53   0
       161    628.5033    597.9158 300.1767501 +22.7390079     513.7085      72.8646      1.333     2.89     4.874071     20.51035     70.21069         9     0.877     0.745 -85.75   0
       162    675.9443    596.3596 300.1920326 +22.7527747     497.4036     72.67962      1.470     4.78     4.713078     20.51035     55.73716        11     1.257     0.793 -22.34   0
       163    646.1678    595.8123 300.1829352 +22.7436964     616.7774     72.67962      1.378     3.47     4.820849     20.51035      87.2736        10     1.022     0.709  33.00   0
       164    524.6212    594.9136 300.1453788 +22.7070167     912.7188     72.62403      1.458     2.79     5.184578     20.51035     125.6398        15     1.161     0.851  63.02   0
       165    958.5365    590.7782 300.2819309 +22.8358096      3393.33     72.67962      1.528     2.86     4.859007     20.51035      366.935        30     1.182     1.132 -28.86   0
       166    490.1980    590.5188 300.1360910 +22.6954382     1646.714     72.60549      1.318     2.44     4.868634     20.51035     219.6535        20     1.073     0.999  47.59   0
       167    855.3641    587.9221 300.2506867 +22.8040938     467.2992     72.66109      2.136     5.00      4.58797     20.51035     35.91986         7     1.179     0.613  10.52   0
       168     52.0424    583.9466 300.0019762 +22.5621782     5243.783     72.69814      1.779     3.38     4.349995     20.51035     591.8338        43     1.494     1.300  35.66   0
       169    519.1159    581.7583 300.1479380 +22.7015891     407.4505     72.66109      1.769     4.73     5.161051     20.51035     45.50432         5     0.931     0.681 -16.57   0
       170    997.9460    580.5823 300.2975356 +22.8446782     351.7604     72.67962      1.203     3.79     4.898969     20.51035     46.75152         6     0.843     0.489  -5.11   0
       171    353.6218    577.2476 300.0979035 +22.6506904     9111.028     72.71665      1.420     2.59     4.665569     20.51035     1101.626        42     1.201     1.164  32.32   0
       172    476.0596    574.3321 300.1369479 +22.6865530     9148.257     72.73516      1.361     2.60     4.882286     20.51035     1044.517        41     1.207     1.113  47.83   0
       173    722.4053    571.1379 300.2146997 +22.7594477     348.5744     72.67962      1.404     3.54     4.642151     20.51035     42.72517         7     0.882     0.586  10.81   0
       174    887.7416    568.4145 300.2671178 +22.8081834      1894.27     72.67962      1.442     2.79     4.677247     20.51035      203.057        22     1.108     1.017 -42.03   0
       175    972.4772    565.8605 300.2943730 +22.8328210     12438.53     72.75367      1.528     2.91     4.879359     20.51035     1281.401        49     1.277     1.268 -19.13   0
       176    536.7061    563.9351 300.1592029 +22.7017420     11842.21     72.80916      1.359     2.36     5.325897     20.51035     1735.944        45     1.204     1.106  59.01   0
       177    706.1140    559.9547 300.2132561 +22.7513546     533.0627     72.67962      1.383     2.67     4.677268     20.51035     62.89572         9     0.786     0.732  45.19   0
       178    264.0613    559.3865 300.0758497 +22.6187132     1344.048     72.66109      1.453     2.96      4.30734     20.51035     142.5769        17     1.075     0.865   9.33   0
       179    510.9664    557.1647 300.1533888 +22.6920843     375.0044     72.75367      1.267     4.07      5.18103     20.51035     65.27919         8     1.101     0.507 -42.11   0
       180    468.3555    552.0645 300.1417821 +22.6778499     4493.667     72.71665      1.360     2.48     5.008046     20.51035     614.3121        28     1.107     1.044  61.41   0
       181    811.1416    552.2957 300.2484730 +22.7806119     756.5068     72.77217      1.310     2.82     4.577385     20.51035     93.65449        14     0.945     0.890 -14.67   0
       182    446.5842    550.5503 300.1354982 +22.6708902     1304.858     72.73517      1.415     2.34     4.963606     20.51035     198.2363        18     1.046     0.970  18.39   0
       183    201.1746    549.8782 300.0593854 +22.5971286     752.6639     72.69814      1.312     2.44     4.304337     20.51035     107.3578        10     0.820     0.737  87.11   0
       184    888.2219    547.8424 300.2739492 +22.8024146     1705.925     72.73516      1.527     3.00     4.679451     20.51035      174.896        22     1.166     1.039 -46.04   0
       185    134.6802    547.4313 300.0395120 +22.5764867     369.2776     72.69814      1.394     4.03     4.313742     20.51035     39.74854         6     1.125     0.412  33.49   0
       186    584.9882    539.6575 300.1821205 +22.7092363     201939.5     72.67962      1.355     2.45     5.368571     20.51035     28813.87       190     1.424     1.360   5.69   0
       187    408.6985    545.8224 300.1252445 +22.6581778     323.5656     72.62403      1.405     2.58      4.92979     20.51035     45.66984         6     0.719     0.601 -11.92   0
       188    768.6552    544.6368 300.2377187 +22.7656865     854.5098     72.69814      1.356     2.38       4.6004     20.51035     126.4364        13     0.972     0.800  45.21   0
       189    972.8846    541.0511 300.3025579 +22.8258111     323.7296     72.67962      1.612     5.26      4.86784     20.51035     28.28678         8     1.024     0.764  74.11   0
       190    545.8133    540.6118 300.1696129 +22.6977725      205.459     72.62403      1.829     4.13     5.376926     20.51035     40.77308         5     1.060     0.460  58.37   0
       191    271.0781    539.5202 300.0844832 +22.6151147     3598.983     72.82764      1.440     2.78     4.348991     20.51035      443.882        27     1.224     1.009  42.73   0
       192    837.0324    536.0854 300.2618083 +22.7837069     466.4531     72.66109      1.307     2.77     4.594298     20.51035     58.39606         7     0.832     0.540 -45.98   0
       193    475.5760    520.2750 300.1543527 +22.6708849      2831.29     72.73516      1.439     2.56     5.116838     20.51035     407.3982        29     1.504     1.002 -86.37   0
       194    319.8870    522.2476 300.1052714 +22.6247886     404.3399     72.67962      1.288     2.30     4.706843     20.51035     61.96364         8     0.760     0.669  55.51   0
       195    925.0251    520.2115 300.2943990 +22.8054918     140.8154     72.69814      0.981     2.81     4.751339     20.51035     38.46538         5     0.781     0.488 -53.61   0
       196    892.6241    518.3520 300.2848991 +22.7952562     284.5809     72.69814      1.310     3.86     4.653864     20.51035     25.85279         5     1.070     0.399 -73.95   0
       197    887.1411    516.4086 300.2838206 +22.7930559     295.4402     72.66109      1.397     3.40     4.634205     20.51035     43.72011         5     0.748     0.446  20.05   0
       198    580.2012    515.3855 300.1885119 +22.7008301     269.5258     72.54985      1.386     3.18     5.363356     20.51035     36.38198         5     0.729     0.457  17.19   0
       199    792.8677    508.9547 300.2568524 +22.7626840     412.0529     72.67962      1.345     2.46     4.741968     20.51035     62.06842         8     0.801     0.656 -51.62   0
       200    872.5529    506.4196 300.2825158 +22.7858167     1646.912     72.73517      1.270     2.52     4.591591     20.51035     209.2829        16     0.989     0.868   4.81   0
       201    759.2295    506.3231 300.2472234 +22.7518538     437.4519     72.67962      1.765     3.90     4.721773     20.51035     44.64032         7     0.823     0.790  60.45   0
       202    743.8235    503.8611 300.2432220 +22.7465323     2557.975     72.69814      1.346     2.51     4.711427     20.51035     365.5786        23     1.034     1.003  33.49   0
       203      2.6564    504.8553 300.0123182 +22.5246750     718.2664     63.67598      1.533     3.79     4.929073     20.51035     80.48332        14     1.019     0.923 -17.51  24
       204    987.0002    497.4155 300.3211314 +22.8174917     1113.763     72.54985      2.390     4.45     4.674837     20.51035     72.14989        16     1.219     1.074 -83.28   2
       205    952.9441    500.9667 300.3093556 +22.8083178     315.0464     72.71665      1.314     3.76     4.688193     20.51035      40.7838         5     0.807     0.503 -22.95   0
       206    648.7059    500.6513 300.2146309 +22.7171199      388.433     72.77217      1.152     2.80     5.032859     20.51035     83.25164         9     0.878     0.686  73.79   0
       207   1001.4221    498.1663 300.3253865 +22.8220246     1265.093     72.71665      1.479     3.06     4.681008     20.51035     134.7588        16     1.067     0.898  11.46   0
       208    872.9629    496.2899 300.2859329 +22.7830278     2228.077     72.67962      1.583     3.91     4.586446     20.51035     278.1229        27     1.563     1.034  77.33   0
       209    626.2304    494.4839 300.2096330 +22.7086153      627.674     72.71665      1.374     2.89      5.21895     20.51035     77.15663        11     0.941     0.795  76.45   0
       210    464.8103    493.1768 300.1598008 +22.6598766     359.6102     72.69814      1.253     3.74      5.12078     20.51035     46.61567        10     1.013     0.730 -86.40   0
       211    412.0984    494.3589 300.1430133 +22.6444196     301.0444     72.67962      1.273     3.86      4.93597     20.51035     52.81104         8     1.096     0.655  -5.08   0
       212    911.1208    491.4005 300.2994186 +22.7930468     4286.297     72.56841      1.403     2.57     4.624469     20.51035     546.9155        31     1.169     1.115 -62.87   0
       213    551.6584    491.0366 300.1875307 +22.6852844     285.7819     72.69814      1.226     3.41     5.365092     20.51035     44.90075         5     0.979     0.566  17.70   0
       214    626.1713    490.5847 300.2108807 +22.7074774     471.6232     72.71665      1.405     2.61     5.220001     20.51035      48.3111         5     0.705     0.468 -16.85   0
       215    530.8256    499.7901 300.1782025 +22.6815569     601.3724     72.69814      1.342     2.82     5.325223     20.51035     107.3056        13     0.995     0.855 -24.95   0
       216    571.7698    487.4086 300.1949705 +22.6902676     319.6065     72.69814      1.134     2.99     5.358602     20.51035       53.018         8     0.880     0.639 -16.45   0
       217   1003.0700    482.0570 300.3311313 +22.8178859     712.5181     72.71665      1.354     2.90     4.607164     20.51035     88.71187        10     0.895     0.730   9.23   0
       218    142.9967    481.5117 300.0635001 +22.5600635      928.748     72.62403      1.487     3.10     4.356678     20.51035     110.9295        16     1.057     0.947 -50.57   0
       219    942.4927    479.6405 300.3130206 +22.7990579     197.9662     72.69814      1.242     3.87      4.60418     20.51035     35.32646         6     0.899     0.477   4.15   0
       220    135.8033    471.5011 300.0645143 +22.5550336     429.9997     72.58695      1.689     4.88     4.432861     20.51035     45.45784         8     1.064     0.634  39.25   0
       221    999.8425    471.1139 300.3336776 +22.8137733     354.9195     72.66109      1.470     3.63     4.600275     20.51035     46.62933         5     0.918     0.414 -43.64   0
       222    743.3763    465.8782 300.2554152 +22.7354832     342.0853     72.69814      1.119     2.94     4.742347     20.51035     63.21354         8     0.883     0.694  63.49   0
       223    632.2506    463.8633 300.2214497 +22.7016213     316.7033     72.75367      1.196     4.54     5.180123     20.51035     45.77602         8     0.808     0.725  47.66   0
       224    684.6016    461.7889 300.2384303 +22.7167056     785.1304     72.51273      1.278     2.46     4.854288     20.51035     122.1791        13     0.901     0.846  27.15   0
       225    998.9191    454.5202 300.3387769 +22.8087255     494.3902     72.82764      1.350     3.31     4.597499     20.51035     61.56814        10     0.907     0.791  70.83   0
       226    745.3322    454.2140 300.2598115 +22.7327167     1022.759     72.71665      1.479     2.62     4.730954     20.51035     105.4771        13     0.918     0.842 -32.03   0
       227    902.4114    450.3163 300.3100417 +22.7786284     881.7496     72.66109      1.340     2.71     4.628075     20.51035     113.0042        14     1.002     0.824  61.29   0
       228    867.0827    447.2960 300.3000066 +22.7671835     477.6342      72.8646      1.529     3.43     4.578372     20.51035     56.37854         9     0.993     0.851  79.75   0
       229    886.7200    446.7288 300.3063135 +22.7728995     627.4269     72.80916      1.345     3.38      4.60882     20.51035     95.29576        11     1.039     0.780  68.73   0
       230    631.0205    444.6457 300.2273054 +22.6957312     3334.563     72.75367      1.311     2.31     5.187353     20.51035     504.9161        24     1.056     0.963  70.96   0
       231    991.4545    443.5558 300.3400079 +22.8033384     515.7545     72.71665      1.444     3.07     4.604923     20.51035     80.42383        11     0.999     0.864  25.29   0
       232    777.9874    444.3130 300.2732022 +22.7396498      161.273     72.64257      1.253     2.95     4.765053     20.51035     38.22926         5     0.806     0.501  59.61   0
       233    636.6271    432.2255 300.2330834 +22.6938418     289.9766     72.66109      1.307     3.47     5.143971     20.51035     50.31884         5     0.847     0.478 -41.52   0
       234    471.0449    431.6098 300.1817284 +22.6440619     243.8589     72.71665      0.911     1.89     5.179652     20.51035     66.13729         6     0.734     0.488   0.72   0
       235   1000.9125    422.7038 300.3497275 +22.8001729       940.34     72.88307      1.411     2.83     4.587559     20.51035     108.0851        16     1.082     0.906  26.57   0
       236    914.4466    423.8372 300.3223905 +22.7746183     572.7559     72.73516      1.403     3.28     4.686299     20.51035     71.58459        10     0.980     0.711  13.67   0
       237    741.8122    418.5712 300.2702849 +22.7214189     1134.187     72.69814      1.372     2.42     4.684218     20.51035     158.9921        16     0.980     0.921  48.60   0
       238    537.2425    419.0054 300.2064262 +22.6602735     357.7843     72.71665      1.226     3.64     5.209183     20.51035     63.37825         8     0.970     0.659  72.05   0
       239    245.7670    416.7318 300.1164758 +22.5722782     761.9358     72.69814      1.584     2.60     4.827557     20.51035     98.72865        11     0.938     0.742 -43.83   0
       240    308.0248    412.2402 300.1372945 +22.5896486     3704.107     72.73516      1.408     2.75     4.916913     20.51035     434.8636        28     1.219     1.045  46.35   0
       241    255.1291    407.1016 300.1225124 +22.5723194      7606.26     72.84612      1.400     2.85     4.837976     20.51035     893.2693        37     1.230     1.107  53.25   0
       242   1021.2172    401.9364 300.3628032 +22.8002772     1977.629     68.38535      1.528     3.25     4.638317     20.51035     190.4933        25     1.241     1.092 -80.85  24
       243    395.9315    401.3423 300.1681777 +22.6128622     4956.014     72.71665      1.374     2.63     5.018639     20.51035     615.4782        33     1.215     1.057  69.09   0
       244    640.2126    398.1306 300.2452669 +22.6851185     18740.29     72.71665      1.309     2.43     5.128004     20.51035     2316.179        52     1.211     1.087  69.28   0
       245    657.2833    399.1871 300.2502412 +22.6905345     811.0283     72.66109      2.119     2.56      5.00776     20.51035     74.16983        10     0.906     0.704  23.48   2
       246     14.9189    395.6339 300.0515797 +22.4970134     286.1013     72.66109      1.635     4.36     4.984404     20.51035     31.97672         5     1.170     0.462   7.37   0
       247    837.0789    388.8425 300.3096266 +22.7413967     358.7749     72.67962      1.242     2.97     4.688236     20.51035     56.45864         8     0.825     0.662  28.15   0
       248    260.1727    385.0624 300.1312332 +22.5675031     423.7947     72.69814      1.335     2.74     4.821948     20.51035     51.39819         7     0.858     0.515  42.34   0
       249    973.7260    380.6545 300.3548953 +22.7799440     838.2426     72.69814      1.451     3.24     4.811855     20.51035     107.3548        15     1.080     0.896  79.14   0
       250    510.8166    380.3190 300.2107553 +22.6412430     391.8387     72.69814      1.101     3.37     5.204802     20.51035     45.53776         5     0.754     0.436 -15.48   0
       251    683.7648    379.5969 300.2648487 +22.6928350     226.1232     72.69814      0.877     3.02     4.875019     20.51035     34.61831         5     0.719     0.461  17.63   0
       252    194.8908    378.0569 300.1132096 +22.5459248     2118.598     72.75367      1.464     3.14      4.84709     20.51035     232.8418        23     1.190     0.993  54.90   0
       253    580.8607    367.5995 300.2366911 +22.6585692     6749.234     72.66109      1.303     2.24     5.284462     20.51035     1061.484        33     1.123     1.042  60.83   0
       254    994.5131    368.1597 300.3654348 +22.7825715     1267.975     72.67962      1.412     2.66     4.863105     20.51035     134.6428        16     0.997     0.901 -81.37   0
       255    295.7556    366.8303 300.1482155 +22.5729319     706.3286     72.73516      1.437     2.81     4.816804     20.51035     101.9802        14     0.964     0.921   5.36   0
       256    275.0200    365.9806 300.1420426 +22.5664737     236.5935     72.69814      1.437     3.76     4.808258     20.51035     27.41941         5     1.016     0.400 -30.00   0
       257    840.6730    359.8467 300.3201573 +22.7341363     376.3596     72.69814      1.278     3.24     4.730712     20.51035     58.75366         8     0.930     0.586  71.75   0
       258    153.0078    359.9806 300.1060562 +22.5281807     498.8982     72.66109      1.453     4.68       4.9881     20.51035     75.83465         7     1.289     0.482  41.63   0
       259    694.7660    358.0387 300.2752722 +22.6899332     605.7576     72.73516      1.323     2.51     4.861543     20.51035     81.53601         8     0.788     0.658  28.66   0
       260      1.5268    357.5069 300.0597920 +22.4820561     929.5922     57.80282      1.167     2.53     4.993962     20.51035     177.8902        11     1.065     0.611 -82.71  24
       261    785.2925    356.5450 300.3039660 +22.7166081     1175.933     72.75367      1.362     2.66     4.753143     20.51035     170.8993        17     1.054     0.979 -44.55   0
       262    487.4940    353.8159 300.2120959 +22.6266423     6113.163     72.62403      1.317     2.28     5.204802     20.51035     933.8293        33     1.152     1.020  63.66   0
       263    977.1257    348.5857 300.3663631 +22.7717386     535.0915     72.69814      1.341     3.55     4.943792     20.51035     82.17272        10     1.135     0.676 -38.10   0
       264    879.5144    348.3029 300.3360131 +22.7424436     1540.861      72.8646      1.369     2.76     4.787776     20.51035     169.4119        20     1.112     0.992  59.16   0
       265    472.0931    342.8871 300.2108485 +22.6188891     489.8361      72.8646      1.319     2.19     5.125859     20.51035     75.49501         8     0.759     0.641  45.67   0
       266    309.0801    343.2373 300.1600152 +22.5701494     3137.065     72.66109      0.569     0.90     4.830007     20.51035     1858.721         7     0.469     0.430  77.93   0
       267    554.9497    340.2867 300.2374860 +22.6429604     432.5085     72.69814      1.331     3.60     5.166988     20.51035     53.23132         9     0.963     0.664  28.40   0
       268    833.0837    338.8581 300.3246022 +22.7258298     314.6219     72.80916      1.601     5.15     4.758758     20.51035     36.84509         6     1.214     0.617  61.94   0
       269    535.3258    338.4345 300.2319771 +22.6365505     259.8913     72.67962      1.223     3.07     5.133775     20.51035     50.39183         6     0.970     0.579 -61.80   0
       270    852.2869    335.6944 300.3316155 +22.7306683     644.1334     72.88307      1.444     4.11     4.757209     20.51035     73.65108        12     1.255     0.799 -68.27   0
       271    356.9778    335.2419 300.1775085 +22.5822052     250.6971     72.73516      1.136     3.71     4.884202     20.51035     35.20157         5     0.811     0.488 -52.84   0
       272    133.6093    335.4305 300.1079927 +22.5153179     179.4969     72.69814      1.208     4.18     5.004741     20.51035     27.19399         5     1.008     0.494  -2.23   0
       273    375.0533    333.0276 300.1838503 +22.5869849     2553.233     72.71665      1.343     2.45     4.952826     20.51035     350.7018        22     1.053     0.966  54.08   0
       274     93.3987    330.3966 300.0971300 +22.5018191     1000.928     72.47559      1.576     2.81     5.014561     20.51035     125.9615        17     1.072     1.039 -86.79   0
       275    344.3809    322.3935 300.1777585 +22.5747405     30089.62     72.66109      1.373     2.40     4.942259     20.51035     4098.042        67     1.329     1.146  63.68   0
       276    879.1677    320.0982 300.3450570 +22.7342294     1421.251     72.67962      1.299     2.64     4.807482     20.51035     184.9817        18     1.008     0.918  36.70   0
       277    834.5881    318.1772 300.3317817 +22.7203338     267.2682     72.69814      0.992     1.72     4.779059     20.51035     54.77364         5     0.628     0.480 -74.38   0
       278     40.6713    310.1532 300.0873150 +22.4802012     5047.649     72.67962      1.637     3.29     5.298397     20.51035     510.8142        36     1.350     1.199  59.31   0
       279    794.5170    308.6563 300.3223800 +22.7056016     500.0856     72.79066      1.315     3.44     4.788636     20.51035     73.69094        12     0.972     0.943  65.05   0
       280    218.5302    308.7917 300.1430328 +22.5331222     423.7997     72.67962      1.141     1.77     4.915163     20.51035     75.87103         5     0.658     0.439 -60.94   0
       281    442.8387    307.6958 300.2131615 +22.6000154     477.2995     72.67962      1.231     2.80     5.002421     20.51035     73.60995        12     0.935     0.813  60.46   0
       282    754.9303    302.2757 300.3121125 +22.6919167     1803.703     72.77217      1.255     2.34     4.772609     20.51035     250.6355        20     0.985     0.940  37.17   0
       283    563.4377    296.8909 300.2542085 +22.6330321      263.559     72.67962      1.143     2.82      4.97093     20.51035     46.10671         6     0.764     0.496  88.36   0
       284    969.8034    295.3399 300.3813559 +22.7542328     546.5715     72.67962      1.547     3.74     4.936958     20.51035     65.34635         9     1.025     0.665  62.17   0
       285    416.6964    286.8459 300.2117901 +22.5861942     2105.474     72.71665      1.458     3.15     5.076138     20.51035     263.7746        23     1.247     0.980  55.76   0
       286    628.7465    285.7937 300.2781471 +22.6493997     378.3264     72.67962      1.451     3.22     4.932715     20.51035     39.65625         6     0.729     0.636 -12.67   0
       287    855.8262    279.9287 300.3508120 +22.7156919     718.6863     72.69814      1.495     2.69     4.827458     20.51035     96.44141        11     0.929     0.795 -14.93   0
       288    847.7170    280.2896 300.3481668 +22.7133687     297.6333     72.80916      1.549     3.45     4.827458     20.51035     31.79363         5     1.201     0.287  35.11   0
       289    755.7904    277.5721 300.3203949 +22.6850718     322.6175     72.69814      1.530     3.48     4.808304     20.51035     30.53085         5     0.768     0.456  18.20   0
       290    738.1991    277.4132 300.3149645 +22.6797601     313.7756      72.5313      1.238     3.53     4.801918     20.51035     58.62203         7     0.808     0.638 -14.44   0
       291    706.2948    276.3689 300.3053622 +22.6699087     344.4486     72.62403      1.218     3.37     4.866147     20.51035     54.57199         6     0.778     0.532  49.28   0
       292     65.2786    267.2032 300.1088922 +22.4752485     173.5407     72.60549      1.391     3.77     5.303726     20.51035     42.98014         5     0.924     0.443 -85.04   0
       293    492.5531    266.2027 300.2420953 +22.6029842     1305.467     72.69814      1.317     2.42      4.75457     20.51035     156.7899        14     0.916     0.846  18.55   0
       294    299.9434    266.1480 300.1821825 +22.5452707     281.9288     72.75367      1.077     3.91     5.080861     20.51035     38.56167         6     0.777     0.565 -30.72   0
       295   1003.8479    263.0070 300.4024654 +22.7551184     348.4679     72.69814      1.555     3.78     4.970056     20.51035     35.38187         5     0.818     0.502 -28.99   0
       296    875.9943    259.3538 300.3637746 +22.7158106     284.6074     72.69814      1.189     4.32     4.883786     20.51035     41.04752         7     0.776     0.686 -25.33   0
       297    737.3632    258.1354 300.3209575 +22.6739673     2177.039     72.69814      1.275     2.42     4.859099     20.51035     268.2203        21     1.078     0.928  63.33   0
       298    998.6904    252.6044 300.4042308 +22.7505827     3157.802     72.60549      1.472     2.66     4.975761     20.51035     391.1198        27     1.188     1.086  81.99   0
       299    445.9114    242.0051 300.2354267 +22.5820615     674.4111     72.60549      1.334     2.09     4.770114     20.51035     98.67145         9     0.739     0.716  73.78   0
       300    120.4681    236.1345 300.1361183 +22.4828700     1353.456     72.75367      1.774     3.77     5.089693     20.51035     112.6644        25     1.384     1.095 -17.00   0
       301    151.3723    236.0593 300.1457477 +22.4921102     532.4457     72.69814      1.332     3.02     5.015859     20.51035     79.59637        10     1.013     0.650 -51.16   0
       302   1014.3753    232.9985 300.4154837 +22.7496347     434.5648     72.64257      1.398     3.65     5.002409     20.51035     58.93316        11     1.116     0.793  81.94   0
       303    858.1733    230.0809 300.3677132 +22.7020585     346.2556     72.67962      1.389     3.04     4.936723     20.51035      45.5915         5     0.941     0.376  30.41   0
       304    204.6963    227.9564 300.1649517 +22.5057625     523.2902     72.71665      1.392     2.22     4.972942     20.51035     78.86846         9     0.844     0.656 -16.74   0
       305    999.7520    226.4011 300.4130613 +22.7433619     273.6364     72.69814      1.139     3.39     4.998653     20.51035     36.42117         5     0.739     0.451 -19.05   0
       306    880.3597    222.1835 300.3771922 +22.7064263     279.7032     72.71665      1.052     2.02     4.947649     20.51035     64.75489         6     0.702     0.555  37.37   0
       307    809.0710    219.4813 300.3558436 +22.6843154     570.8446     72.80916      1.233     2.73     4.947649     20.51035     105.6764        12     0.921     0.843 -81.40   0
       308    399.3856    218.8532 300.2284571 +22.5614738     271.4339     72.71665      1.376     4.55     4.857012     20.51035     46.68242         9     0.977     0.865 -74.69   0
       309    207.5565    214.9778 300.1700498 +22.5028920     1370.777     72.75367      0.726     3.26      4.97164     20.51035      736.835         9     0.776     0.398  11.43   0
       310    907.1793    208.6276 300.3899517 +22.7105521     2021.562     72.67962      1.344     2.48     4.947649     20.51035     317.7454        22     1.115     0.985  78.19   0
       311    325.6437    205.7914 300.2097513 +22.5356321      2103.71     72.71665      1.315     2.36     5.167861     20.51035     328.2071        23     1.108     0.988  53.32   0
       312    403.5559    201.0112 300.2355408 +22.5575963     1047.248     72.69814      1.504     3.12     4.900939     20.51035     121.8662        18     1.049     1.021  39.51   0
       313    155.6343    201.1916 300.1583797 +22.4833743     422.3512     72.69814      1.298     3.19     5.016146     20.51035     51.07565         8     0.998     0.538  32.64   0
       314    805.7565    200.3557 300.3610131 +22.6778231     587.5811     72.75367      1.364     2.04     4.947649     20.51035     90.93423         8     0.737     0.668  36.97   0
       315    912.8366    197.6787 300.3952668 +22.7090953     436.2615     72.66109      1.446     3.08     4.947649     20.51035     44.26394         7     0.755     0.636   6.28   0
       316    220.3182    192.8745 300.1811850 +22.5003673     884.4968     72.80916      1.630     4.25     4.966431     20.51035     93.67054        19     1.280     1.100  -8.52   0
       317      1.9840    193.7776 300.1130410 +22.4351963     360.0745     60.17614      1.649     4.83     5.838341     20.51035     40.60668         8     1.192     0.738  73.98  24
       318    823.1127    189.9265 300.3698055 +22.6800177      532.661     72.84612      1.323     3.08     4.947649     20.51035      80.2764        11     1.031     0.777  49.53   0
       319    758.2938    189.9749 300.3495866 +22.6606331     1688.099     72.62403      1.338     2.49     4.973854     20.51035     224.3122        20     1.057     0.981  81.66   0
       320     73.2045    190.5257 300.1362213 +22.4556090     198.4956     72.62403      1.134     3.46     5.474684     20.51035     33.65961         5     0.767     0.452 -20.05   0
       321    241.9836    186.4105 300.1900174 +22.5050017     541.5849     72.64257      1.260     2.28     5.002727     20.51035     73.86195         7     0.721     0.608 -13.68   0
       322    531.7650    182.4077 300.2814786 +22.5906444     302.6517     72.69814      1.223     4.01     4.844773     20.51035     44.46655         9     0.900     0.769  86.03   0
       323    762.4028    181.4009 300.3536475 +22.6593973     620.8995     72.47559      1.295     3.12     4.975702     20.51035     92.41663        13     1.067     0.794  76.22   0
       324    682.8487    180.8173 300.3290479 +22.6354183     1271.258     72.73516      1.305     2.28     4.995218     20.51035     211.8658        18     1.023     0.943 -59.44   0
       325    504.2351    177.2377 300.2745844 +22.5809151     443.6567     72.77217      1.201     2.31     4.801591     20.51035     64.22179         6     0.731     0.526  40.53   0
       326    878.2690    172.2501 300.3927336 +22.6914377     1467.712     72.69814      1.403     2.68     4.947649     20.51035     185.3472        19     1.104     0.992   5.86   0
       327    609.0751    172.4771 300.3087723 +22.6109362     898.3582     72.79066      1.338     2.34     5.013247     20.51035      137.687        11     0.852     0.788  62.22   0
       328    890.3915    171.2582 300.3968352 +22.6947795     970.7542     72.66109      1.853     3.38     4.947649     20.51035     106.8519        16     1.149     1.032  20.72   0
       329   1007.1223    161.5406 300.4363948 +22.7269048      1145.12     72.73516      1.564     2.81     5.148736     20.51035     150.2054        20     1.139     1.059  80.99   0
       330     30.9653    158.0196 300.1336373 +22.4336162     455.9237     72.71665      1.644     4.39     5.727641     20.51035     49.36663         9     0.981     0.730  13.68   0
       331    240.9395    154.7656 300.1999530 +22.4955986     656.4861     72.71665      1.267     2.53     4.991434     20.51035     106.6118        12     0.884     0.850  37.21   0
       332    102.8911    149.1538 300.1588597 +22.4526250     2150.594     72.67962      1.569     3.12     5.484742     20.51035     211.0185        27     1.346     1.109  70.67   0
       333    926.1448    146.6781 300.4159548 +22.6984048     737.5976     72.73516      1.388     2.94     4.982441     20.51035     95.88977        12     0.933     0.862 -76.21   0
       334     52.3807    146.4037 300.1440564 +22.4366988     536.2026     72.66109      1.752     5.20     5.679828     20.51035     56.75865         8     1.151     0.663   3.08   0
       335    260.3287    142.6081 300.2099237 +22.4979145     5716.569     72.67962      1.471     2.58     5.012102     20.51035     776.0015        37     1.305     1.080  63.54   0
       336     44.4731    136.9059 300.1446786 +22.4316016         1388     72.82764      1.685     3.18     5.722608     20.51035     152.8173        23     1.312     1.119  77.45   0
       337      6.2264    137.6265 300.1325635 +22.4203462     221.2873     72.66109      1.422     3.71     5.849998     20.51035     35.60715         5     0.970     0.407  83.69  16
       338    243.7016    133.4497 300.2077224 +22.4903025     654.5949     72.77217      1.590     3.49     4.943413     20.51035      85.0831        12     1.194     0.792  78.66   0
       339    904.5447    124.4053 300.4164398 +22.6855349     3539.959     72.67962      1.427     2.51     5.007945     20.51035     445.6164        29     1.196     1.076 -70.72   0
       340   1008.1587    123.0827 300.4491873 +22.7161482     2731.024     72.66109      1.510     2.95     5.520281     20.51035     309.6277        28     1.231     1.097  72.19   0
       341    453.9246    119.3414 300.2776950 +22.5492097     629.7051     72.75367      1.325     3.02     5.087626     20.51035     82.02752        11     0.942     0.827  66.26   0
       342    206.9053    120.4549 300.2004940 +22.4755463     310.3746     72.75367      1.255     3.29     4.994576     20.51035      56.9121         6     0.948     0.486  -7.53   0
       343    377.8224    111.3554 300.2566019 +22.5241256     737.0263     72.75367      1.767     2.69     5.260594     20.51035      78.6368         8     0.913     0.576  13.60   0
       344    144.2226    108.0365 300.1850339 +22.4531999     611.0407     72.71665      1.361     4.03     5.483086     20.51035     70.22446        12     1.196     0.701 -78.46   0
       345    505.3243    106.8239 300.2977520 +22.5610013     1798.123     72.71665      1.338     2.23     5.179269     20.51035     246.1243        20     1.031     0.937 -76.86   0
       346    433.1654    107.2261 300.2751616 +22.5395115     580.9635     72.69814      1.467     2.81     5.054033     20.51035     58.93932         8     0.814     0.702  -2.98   0
       347     42.1460    107.3203 300.1535459 +22.4224084     443.0859     72.73516      1.538     2.91     5.783236     20.51035      42.8205         7     0.714     0.672  16.92   0
       348    567.0759    106.0471 300.3172300 +22.5792647     271.8091     72.69814      1.264     4.80     5.101978     20.51035     37.08523         8     0.867     0.753  80.29   0
       349    248.9969    102.1986 300.2194993 +22.4829104     512.9347     72.47559      1.463     2.65      4.87847     20.51035     56.04906         8     0.827     0.620  50.33   0
       350    793.5984     96.3103 300.3909578 +22.6442589     333.7687     72.62403      1.245     3.67     4.890274     20.51035     54.77601         6     0.887     0.583  27.24   0
       351    279.2620     86.5150 300.2339946 +22.4874695     6091.557     72.82764      1.475     2.55     4.947634     20.51035     796.8624        36     1.337     1.081  57.54   0
       352    785.8438     87.3648 300.3914404 +22.6393655     381.6882     72.75367      1.161     3.29     4.901721     20.51035     44.42849         7     0.814     0.629  28.21   0
       353    130.4817     86.0904 300.1878764 +22.4427793     714.0044     72.80916      1.740     3.45     5.579517     20.51035     74.84468        11     1.032     0.799  25.42   0
       354    908.3784     84.4430 300.4305900 +22.6751838      453.744     72.73516      1.093     2.74     5.112931     20.51035     51.59707         5     0.689     0.476  16.42   0
       355    250.5560     80.3955 300.2270510 +22.4771131     410.6581     72.71665      1.608     3.92     4.977083     20.51035     53.84454         6     0.922     0.477  -7.81   0
       356    294.8983     78.1894 300.2415562 +22.4897603      308.038     72.58695      1.240     2.49     4.959981     20.51035     52.67008         6     0.783     0.608 -17.84   0
       357     40.6864     77.2857 300.1628270 +22.4133456     328.6883     72.82764      1.496     5.49     5.808064     20.51035     43.90419        10     1.539     0.552 -22.57   0
       358    525.4310     71.9294 300.3153221 +22.5569892     6208.942     72.69814      1.368     2.50     5.117975     20.51035      804.761        34     1.195     1.081  69.00   0
       359    410.8028     71.8825 300.2796584 +22.5226569     696.0216     72.60549      1.237     2.49     4.993826     20.51035     92.84854        12     0.934     0.761  66.90   0
       360    777.9142     61.8760 300.3972305 +22.6296608     833.0598     72.80916      1.498     3.51     4.930545     20.51035     100.3551        14     1.214     0.787 -29.63   0
       361    870.3598     60.7847 300.4264031 +22.6570038     497.0512     72.71665      1.500     3.33      4.87328     20.51035     68.75916         9     1.016     0.668  -4.58   0
       362    218.1209     55.6509 300.2249851 +22.4602883     620.8116     72.69814      1.619     4.16     5.328884     20.51035      60.0548        11     1.118     0.856  34.40   0
       363    653.7495     51.9987 300.3617429 +22.5896655     6360.305     72.67962      1.401     2.86     5.296449     20.51035     788.5795        36     1.246     1.092  76.27   0
       364    576.9696     54.5845 300.3369912 +22.5674295      412.661     72.69814      1.235     2.19     5.150395     20.51035     63.51852         6     0.733     0.492  -2.42   0
       365    428.6304     50.9962 300.2919752 +22.5219911     1563.157     72.66109      1.409     2.85     5.044599     20.51035     211.9382        18     1.104     0.909  80.63   0
       366    694.9835     49.3877 300.3754350 +22.6012541     896.6365     72.64257      1.379     3.07     5.264289     20.51035     134.7629        17     1.123     0.957  78.20   0
       367    201.3991     48.9078 300.2219713 +22.4533422     1772.604     72.58695      0.649     1.11     5.454952     20.51035     803.3473         7     0.523     0.410  15.78   0
       368    764.5945     47.2276 300.3978267 +22.6214617     453.9523     72.69814      2.044     4.73     5.026317     20.51035     36.75679         7     0.949     0.763 -35.94   0
       369    710.7883     45.4990 300.3816196 +22.6048649     690.1863     72.60549      1.580     3.14     5.257206     20.51035     81.89791        11     0.987     0.771 -20.67   0
       370    980.9125     43.4243 300.4665083 +22.6850746     443.7707     72.66109      1.362     3.56      5.66542     20.51035     51.07567         9     0.971     0.694  86.13   0
       371    177.5547     43.5550 300.2162931 +22.4446619     624.4143     72.73517      1.307     2.55     5.540232     20.51035     86.11534        12     0.936     0.801  13.26   0
       372    196.4063     43.1528 300.2222841 +22.4501932     1152.573     72.69814      0.636     0.47     5.511284     20.51035     744.1706         5     0.566     0.299  24.58   0
       373    749.3763     41.0550 300.3950844 +22.6151328     486.9121     72.73516      1.184     2.33     5.159919     20.51035     71.60197         8     0.765     0.658  -1.60   0
       374    713.1844     35.7183 300.3855359 +22.6027686     907.8713     72.67962      1.798     5.29     5.280089     20.51035     81.17517        21     1.715     0.935  42.72   0
       375    698.0620     36.9457 300.3804263 +22.5985966     2755.464     72.75367      1.405     2.76     5.281451     20.51035     351.8378        25     1.202     0.970  71.02   0
       376    338.8554     37.7041 300.2683497 +22.4912897     472.1521     72.77217      1.267     3.06     4.854627     20.51035     53.78296         7     0.813     0.610 -19.98   0
       377    784.5681     28.5140 300.4101165 +22.6220540     1639.649     72.67962      1.486     2.35     4.872896     20.51035     211.9737        19     1.074     0.977 -38.74   0
       378    944.9463     27.7035 300.4603842 +22.6697938     224.3716     72.77217      1.250     4.12     5.661585     20.51035     39.78875         6     0.850     0.641 -40.22   0
       379    722.5286     21.9353 300.3929141 +22.6015998     861.9032     72.73516      1.482     2.52     5.325718     20.51035     124.8239        14     0.922     0.901  25.56   0
       380    527.9937     21.0423 300.3326112 +22.5431253     1165.226     72.71665      1.416     2.44       5.0652     20.51035     146.6416        13     0.954     0.880  59.86   0
       381    100.9189     20.9405 300.1998015 +22.4152081     595.5363     72.77217      1.524     3.03     5.689715     20.51035     71.94338        10     0.947     0.774  47.35   0
       382    431.8759     18.9448 300.3033717 +22.5137492     768.8307     72.73516      1.390     4.02     5.058265     20.51035     117.7587        11     1.144     0.745  52.91   0
       383    814.2219     17.8760 300.4228071 +22.6278647     480.2319     72.67962      1.464     2.16      4.70123     20.51035     69.29686         5     0.667     0.651 -65.13   0
       384    764.1061   1019.3275 300.0819831 +22.9006490     465.5075     72.82764      1.716     6.70     4.035284     20.51035      36.0997        11     1.610     0.783 -84.65  16
       385    327.1453   1017.5321 299.9465379 +22.7690722     1045.706     72.73516      1.892     5.20     12.16172     20.51035     80.72322        22     1.325     1.213  33.54  16
       386    164.1749   1012.5966 299.8974769 +22.7187469     1400.104     72.66109      2.998    10.23      96.0734     20.51035     62.88283        26     2.054     1.754  64.94  18
       387    207.8916    991.5723 299.9179050 +22.7258410     1166.837     72.66109      6.190    14.23     69.81831     20.51035     41.67416        32     2.699     2.087 -72.39   3
       388    210.1991   1010.4116 299.9124929 +22.7319347     1463.508     72.51273      3.418    12.97     83.90932     20.51035     53.05334        37     2.649     1.768 -14.64  19
