#   1 NUMBER                 Running object number                                     
#   2 X_IMAGE                Object position along x                                    [pixel]
#   3 Y_IMAGE                Object position along y                                    [pixel]
#   4 ALPHA_J2000            Right ascension of barycenter (J2000)                      [deg]
#   5 DELTA_J2000            Declination of barycenter (J2000)                          [deg]
#   6 FLUX_APER              Flux vector within fixed circular aperture(s)              [count]
#   7 FLUXERR_APER           RMS error vector for aperture flux(es)                     [count]
#   8 FLUX_RADIUS            Fraction-of-light radii                                    [pixel]
#   9 FWHM_IMAGE             FWHM assuming a gaussian core                              [pixel]
#  10 BACKGROUND             Background at centroid position                            [count]
#  11 THRESHOLD              Detection threshold above background                       [count]
#  12 FLUX_MAX               Peak flux above background                                 [count]
#  13 ISOAREA_IMAGE          Isophotal area above Analysis threshold                    [pixel**2]
#  14 A_IMAGE                Profile RMS along major axis                               [pixel]
#  15 B_IMAGE                Profile RMS along minor axis                               [pixel]
#  16 THETA_IMAGE            Position angle (CCW/x)                                     [deg]
#  17 FLAGS                  Extraction flags                                          
         1     86.8142     15.8437 300.1998833 +22.4152145      733.135     72.07695      2.023     4.80     6.087906     20.32992     57.22778        12     1.177     0.882 -61.18   0
         2    417.5669     14.1908 300.3033159 +22.5137770     734.3035     72.05859      1.412     3.06     5.133276     20.32992      81.6399        13     0.987     0.853 -54.00   0
         3    757.0042      5.1037 300.4120128 +22.6127320     596.5592     71.48735      1.303     3.28     6.053712     20.32992     77.14355         9     1.027     0.672  14.39  16
         4    188.9383      4.0650 300.2354542 +22.4424150     3729.535     68.84853      1.563     3.11     5.984426     20.32992     358.2716        34     1.300     1.236  89.31  24
         5    514.9553      1.7436 300.3376744 +22.5393454     319.4738     58.39183      1.209     3.40      5.77108     20.32992     44.37534         7     0.753     0.657 -22.22  24
         6    611.0839      1.6075 300.3676645 +22.5680716      183.746     57.61658      1.213     3.86        6.204     20.32992     33.34434         5     0.884     0.483  -5.46  24
         7    193.3135    985.9067 299.9180809 +22.7256360     960.7877     72.24191      4.031     9.62     69.28119     20.32992     47.46719        14     2.112     1.222 -47.15   3
         8    266.0580   1015.8104 299.9309769 +22.7560409     2747.687     72.02188      6.600    33.67     37.86552     20.32992     60.35355       212     7.052     4.461  77.03  19
         9    217.7543    986.8453 299.9253761 +22.7332392     4245.151      72.0953      8.806    39.22     65.87802     20.32992     91.37348       424     9.094     4.693  89.79  19
        10    255.6859    974.7004 299.9411241 +22.7411370     9281.231     72.22359     13.195    40.23     30.99704     20.32992     181.4817      1115    13.589     5.849  68.80  19
        11    184.7063    977.3312 299.9181940 +22.7205937     1768.267     72.18696      5.040    15.24       62.834     20.32992      54.9874        54     3.604     1.791  70.72   3
        12    193.6519   1000.9825 299.9132820 +22.7300613     1798.907     72.04024      4.532    10.47     82.32981     20.32992     60.39523        30     2.563     1.192   1.06   3
        13    237.5232    984.9973 299.9321255 +22.7386409     5933.507     71.96677     10.822    44.74     51.52212     20.32992      117.873       608     9.477     6.552 -85.97  19
        14    650.8085    987.4913 300.0599712 +22.8633123      8684.37     71.96677      2.019     5.06     4.260515     20.32992     532.9429        43     1.563     1.426  30.80   3
        15    190.4876    992.1790 299.9151618 +22.7265869     1580.506     71.98515      5.970    12.11     75.05657     20.32992     59.60477        33     2.595     1.574  -7.61   3
        16    944.0303    971.4232 300.1566215 +22.9465787     709.6972     72.05859      2.023     5.30     4.161034     20.32992     53.57771        16     1.436     1.115 -44.14   0
        17    656.4099    984.9701 300.0625367 +22.8642678     9561.344     72.05859      2.034     5.21      4.25756     20.32992     500.2807        58     1.685     1.516  11.52   3
        18    161.8423    956.5809 299.9178342 +22.7077815     1599.247     72.07695      5.230    12.98     50.26956     20.32992     45.45524        42     2.771     1.693  12.81   2
        19    669.2974    954.3976 300.0764979 +22.8593537     6944.351     71.96677      1.955     4.61     4.212968     20.32992     410.8616        46     1.533     1.435  28.83   0
        20    549.3237    948.1721 300.0411472 +22.8215976     337.6017     72.04024      1.422     5.47     4.152694     20.32992     38.42923         9     1.411     0.598  80.30   0
        21    260.3896    948.6616 299.9510567 +22.7350787     657.0036     72.00351      2.173     6.64     16.90275     20.32992     51.04959        10     1.581     0.782   2.74   0
        22    577.7781    945.0557 300.0510235 +22.8292345     1382.199      72.0953      1.790     3.96     4.133356     20.32992     103.3126        24     1.303     1.158   9.23   0
        23    105.2682   1012.2148 299.8821497 +22.7067568     4223.753     72.07695     14.947    97.08     88.82715     20.32992     143.9422      1871    18.569    14.083  56.79  27
        24    471.4055    941.5112 300.0190503 +22.7963210     1023.441     71.96677      1.719     4.55     4.119549     20.32992     77.44292        21     1.312     1.097  11.63   0
        25    402.0971    939.5005 299.9981288 +22.7749581     6647.618     72.26021      1.905     4.02     4.293091     20.32992     530.5215        47     1.495     1.433 -59.26   0
        26    187.2762    996.6946 299.9126943 +22.7269183      2605.53     72.20528      4.670    16.89     79.91309     20.32992     68.10238        67     3.839     2.066   2.79   3
        27    435.5226    926.2188 300.0128529 +22.7811712     557.6054     72.05859      1.901     7.60     4.230428     20.32992     45.81181        11     1.717     0.941  65.15   2
        28     19.7242    988.9440 299.8631346 +22.6744077     758.8344     72.07695      5.375     4.93    -5.397949     20.32992     33.59011         5     1.472     0.467  66.34   1
        29     94.1159    952.1473 299.8982220 +22.6861856     5567.355      72.0953     22.883    95.05     31.22185     20.32992     1271.407      3119    19.191    13.062 -19.49  19
        30    948.5327    918.2788 300.1753134 +22.9326593     2047.628     72.16864      2.040     5.69     4.208659     20.32992     96.78726        34     1.554     1.423  77.18   0
        31    750.9076    988.1291 300.0909601 +22.8935024     685.7045     72.18696      2.042     7.93      4.20015     20.32992     47.37261        17     1.396     1.261  31.64   0
        32      8.2603   1004.4935 299.8545145 +22.6754241     2743.463     72.15031     14.991    51.71    -21.97513     20.32992     68.98014       738    14.190     5.229  84.12  24
        33    233.6879    909.6473 299.9554398 +22.7158758     772.4258     72.04024      3.903     4.15     9.089541     20.32992     34.07639         5     1.273     0.385  53.12   0
        34     92.6785    918.5795 299.9086920 +22.6761279     4739.697     72.05859     19.290    60.46     10.25909     20.32992     89.98864      1229    14.347     7.070 -30.81   3
        35    772.1396    901.3111 300.1258187 +22.8749331     1114.274     72.13197      1.908     5.52     4.276681     20.32992     75.20294        24     1.403     1.300 -87.44   0
        36    550.0772    901.8806 300.0564375 +22.8085349     362.4738     72.16864      1.834     5.02     4.196743     20.32992     31.48354         6     1.506     0.473  43.10   0
        37    736.6187    906.7423 300.1129793 +22.8658478     655.0128     72.02188      1.869     6.62     4.180098     20.32992     48.50746        16     1.352     1.061  66.60   0
        38    794.3448    895.1747 300.1347373 +22.8798247      11313.9     72.07695      1.850     4.25     4.371086     20.32992     721.2171        50     1.480     1.407  16.57   0
        39    839.8065    895.7693 300.1487198 +22.8936178     469.2573     72.05859      1.724     5.47     4.309355     20.32992     38.04799        10     1.278     0.701  -2.57   0
        40    216.4259    894.6528 299.9549470 +22.7063955     735.9658     72.07695      5.178     5.18     9.589414     20.32992     30.11079         5     1.036     0.731 -66.09   0
        41    224.7574    892.2991 299.9583036 +22.7082198     876.8997     72.04024      3.794     3.89     8.139235     20.32992     30.63298         5     0.927     0.467 -46.16   1
        42    105.9357    886.4858 299.9232488 +22.6709018     1128.416     72.15031      7.197     6.33     9.016198     20.32992     59.45844        23     1.530     1.437  52.25   0
        43    499.9728    883.4508 300.0468272 +22.7882219     538.3856     72.07695      1.929     3.33     4.118868     20.32992     47.10956         8     0.867     0.673  50.65   0
        44    373.5809    998.7635 299.9699765 +22.7834093     557.4505     72.07695      1.936     3.00     4.308323     20.32992     37.91364         5     0.728     0.447  68.76   0
        45    802.8797    877.2037 300.1432426 +22.8772200     1426.327     71.96677      1.764     4.17     4.501928     20.32992     102.7286        23     1.268     1.162  34.28   0
        46    654.3030    874.5773 300.0977853 +22.8319394     445.5258     71.98515      3.112     6.06     4.166578     20.32992     35.14536         8     1.416     0.728 -20.37   0
        47    840.7696    870.2189 300.1573290 +22.8865664     962.1858     72.05859      2.187     5.84     4.435034     20.32992     56.70712        14     1.452     0.802  74.71   0
        48    196.2222   1005.7128 299.9125424 +22.7321892     818.8879     71.98515      3.295    10.37     86.44329     20.32992     38.45772        15     2.121     1.413   1.73   3
        49    949.8168    868.0372 300.1920534 +22.9186077     425.9071     72.05859      1.904     5.21     4.383582     20.32992     32.00815         8     1.098     0.698  55.04   0
        50    889.2068    861.7526 300.1751890 +22.8986456     509.0419     72.07695      1.941     7.04     4.401493     20.32992     41.33062        13     1.285     1.082 -22.71   0
        51    740.4882    861.0541 300.1290429 +22.8538853     750.6432      72.0953      1.753     4.80     4.219898     20.32992     59.26783        15     1.228     0.964   4.04   0
        52      1.5940    859.7974 299.8994992 +22.6319360     270.8929     57.31739      1.221     3.52     3.764117     20.32992     35.19542         5     0.768     0.466  75.42  24
        53    752.2203    858.2992 300.1335959 +22.8566096     663.1572     71.98515      1.697     5.48     4.307547     20.32992     54.83606        16     1.169     1.110  37.99   0
        54    453.4065    857.1817 300.0408700 +22.7667189     4289.972     72.02188      1.736     3.57     4.319008     20.32992     362.8469        33     1.338     1.234  31.19   0
        55    231.7666    846.2339 299.9754610 +22.6971062      368.448     72.13197      1.693     5.07     5.415762     20.32992     37.17627         5     0.998     0.727  -1.30   0
        56    496.2137    845.2314 300.0580836 +22.7761230     338.4066     72.05859      1.455     2.80     4.199564     20.32992     40.71437         5     0.820     0.628  61.16   0
        57    178.9140    842.6665 299.9601844 +22.6802279     839.3624     72.16864      2.279     5.03     6.426233     20.32992     58.54664        19     1.308     1.156 -10.80   0
        58    155.6540    839.7609 299.9538967 +22.6724163     1720.547     72.05859      1.946     4.42     6.599547     20.32992     143.0841        29     1.468     1.284  46.65   0
        59     88.3772    841.1464 299.9325318 +22.6526288     332.7871     72.07695      1.362     4.52     5.674201     20.32992     40.24967         7     0.843     0.689  20.86   0
        60    981.7614    827.6284 300.2151601 +22.9165633     2244.343      72.0953      1.887     4.40     4.480206     20.32992      127.328        30     1.382     1.274  53.04   0
        61     31.3627    828.7769 299.9188336 +22.6319732      466.385     72.07695      2.156     5.63     4.546521     20.32992     37.44739         6     1.336     0.669   2.63   0
        62    687.6324    827.8185 300.1233748 +22.8284997     415.9865     72.04024      1.706     5.15     4.283424     20.32992     44.34998         8     1.256     0.596  -9.55   0
        63    188.3454    822.0236 299.9698278 +22.6771348     499.1053     72.07695      1.516     3.87     5.368481     20.32992     47.50223         6     0.964     0.453 -80.17   0
        64    765.6710    821.7562 300.1496704 +22.8501430     348.2402     72.02188      1.464     5.16     4.532868     20.32992     51.22104         8     0.988     0.762  -6.16   0
        65    633.4539    815.3934 300.1105316 +22.8086942     4867.281     72.05859      1.713     3.44     4.197763     20.32992     438.9144        35     1.323     1.250  -9.97   0
        66    564.3361    992.0637 300.0315452 +22.8386977     2393.986      72.0953      2.046     4.66      4.21273     20.32992        145.9        32     1.549     1.310 -61.84   0
        67    435.5077    812.6196 300.0497853 +22.7485603     599.2073     71.98515      1.602     4.01     4.395423     20.32992     60.59643        13     1.042     0.856 -29.36   0
        68    183.5312    809.1199 299.9725253 +22.6719885     1450.694     72.16864      1.871     4.23     4.859075     20.32992     116.9428        25     1.382     1.221  48.94   0
        69    654.2239    807.8868 300.1194436 +22.8127630     777.8441     72.02188      1.667     3.89     4.243762     20.32992      67.0628        15     1.119     0.966  13.89   0
        70    203.3649    806.2811 299.9796158 +22.6771234     475.1959     72.00351      2.017     4.57     4.661695     20.32992     53.95755         8     1.203     0.647  88.13   0
        71    570.1672    798.5746 300.0962833 +22.7848959     334.1489     72.05859      1.295     4.14     4.303344     20.32992     42.52987         6     0.994     0.492  -2.99   0
        72    809.4515    795.1497 300.1719700 +22.8556162     4063.513      72.0953      1.708     3.71     4.659081     20.32992     331.8444        34     1.304     1.261  61.93   0
        73    218.0143    789.3236 299.9896835 +22.6766517     411.6061     72.07695      1.473     4.90     4.491164     20.32992     37.42172         8     1.055     0.645 -33.76   0
        74    526.5330    787.7145 300.0862232 +22.7686983      640.343     72.15031      1.684     3.74     4.454646     20.32992     64.80133        11     0.990     0.918 -58.62   0
        75    172.6850    785.2729 299.9769038 +22.6618929     1172.451     72.16864      1.978     4.72     4.532005     20.32992      84.5238        22     1.361     1.144  20.22   0
        76    322.4515    777.5497 300.0259986 +22.7045940     53775.18      72.0953      1.743     3.59     4.583126     20.32992     5137.026        99     1.513     1.456  41.16   0
        77    588.2991    781.3868 300.1075183 +22.7853946      445.152     71.96677      1.509     3.90     4.331903     20.32992     60.48761         8     1.058     0.614  -9.14   0
        78    580.4442    776.7137 300.1065904 +22.7816983     1705.441     72.04024      1.594     3.17     4.383112     20.32992     182.7501        23     1.230     1.075  45.82   0
        79    993.3467    775.8274 300.2356155 +22.9051442     965.4589     72.07695      2.077     6.89     4.520595     20.32992     59.16756        20     1.654     1.112  46.31   0
        80    251.5609    775.5386 300.0045980 +22.6827574      517.962     72.05859      1.785     2.75      4.57557     20.32992     61.26539         7     0.814     0.673 -75.84   0
        81    609.3231    772.6616 300.1169039 +22.7891897     957.3363     72.11364      1.690     4.09     4.291236     20.32992     74.03531        17     1.126     0.996 -22.16   0
        82      8.9936    772.3354 299.9302279 +22.6090727      831.007     72.02188      1.768     4.40     4.501832     20.32992     87.26152        13     1.349     0.820 -27.67  16
        83    619.9154    770.9262 300.1207680 +22.7918657     692.8214     72.16864      1.617     4.84     4.323061     20.32992     64.51797        13     1.167     1.059  36.11   0
        84    939.7864    768.3670 300.2213280 +22.8869599     349.0328     72.05859      1.683     6.17     4.670752     20.32992     34.17631         9     1.123     1.068 -63.19   0
        85    725.6268    767.3416 300.1548760 +22.8225128     367.0829     72.05859      1.157     3.42     4.559777     20.32992      46.5409         8     0.940     0.600  13.76   0
        86    763.2194    757.8499 300.1696797 +22.8310489     612.3422     72.04024      1.427     3.28     4.610466     20.32992     70.45418        15     1.076     0.926   7.38   0
        87    386.5259    755.3102 300.0531662 +22.7174225     2086.507     72.22359      1.679     3.19     4.680565     20.32992     198.4505        24     1.232     1.095  40.49   0
        88    372.1882    754.7964 300.0488709 +22.7129763     31592.77     71.91161      1.634     3.30     4.699397     20.32992     3423.134        66     1.371     1.359  65.87   0
        89    895.3458    750.9644 300.2131206 +22.8686485     2796.342     72.07695      1.717     3.69     4.728598     20.32992     210.8675        31     1.331     1.245 -51.14   0
        90    382.8882    749.1351 300.0540409 +22.7145591     663.5142     72.16864      1.744     4.37     4.732256     20.32992     59.46674        14     1.298     1.021  66.16   0
        91    925.2153    749.7147 300.2228446 +22.8772351     247.5972     72.02188      1.360     3.94     4.729359     20.32992     30.26517         6     1.103     0.402  11.50   0
        92    653.3276    746.9494 300.1389715 +22.7949915     956.7684     72.05859      1.527     3.25     4.500516     20.32992     107.1356        15     1.094     0.903  -6.88   0
        93    489.6467    746.9021 300.0880014 +22.7459225     469.3868      72.0953      1.651     4.98     4.688538     20.32992     47.30925         9     0.913     0.770  38.48   0
        94    254.6095    746.5161 300.0149784 +22.6753426     891.3767     72.00351      1.800     4.06     4.676184     20.32992     82.53394        17     1.145     1.037  46.95   0
        95    500.5013    741.6982 300.0930726 +22.7476818     790.3093     72.27851      1.452     3.29     4.717062     20.32992     99.23035        15     1.096     0.953  82.63   0
        96     59.9964    742.6277 299.9557316 +22.6158532     589.7247     72.02188      2.460     4.52     4.501832     20.32992     53.32037         7     1.006     0.576 -19.45   0
        97    901.6480    738.8066 300.2190379 +22.8670418     441.2162     72.05859      1.528     5.87     4.746077     20.32992      42.2355        11     1.359     0.732  38.52   0
        98    402.9020    737.9765 300.0638965 +22.7173559     336.4362     71.98515      1.377     3.77     4.771972     20.32992     48.71846         5     0.783     0.522 -68.22   0
        99    358.4939    737.6737 300.0501736 +22.7039550     197.9552     72.20528      1.178     3.37     4.875123     20.32992     42.38904         5     0.774     0.702  49.26   0
       100     88.3856    735.7072 299.9668041 +22.6223843     522.7324     71.98515      1.825     5.02     4.510641     20.32992      48.2516         9     1.285     0.554  69.02   0
       101    654.4908    735.9340 300.1429139 +22.7921758     283.8133     72.18696      1.621     5.68     4.551346     20.32992     31.54701         8     1.061     0.858 -76.77   0
       102    446.5455    736.6492 300.0779137 +22.7300585     325.6314      72.0953      1.431     3.25     4.745585     20.32992     58.49957         5     0.943     0.476   2.57   0
       103    878.7764    733.5701 300.2136054 +22.8586868     355.9404     72.05859      1.651     5.81     4.757189     20.32992     32.34945         8     1.104     0.861  39.85   0
       104    252.6272    731.0662 300.0193824 +22.6703139     545.1583     72.04024      1.705     3.78     4.713989     20.32992     56.26349        11     0.957     0.866 -37.29   0
       105    575.8996    721.5239 300.1231114 +22.7644857      443.856     72.18696      1.393     2.88     4.693019     20.32992     61.24217        10     0.951     0.728  68.95   0
       106    545.0817    719.8460 300.1140574 +22.7547680     508.0501     72.04024      1.365     2.87     4.851508     20.32992     63.32982         8     0.811     0.662 -35.98   0
       107    567.2647    717.2192 300.1218204 +22.7606617     1325.249     72.02188      1.538     3.22      4.76409     20.32992      131.147        22     1.190     1.137   6.93   0
       108    454.4265    718.8820 300.0861409 +22.7273193     185.0118     72.04024      1.334     2.57     4.814899     20.32992     39.70389         5     0.716     0.455 -69.44   0
       109    961.7458    716.2903 300.2451050 +22.8785672     4467.031     72.11364      1.756     3.87     4.671988     20.32992     355.4839        34     1.331     1.277  40.59   0
       110    487.3524    716.7757 300.0970771 +22.7365838     360.2636     72.07695      1.584     3.77     4.845994     20.32992     45.82187         5     0.868     0.470 -42.08   0
       111    648.8860    711.8047 300.1490086 +22.7835649      386.876     71.98515      1.380     3.51     4.612997     20.32992      37.8124         5     0.780     0.516 -55.55   0
       112    950.1850    707.4859 300.2443590 +22.8725745     1714.325     72.00351      1.735     4.34     4.734129     20.32992     127.7664        26     1.347     1.180  65.21   0
       113    313.3705    701.3246 300.0479438 +22.6799912     821.6889     72.07695      1.521     2.99     4.874589     20.32992     86.06026        15     1.045     0.902 -54.44   0
       114    981.2552    697.8829 300.2571745 +22.8791173     1683.614     72.11364      1.731     4.37     4.635301     20.32992     138.2559        26     1.543     1.079  49.81   0
       115    776.7076    698.9443 300.1930281 +22.8181639     2620.316     72.11364      1.679     3.96     4.669224     20.32992     214.4119        30     1.535     1.086   2.56   0
       116    859.2857    684.8347 300.2233633 +22.8388424     619.4901     72.02188      1.703     5.10         4.88     20.32992     47.39974        13     1.183     0.900   1.04   0
       117    161.9265    685.1735 300.0060861 +22.6299423     625.3157     72.05859      1.631     5.29     4.863516     20.32992     60.09115        10     1.084     0.767 -15.88   0
       118    895.0351    675.8472 300.2374343 +22.8469651     147440.1     72.07695      1.625     3.40     4.903173     20.32992     11869.46       157     1.506     1.481 -52.51   0
       119    657.1957    679.9029 300.1619638 +22.7768898     332.1658     71.96677      1.208     3.25     4.700866     20.32992     49.00851         8     0.844     0.652  40.27   0
       120    747.5897    676.1755 300.1913485 +22.8028989     678.8588     72.05859      1.434     3.09     4.696102     20.32992     78.53422        14     0.962     0.928 -34.98   0
       121    928.2657    668.8856 300.2500628 +22.8549147      435.594     72.15031      1.627     3.55     4.922567     20.32992       41.927         6     0.758     0.623  18.26   0
       122    581.1596    664.6043 300.1432443 +22.7497125     1694.006     72.07695      1.536     3.04     4.985435     20.32992     175.5425        23     1.187     1.080 -49.81   0
       123    762.4954    661.9255 300.2006251 +22.8032688     9443.947     72.20528      1.526     3.20     4.700144     20.32992     939.4094        44     1.284     1.225  14.81   0
       124    264.0084    656.8292 300.0470426 +22.6524179     4869.306     72.05859      1.569     3.28     4.884892     20.32992     529.4243        33     1.267     1.188  35.64   0
       125    346.1266    654.9783 300.0731937 +22.6765059     1184.373     72.05859      1.427     2.93      4.87008     20.32992      143.345        18     1.108     0.920  53.72   0
       126    221.8759    652.4886 300.0353473 +22.6385389     559.2388     72.18696      1.619     3.97     4.913006     20.32992     56.63966        12     1.102     0.831  44.72   0
       127    554.2865    650.3801 300.1394945 +22.7375741     929.8578     71.98515      1.701     3.08     5.180529     20.32992     106.4989        17     1.067     0.992  45.92   0
       128    680.0044    645.5734 300.1802249 +22.7738597     403.9478     72.02188      2.414     4.56     4.715597     20.32992     25.82851         5     1.033     0.572  74.11   0
       129    545.9639    642.6213 300.1394228 +22.7328515     3321.398     72.07695      1.476     3.00     5.232178     20.32992     357.8273        28     1.176     1.117  55.54   0
       130    536.2385    636.4120 300.1384108 +22.7281536     1551.633     72.05859      1.595     3.29     5.236332     20.32992     162.8457        20     1.184     1.047  70.12   0
       131    929.9068    634.6287 300.2617044 +22.8455577     392.7805     71.98515      1.383     4.45     5.240881     20.32992     48.64075         7     1.058     0.533  41.16   0
       132    199.7549    632.5148 300.0349556 +22.6261726     577.3453     72.04024      1.486     3.04     4.954696     20.32992     84.41511        13     1.080     0.769  44.17   0
       133    213.4173    630.9901 300.0396999 +22.6298316     691.8154     72.00351      1.682     5.71     4.939687     20.32992     72.50012        15     1.300     0.989  64.68   0
       134     99.7927    630.9741 300.0043754 +22.5957537     332.6025     72.05859      1.701     3.90     5.151933     20.32992     25.91926         5     1.297     0.336  25.16   0
       135    982.9337    627.8235 300.2804607 +22.8594770     421.7409     72.04024      1.552     3.90      4.99037     20.32992     43.36134         6     0.759     0.573  41.51   0
       136    239.5476    628.0674 300.0487765 +22.6368273     587.4918     72.07695      1.686     4.10     4.918549     20.32992     62.94464        11     1.046     0.809  24.26   0
       137    559.9836    626.7247 300.1489534 +22.7324859     510.4945     72.05859      1.531     3.74     5.259223     20.32992     59.62358        12     0.962     0.939 -58.92   0
       138    460.8731    626.2440 300.1182449 +22.7026481     1736.476     72.04024      1.406     3.01     5.093175     20.32992     188.3467        20     1.125     0.933  24.88   0
       139    114.9334    620.9325 300.0123436 +22.5974126      20054.4     72.11364      1.713     3.50      5.14081     20.32992     2039.971        62     1.463     1.394  41.03   0
       140    545.9167    621.3561 300.1463158 +22.7267287     1040.515     72.02188      1.471     2.92     5.300845     20.32992     121.5802        18     1.163     0.960  71.14   0
       141     36.0621    622.3474 299.9873690 +22.5741637      589.923     72.11364      1.788     4.59     5.192905     20.32992     59.18823        12     1.179     0.809  78.45   0
       142    581.0597    620.4718 300.1575497 +22.7370045     307.4132      72.0953      1.251     3.93     5.268988     20.32992     49.40387         5     0.919     0.482   9.52   0
       143    495.1714    625.2062 300.1292615 +22.7126286     300.6089     72.05859      1.293     3.90     5.164462     20.32992     26.12913         5     0.987     0.443  45.80   0
       144    964.1437    607.7048 300.2811327 +22.8480669     1135.292     72.11364      1.689     3.99     5.256362     20.32992     103.7748        20     1.270     1.077  11.84   0
       145    628.9832    609.1237 300.1761662 +22.7481019      240.168     72.05859      1.095     2.85     5.150502     20.32992     49.59481         6     0.894     0.445  36.91   0
       146     61.1102    605.1204 300.0007487 +22.5767329     1561.865     72.18696      2.046     4.58     5.212494     20.32992     113.9178        28     1.594     1.180  85.07   0
       147    830.5206    605.8413 300.2400550 +22.8075225     312.8464     72.04024      1.377     5.08       4.8712     20.32992     53.08185        10     1.195     0.632  42.46   0
       148    126.7569    606.2731 300.0207806 +22.5967510     551.4111     72.04024      1.616     4.64     5.138965     20.32992     66.91543         9     1.202     0.508 -10.24   2
       149    903.7750    600.5073 300.2646359 +22.8279238     874.1407     72.00351      1.847     5.69     5.338111     20.32992     70.78155        18     1.428     1.116  17.51   2
       150    900.3380    599.6887 300.2638296 +22.8266593     458.6582     72.13197      1.673     4.62      5.31404     20.32992     38.53598         5     0.869     0.697 -66.14   3
       151    509.5100    602.1292 300.1412223 +22.7102966     420.7851     72.22359      1.355     3.23     5.251499     20.32992     66.60873        11     1.059     0.739  -9.85   0
       152    302.2157    601.1523 300.0770139 +22.6478879     175.2928      72.0953      1.333     4.47     4.893776     20.32992     41.83183         6     1.039     0.692 -11.18   0
       153    465.9232    594.2365 300.1302134 +22.6949683     857.7126     72.02188      1.500     3.34     5.162006     20.32992      83.9913        16     1.148     0.899  11.15   0
       154    613.8482    592.9583 300.1767011 +22.7389230     640.7682      72.0953      1.614     3.79     5.319436     20.32992     65.15443        11     0.988     0.806  25.70   0
       155    661.6992    591.4904 300.1920879 +22.7528357     471.2042     72.22359      1.403     3.18     4.947758     20.32992     52.94513         8     0.849     0.766  -6.65   0
       156    631.8854    591.0252 300.1829488 +22.7437710     506.2729     72.02188      1.348     4.29      5.18225     20.32992     53.52237        11     1.050     0.753 -14.62   0
       157    510.2523    590.1939 300.1453299 +22.7070905      1068.36     72.04024      1.628     3.44     5.276548     20.32992     91.61555        21     1.205     1.059  70.66   0
       158    944.0976    585.8647 300.2819718 +22.8357858     3376.135     72.16864      1.620     3.37     5.393179     20.32992     273.6678        31     1.275     1.211 -72.38   0
       159    475.8550    585.7330 300.1360675 +22.6955020     1782.153     72.11364      1.441     2.78      5.20323     20.32992     198.7852        21     1.100     0.977  11.77   0
       160    841.5048    583.0175 300.2508938 +22.8042507     399.5422     71.98515      1.938     4.13     4.956704     20.32992     32.49115         6     0.954     0.511 -13.64   0
       161    826.1691    581.9828 300.2464472 +22.7993611     320.2867     72.04024      1.213     2.63     4.850389     20.32992     42.72634         5     0.783     0.474 -27.65   0
       162     37.7877    579.0518 300.0019661 +22.5622572     5031.025      72.0953      1.789     3.57      5.25931     20.32992     460.5034        40     1.434     1.357 -68.50   0
       163    983.2191    576.3604 300.2972660 +22.8447641     319.8105     72.07695      1.425     3.55     5.244279     20.32992      45.3489         6     1.007     0.673  45.70   0
       164    505.2278    576.2291 300.1483005 +22.7015734     296.8427     72.04024      1.235     3.38     5.294911     20.32992     37.78247         5     0.937     0.352 -44.58   0
       165    339.2140    572.3212 300.0978895 +22.6506994     9031.194     72.07695      1.480     2.80     4.866369     20.32992     1039.278        43     1.273     1.178  51.24   0
       166    461.6423    569.4082 300.1369438 +22.6865538     9147.879     72.07695      1.430     2.66     5.201194     20.32992     1132.784        37     1.155     1.134 -85.53   0
       167    708.1024    566.2863 300.2147353 +22.7594916     318.9416     72.22359      1.288     4.24     4.868938     20.32992      45.3872         7     0.795     0.646  -8.50   0
       168    873.4843    563.5745 300.2671825 +22.8082362     1786.479     72.04024      1.543     2.99      5.15105     20.32992     202.5013        23     1.197     1.074 -58.78   0
       169    958.0571    560.9751 300.2944111 +22.8328077     12754.63     72.05859      1.562     3.15     5.360393     20.32992     1069.549        48     1.335     1.270 -78.66   0
       170    522.2747    559.0217 300.1591974 +22.7017377      11641.9     72.05859      1.418     2.89     5.362843     20.32992     1292.485        40     1.189     1.138  81.27   0
       171    691.8932    555.0319 300.2133382 +22.7514022     440.8833     71.98515      1.274     3.17     4.999018     20.32992     60.16611        11     0.976     0.761  76.42   0
       172    249.6581    554.4181 300.0758400 +22.6187141     1310.181     72.02188      1.476     3.02     4.882432     20.32992     158.3123        19     1.139     0.992 -43.77   0
       173    407.8412    553.9868 300.1252024 +22.6660018     378.7498     72.07695      1.476     2.75     5.029853     20.32992     47.95562         5     0.790     0.482 -40.21   0
       174    496.7001    551.8455 300.1535633 +22.6920134     426.9815     72.07695      1.483     5.03     5.334489     20.32992     46.40168         9     0.969     0.739  83.88   0
       175    796.5760    547.6069 300.2483831 +22.7806178     847.7108     72.04024      1.465     3.35     4.718331     20.32992     89.93741        14     0.995     0.919  -6.39   0
       176    453.9240    547.1411 300.1417715 +22.6778447      4545.45     72.11364      1.429     2.87     5.209998     20.32992     464.8005        29     1.183     1.093  61.49   0
       177    432.1739    545.6111 300.1354969 +22.6708878     1330.754     72.05859      1.443     2.83     5.119515     20.32992      156.455        19     1.111     0.929  16.50   0
       178    186.4572    544.8394 300.0592933 +22.5970170     801.4723     72.05859      1.625     3.21       4.9735     20.32992     98.81073        13     1.024     0.897  21.96   0
       179    873.9023    542.8961 300.2740281 +22.8024160     1680.787     72.24191      1.598     3.10     5.147089     20.32992     177.6752        24     1.287     1.080 -47.77   0
       180    120.1428    542.8236 300.0393284 +22.5765558      197.929     72.05859      1.228     4.05     5.217933     20.32992      43.8732         6     0.946     0.494 -32.76   0
       181    754.2374    539.8029 300.2377169 +22.7656962     884.1912      72.0953      1.441     3.23     4.758138     20.32992     102.2129        15     1.042     0.963  66.41   0
       182    570.5647    534.7769 300.1821111 +22.7092390     206987.6     72.07695      1.440     2.59     5.449646     20.32992     27874.42       199     1.468     1.396 -11.52   0
       183    394.5960    541.0309 300.1252865 +22.6583113     378.6311     72.02188      1.421     4.27     5.005248     20.32992     40.93081         8     0.922     0.807 -52.03   0
       184    256.6021    534.6099 300.0844318 +22.6151081     3602.335     71.87482      1.532     2.87     4.877556     20.32992     438.4225        29     1.214     1.127  48.28   0
       185    339.3222    534.5198 300.1101980 +22.6398761     236.1438     72.16864      1.128     3.38     4.883484     20.32992     37.71319         5     0.728     0.476 -15.98   0
       186    822.5596    531.1558 300.2618277 +22.7836685     599.1041     72.13197      1.504     2.87     4.839492     20.32992     73.16471         9     0.854     0.818 -34.66   0
       187    841.1921    529.2651 300.2682523 +22.7887036     213.6883     72.04024      1.439     4.30     4.933375     20.32992     28.82811         5     0.841     0.627  43.14   0
       188    602.2119    521.6985 300.1962165 +22.7149610     233.2449     71.94839      1.425     3.69     5.491054     20.32992     37.21569         6     0.873     0.678 -73.15   0
       189    461.1853    519.5212 300.1530005 +22.6720862      372.814     72.07695      1.252     3.22     5.331414     20.32992     51.05498         5     0.751     0.471 -16.54   2
       190    461.0629    514.9543 300.1544451 +22.6707376     2614.024      72.0953      1.438     2.91     5.349156     20.32992     318.7511        26     1.200     1.028  77.38   2
       191    305.4662    517.4070 300.1052193 +22.6248144     348.1989     72.05859      1.387     5.09     4.876667     20.32992     53.38529         9     1.187     0.673  68.76   0
       192    910.9893    514.7621 300.2947327 +22.8054289     174.4645     72.05859      1.231     3.85     5.279028     20.32992     29.64132         5     0.833     0.511  57.21   0
       193    565.7119    510.1687 300.1885895 +22.7007143     216.5218     72.02188      1.161     2.61      5.51554     20.32992     35.51759         5     0.813     0.636 -46.22   0
       194    778.5066    504.0898 300.2568793 +22.7626970     445.5005     72.22359      1.305     2.80     4.823433     20.32992     58.25685         8     0.807     0.657 -12.40   0
       195    858.1461    501.3753 300.2825956 +22.7857604      1820.74     72.07695      1.504     2.68     4.947613     20.32992     219.7773        23     1.155     1.085  85.48   0
       196    729.3572    498.9930 300.2432115 +22.7465147     2628.787     72.07695      1.423     2.65     5.080878     20.32992     318.5161        26     1.145     1.042  55.33   0
       197     88.6412    499.2929 300.0436681 +22.5546148     258.0043     72.07695      1.406     4.43     5.445455     20.32992     36.55849         6     1.068     0.523 -33.27   0
       198    973.6487    496.5454 300.3201978 +22.8189454      494.337      72.0953      1.517     2.91     5.351936     20.32992     61.83601         7     0.875     0.635  49.20   3
       199    972.4322    492.2567 300.3212106 +22.8173478     783.2455     72.07695      1.713     4.03     5.350803     20.32992      81.4046        15     1.184     1.055 -85.75   2
       200    938.9362    496.4159 300.3094085 +22.8085184     187.0002     72.04024      1.250     4.33     5.359789     20.32992     35.74698         7     0.874     0.620 -77.18   0
       201    633.9453    495.8487 300.2144965 +22.7170371     479.1088      72.0953      1.492     2.82     5.451663     20.32992     50.84671         8     0.805     0.653 -23.86   0
       202    516.5097    494.7747 300.1782625 +22.6815517      749.625     72.00351      1.413     2.55     5.525034     20.32992     110.6641        13     0.944     0.831 -60.11   0
       203    986.7327    493.2211 300.3253601 +22.8219052     1338.111     72.04024      1.523     2.93     5.348335     20.32992     140.3719        21     1.187     1.038 -46.02   0
       204    858.4500    491.4981 300.2858973 +22.7830112     2289.753     72.13197      1.683     3.35     4.920321     20.32992        241.8        28     1.521     1.023  80.02   0
       205    611.7844    488.4555 300.2099919 +22.7082749     818.2648     72.04024      1.991     7.25     5.580836     20.32992     74.66679        17     1.859     0.791 -81.33   0
       206    896.6212    486.5962 300.2993952 +22.7930283     4287.707     72.02188      1.469     2.66     5.142917     20.32992     515.2692        31     1.211     1.120  67.48   0
       207    450.0982    488.2890 300.1596883 +22.6597918      403.554     72.22359      1.303     2.92       5.4026     20.32992     48.69189         7     0.757     0.627   1.13   0
       208    537.3060    486.5696 300.1874032 +22.6854239      228.182     71.98515      1.362     3.47     5.560704     20.32992     39.60252         5     0.790     0.440 -20.18   0
       209    557.1207    482.2251 300.1949853 +22.6901110     441.9923     72.04024      1.531     3.76       5.5848     20.32992     42.12107         8     0.826     0.703 -49.35   0
       210    128.6532    476.5099 300.0635026 +22.5600705     1060.849      72.0953      1.657     3.60     5.405388     20.32992     119.1274        20     1.202     1.109 -24.86   0
       211    988.4008    477.0720 300.3311237 +22.8177595     675.8503     71.94839      1.424     3.48     5.341238     20.32992     67.90203        13     1.026     0.836  20.30   0
       212    789.3765    470.4499 300.2711898 +22.7562799     307.5866     72.05859      1.607     3.58     4.845229     20.32992     40.95735         6     0.886     0.709 -11.19   0
       213    121.1288    466.7308 300.0643375 +22.5550071     374.7442     72.11364      1.352     3.44     5.425133     20.32992       45.961         7     0.765     0.642  -7.15   0
       214    984.3954    466.1911 300.3334061 +22.8134310     372.8332     71.91161      1.449     3.36     5.320706     20.32992     38.19751         5     0.733     0.457  72.44   0
       215    728.9569    461.0240 300.2554129 +22.7354797     467.5891     72.11364      1.317     3.67     5.193663     20.32992      58.3377         9     0.881     0.759  62.29   0
       216    617.5350    459.0204 300.2213389 +22.7015374     336.6249     72.04024      1.598     4.63     5.520769     20.32992     36.36263         7     0.986     0.616  29.64   0
       217    670.1417    456.8910 300.2384228 +22.7166798     791.9333     72.13197      1.388     3.67     5.303197     20.32992     95.26562        12     1.010     0.921 -20.73   0
       218    649.3448    455.7204 300.2323219 +22.7101154      204.531      72.0953      1.221     3.45     5.388217     20.32992     36.61583         5     1.134     0.304  36.72   0
       219    984.7485    449.5020 300.3389339 +22.8087360     590.4937     72.13197      1.550     5.06      5.29454     20.32992     56.93148        14     1.202     0.923 -28.79   0
       220    731.0792    448.9592 300.2599908 +22.7326467      866.397     72.04024      1.354     2.96      5.19019     20.32992     129.1508        14     1.068     0.798 -80.55   0
       221    888.0680    445.5659 300.3100467 +22.7786684     922.5018     72.05859      1.443     3.29     4.933015     20.32992     115.0189        15     1.119     0.831  45.24   0
       222    872.4847    442.0566 300.3063249 +22.7729948     800.2256     72.15031      1.835     3.52     4.833588     20.32992     78.88137        11     1.027     0.811   3.53   0
       223    852.5605    442.4186 300.2999929 +22.7671349      330.126     72.07695      1.648     3.51     4.814403     20.32992     38.50216         6     0.907     0.433 -17.23   0
       224    616.6447    439.7538 300.2273153 +22.6957332      3338.24      72.0953      1.422     2.44     5.480697     20.32992     438.5115        26     1.116     1.009  51.28   0
       225    763.0357    439.7833 300.2729316 +22.7395765     266.1111     72.05859      1.399     4.34      5.06564     20.32992     26.31576         5     1.031     0.520 -35.28   0
       226    976.9815    438.6107 300.3400454 +22.8032788     524.6205     72.02188      1.393     3.35     5.252946     20.32992     75.17849         7     0.920     0.613  55.87   0
       227    622.0489    427.6980 300.2329121 +22.6938863     196.1754      72.0953      1.370     3.13     5.438299     20.32992     37.93391         5     0.800     0.480 -57.19   0
       228    456.2557    426.6760 300.1816046 +22.6439342     481.6344      72.0953      1.602     3.70     5.325577     20.32992     66.77562         7     1.027     0.700  57.57   0
       229    900.0216    418.8781 300.3224380 +22.7745706     701.9836     72.05859      1.577     2.86     4.879475     20.32992     81.03697        10     0.855     0.772 -69.29   0
       230    986.4384    417.7264 300.3497752 +22.8001011     1002.557     72.00351      1.411     3.07     5.244458     20.32992     126.0929        16     1.028     0.948  38.82   0
       231    636.4682    415.3592 300.2414096 +22.6946576     305.3864     72.04024      1.120     3.24     5.376984     20.32992     39.34206         5     0.722     0.481  75.77   0
       232    727.2626    413.6149 300.2702729 +22.7213423     999.7729     72.02188      1.468     2.73     5.202307     20.32992     141.3125        16     1.020     0.949  -9.39   0
       233    523.2465    414.2993 300.2064824 +22.6604445      461.482     72.07695      1.430     2.83     5.451891     20.32992     63.20428         8     0.889     0.598  -8.56   0
       234    231.5406    411.9025 300.1164673 +22.5723583      550.634     72.13197      1.495     2.74     5.121144     20.32992     87.72509        13     0.980     0.838  -3.68   0
       235     70.2965    410.3839 300.0668228 +22.5235908     156.9142     71.96677      1.420     4.19     5.483609     20.32992     27.06052         5     1.231     0.406 -13.29   0
       236    293.6140    407.4589 300.1372198 +22.5896838     3778.573     72.04024      1.447     2.74     5.137527     20.32992     467.1567        28     1.122     1.109  10.82   0
       237    240.7769    402.1668 300.1224997 +22.5723302     7714.806     72.05859      1.489     2.95     5.178355     20.32992     824.3804        43     1.323     1.180  52.74   0
       238    381.5476    396.6161 300.1681029 +22.6129160     4983.913     72.05859      1.439     2.48      5.29575     20.32992     633.5086        35     1.243     1.146  68.49   0
       239   1006.8014    397.0678 300.3628351 +22.8002510     1960.191     72.02188      1.604     3.35     5.239678     20.32992     203.9055        26     1.238     1.192 -70.99   0
       240    625.7993    393.2654 300.2452554 +22.6851117     18672.05     72.04024      1.367     2.54     5.345362     20.32992     2448.038        51     1.228     1.141  88.11   0
       241    643.2172    393.4657 300.2506178 +22.6903849     1009.288     72.04024      2.331     6.41     5.325666     20.32992     68.41548        20     1.662     0.859 -31.28   0
       242    483.5286    390.1012 300.2019662 +22.6415938     494.1656     72.20528      2.264     4.96     5.293728     20.32992     48.67826         8     1.384     0.503  -5.36   0
       243    822.9968    384.0503 300.3097164 +22.7414998     -148.223     72.05859     -3.904     3.60     4.903762     20.32992     51.92963         5     0.693     0.537   0.05   0
       244    245.8249    380.7011 300.1310353 +22.5676774     373.7462     71.98515      1.566     3.79     5.294412     20.32992     46.27937         8     0.992     0.562 -18.54   0
       245    959.2930    376.1452 300.3547990 +22.7800161     720.4706     72.11364      1.353     3.24      4.98358     20.32992     82.95403        13     1.121     0.753  77.83   0
       246    669.5703    374.8464 300.2648722 +22.6929228     310.6415     72.07695      1.367     3.06     5.291519     20.32992     40.38108         5     0.728     0.466  72.55   0
       247    496.4139    375.5367 300.2107049 +22.6412676     360.0185     72.02188      1.315     3.10     5.295057     20.32992     44.75648         5     0.729     0.472 -16.82   0
       248    180.4279    373.1984 300.1131295 +22.5459242     2222.465     72.00351      1.608     3.07     5.415598     20.32992     235.3708        26     1.195     1.171 -62.22   0
       249    980.1429    363.2705 300.3654831 +22.7825508     1228.353     72.07695      1.478     3.04     4.999917     20.32992     141.2756        20     1.114     1.067  89.23   0
       250    566.5051    362.6562 300.2367149 +22.6585569      6645.64     72.11364      1.375     2.37     5.273323     20.32992     970.4714        34     1.172     1.071  80.43   0
       251    281.2510    361.9868 300.1481284 +22.5729172      749.863      72.0953      1.470     3.36     5.310702     20.32992     93.77949        10     0.979     0.852 -74.56   0
       252    826.2706    354.9901 300.3201672 +22.7341218      376.153     72.04024      0.999     2.15     4.890759     20.32992     72.14546         6     0.795     0.499   0.40   0
       253    138.7933    354.8095 300.1061493 +22.5281649     538.9165     71.91161      1.564     5.13      5.47854     20.32992     52.46507        11     1.156     0.710  54.85   0
       254    680.1759    352.7527 300.2753464 +22.6897458     595.3901     72.07695      1.606     3.67     5.293052     20.32992     86.21182        14     1.142     0.957  84.62   0
       255    770.6489    351.8480 300.3038426 +22.7165697      1267.38      72.0953      1.379     2.78     5.145766     20.32992     153.0385        16     1.096     0.830 -82.91   0
       256    473.0757    348.8892 300.2120836 +22.6266191     6278.987     72.20528      1.392     2.74     5.274802     20.32992     759.6125        33     1.196     1.084  67.84   0
       257    962.8268    343.9437 300.3663506 +22.7718092     500.9342     72.05859      1.330     2.31     4.914805     20.32992     74.75452        10     0.845     0.705  -4.94   0
       258    865.1320    343.4881 300.3360196 +22.7424441     1485.484     72.20528      1.476     2.65     4.721714     20.32992     201.2126        19     1.202     0.927  65.20   0
       259    457.5602    337.7201 300.2108762 +22.6187621     443.7319     72.02188      1.179     2.72     5.287177     20.32992     62.06081         7     0.881     0.516  27.20   0
       260    540.3059    335.8719 300.2372443 +22.6430122     568.7093     72.16864      1.262     1.99     5.237457     20.32992     67.51924         6     0.709     0.520 -41.00   0
       261    521.1463    333.7135 300.2319771 +22.6366541     126.6078      72.0953      1.204     3.53     5.247724     20.32992     42.08821         6     0.874     0.670 -73.86   0
       262    838.0828    331.2595 300.3315507 +22.7308315     705.6573     72.15031      1.666     2.95     4.866295     20.32992     73.85793        12     0.971     0.810  85.94   0
       263    360.7356    328.0400 300.1838755 +22.5869776     2517.787     72.02188      1.386     2.58     5.303621     20.32992     337.0715        25     1.165     1.030  85.26   0
       264     78.9871    325.4830 300.0970703 +22.5018179     1074.836     72.04024      1.645     3.97     5.541851     20.32992     123.1594        19     1.222     1.136 -29.64   0
       265    708.5602    323.1372 300.2938019 +22.6897275     331.5732     72.05859      1.159     2.56     5.276026     20.32992       43.507         5     0.713     0.464 -70.98   0
       266    329.9852    317.5013 300.1777245 +22.5747376     30333.91     71.96677      1.451     2.75     5.288113     20.32992     3683.198        68     1.359     1.214  68.13   0
       267    864.6313    315.2005 300.3450410 +22.7341572     1454.002     72.02188      1.434     3.02     4.721714     20.32992     163.8354        20     1.156     0.980  73.20   0
       268    820.4492    313.3350 300.3318666 +22.7203984     217.3987     72.07695      1.158     3.87      5.00025     20.32992     36.37548         6     0.916     0.468   4.67   0
       269     26.2644    305.1791 300.0872695 +22.4801846     4978.996     72.04024      1.715     3.24     5.765393     20.32992     556.7194        42     1.426     1.333  55.93   0
       270    779.7477    303.7462 300.3222854 +22.7054589     568.6492      72.0953      1.448     3.99     5.168516     20.32992     70.57346        12     1.226     0.776  70.89   0
       271    203.8962    303.8367 300.1429303 +22.5330344     398.4403     72.05859      1.447     3.93     5.492731     20.32992     59.44396         9     1.015     0.841 -41.48   0
       272    428.6497    302.9372 300.2131590 +22.6001066     426.0602     72.11364      1.291     2.95     5.309087     20.32992      66.1218         8     0.882     0.632  70.32   0
       273    740.4785    297.4015 300.3121005 +22.6918806     1872.955     71.94839      1.297     2.42     5.202446     20.32992     254.0914        19     1.101     0.868  62.78   0
       274    548.7043    291.8490 300.2541414 +22.6328720     277.8283     72.11364      1.186     2.58     5.248334     20.32992     68.25501         8     0.903     0.745 -89.45   0
       275    955.5812    290.1258 300.3815497 +22.7541568     791.5317     72.05859      1.570     3.47     4.896286     20.32992     75.74609        15     1.133     0.890  70.88   0
       276    402.1868    281.7462 300.2117945 +22.5860905     2208.614     72.05859      1.594     3.83     5.315235     20.32992     205.0118        25     1.420     0.963  66.79   0
       277    614.7408    281.1912 300.2781710 +22.6495796     350.5702     72.02188      1.193     3.52     5.241149     20.32992     39.20971         6     0.774     0.537 -41.38   0
       278    841.3462    275.1679 300.3507647 +22.7156730     700.1951     72.07695      1.512     2.36      4.96545     20.32992     82.96559         9     0.785     0.726   4.15   0
       279    834.3865    275.8011 300.3483887 +22.7137725     389.1085     71.89322      1.664     3.61     5.002533     20.32992     43.60675         5     0.997     0.376  -8.32   0
       280    723.8872    272.8192 300.3149022 +22.6798447     451.1422     72.00351      1.263     2.27     5.220031     20.32992     71.99289         6     0.739     0.531  45.86   0
       281    740.3926    272.6202 300.3201121 +22.6847277     271.3315     72.02188      1.311     2.80     5.189748     20.32992      52.2943         5     0.731     0.474 -10.67   0
       282    192.9471    263.0067 300.1527680 +22.5180246      220.029     72.04024      1.336     3.60     5.494934     20.32992     34.49286         5     0.999     0.374  32.59   0
       283    478.0750    261.3287 300.2420439 +22.6029490     1269.201     72.13197      1.488     2.67     5.347573     20.32992      147.339        20     1.114     0.966  28.42   0
       284    284.9275    261.2672 300.1819443 +22.5450817     368.0665      72.0953      1.710     5.08     5.266078     20.32992     34.19159         8     1.118     0.654  59.58   0
       285    989.6617    257.8555 300.4026524 +22.7550662     314.5566     72.13197      1.554     3.48     5.180158     20.32992     42.65922         7     0.874     0.585  12.36   0
       286    723.0242    253.2918 300.3209667 +22.6739701     2297.652     71.98515      1.382     2.81     5.228072     20.32992     311.7715        22     1.130     0.960 -78.30   0
       287    861.2828    254.8257 300.3635809 +22.7157863     315.4282     72.04024      1.194     3.38     4.985552     20.32992     54.63568         5     0.945     0.375   3.77   0
       288    984.2806    247.7364 300.4042551 +22.7505444     3278.468     72.16864      1.558     2.86     5.228073     20.32992      384.206        31     1.263     1.145  76.97   0
       289    916.8302    240.8853 300.3854303 +22.7283948     386.1825     72.05859      2.122     4.99     5.127136     20.32992     27.95092         6     1.269     0.555  53.50   0
       290    431.1230    236.9784 300.2353219 +22.5818894     714.0762     72.05859      1.457     3.09     5.400023     20.32992     89.00402        10     0.898     0.753  46.19   0
       291    106.1720    231.1979 300.1361006 +22.4828861     1406.704     72.00351      1.763     4.17     5.727859     20.32992     107.5021        23     1.276     1.216  89.40   0
       292    136.7264    231.2474 300.1455843 +22.4920558      595.863     72.05859      1.511     3.69     5.608112     20.32992     68.45778        10     0.973     0.789  51.74   0
       293    999.9689    228.2971 300.4154558 +22.7496426      482.386     72.00351      1.315     2.73     5.391222     20.32992     64.80383        10     0.860     0.754 -77.50   0
       294    843.8623    224.7973 300.3678862 +22.7019346     343.7747     72.05859      1.416     4.51     5.207368     20.32992     50.71503         6     1.119     0.516 -70.95   0
       295    190.0480    223.1441 300.1647933 +22.5057040     548.2019      72.0953      1.333     3.71     5.501607     20.32992     63.11906         9     1.053     0.825  20.78   0
       296     45.3798    220.2347 300.1207584 +22.4615197     367.6303     72.07695      1.435     3.31     5.840099     20.32992      37.9366         6     0.740     0.624 -41.16   0
       297    866.2257    216.8770 300.3774299 +22.7063468       365.36     72.07695      1.428     3.59     5.203277     20.32992     53.41737         6     0.968     0.636  82.27   0
       298    794.5485    214.9906 300.3556875 +22.6843575      653.066     72.05859      1.357     2.59     5.239897     20.32992     108.1753        11     0.928     0.760  11.39   0
       299    385.0573    214.1903 300.2283712 +22.5615438     446.9039     72.02188      1.300     2.39      5.36328     20.32992     64.39453         8     0.764     0.719  23.02   0
       300    885.3644    207.8364 300.3863316 +22.7094714     287.5013     72.13197      1.370     4.81     5.238173     20.32992     44.86822         7     1.092     0.699  59.83   0
       301    892.7780    203.8596 300.3899339 +22.7105450     2045.341     72.04024      1.404     2.55     5.254349     20.32992     276.7933        22     1.089     1.040 -15.14   0
       302    311.2768    200.9942 300.2096881 +22.5356542     2249.666     71.96677      1.444     2.61      5.27579     20.32992      280.986        26     1.159     1.120  22.50   0
       303    389.1819    195.9015 300.2355852 +22.5575222     1122.571     71.98515      1.559     3.46     5.366085     20.32992     113.6563        22     1.269     0.998 -78.84   0
       304    791.4395    195.5209 300.3610314 +22.6778259     622.6274     72.04024      1.278     2.72     5.237693     20.32992     103.3989        11     0.963     0.792 -26.81   0
       305    141.5680    196.2171 300.1584481 +22.4834432     564.0388     72.04024      2.260     5.35     5.593753     20.32992      41.1079         9     1.097     0.738 -18.39   0
       306    898.5342    192.4130 300.3954412 +22.7089731     338.5266     72.00351      1.465     3.11     5.285012     20.32992     57.64381         5     0.736     0.451 -68.46   0
       307    323.6290    187.5248 300.2178990 +22.5354827     328.7896     72.07695      1.588     4.65     5.282155     20.32992     32.83776         6     1.031     0.594  58.18   0
       308    206.1642    188.1279 300.1811592 +22.5004714     781.3184     72.04024      1.302     3.00     5.411237     20.32992     103.8544        13     1.079     0.763 -11.87   0
       309    743.9776    185.1943 300.3495817 +22.6606530     1681.502     72.04024      1.331     2.73     5.207845     20.32992     210.7924        19     1.101     0.892 -72.45   0
       310    808.4171    184.9772 300.3697443 +22.6798724     655.6398     72.02188      1.449     3.19     5.245927     20.32992     84.59901         9     0.978     0.657   0.44   0
       311    227.7250    181.1671 300.1901223 +22.5049300     572.8314     72.05859      1.439     3.49     5.347001     20.32992     75.22852        12     1.128     0.799 -71.40   0
       312    470.8196    181.0399 300.2658201 +22.5776951     317.9761      72.0953      1.741     5.10     5.443279     20.32992     25.97281         6     1.195     0.615  71.38   0
       313   1015.3984    177.8716 300.4366231 +22.7397436     775.5491     71.96677      1.393     3.02      5.40715     20.32992       113.39        14     1.003     0.937  36.42   0
       314    747.8798    176.8321 300.3535095 +22.6594151     907.9766     72.05859      1.521     2.47     5.212791     20.32992     120.9585        12     0.906     0.804  59.60   0
       315    668.4043    175.8364 300.3290591 +22.6353448     1174.961     72.07695      1.311     2.40     5.413356     20.32992     180.2724        15     0.956     0.858  50.97   0
       316    489.7668    172.5871 300.2744608 +22.5809376     303.8686     72.04024      1.125     2.13     5.456397     20.32992     44.13004         5     0.666     0.478  14.77   0
       317    594.6066    167.5924 300.3087361 +22.6108858     992.1456     71.91161      1.316     2.13     5.462992     20.32992     163.5642        15     1.112     0.798  64.51   0
       318    863.8663    167.5289 300.3926952 +22.6914413     1443.918      72.0953      1.403     2.58      5.28274     20.32992     198.2708        18     1.005     0.976  31.81   0
       319    875.9212    166.4863 300.3967935 +22.6947476     859.7448     72.20528      1.470     3.05     5.303027     20.32992     120.0071        14     1.097     0.802  82.91   0
       320    992.7399    156.9750 300.4363264 +22.7269520     1197.437     72.04024      1.498     3.21     5.400342     20.32992     130.4558        20     1.194     0.927   1.94   0
       321     16.2889    153.5573 300.1333342 +22.4336508     555.9523     72.05859      1.582     3.51     5.904771     20.32992     49.13016         5     0.762     0.466 -16.49   0
       322    226.8026    149.7050 300.2000349 +22.4956127      814.719     71.96677      1.525     3.25     5.289922     20.32992     101.4027        15     1.093     0.944 -11.64   0
       323     88.4266    144.2784 300.1587639 +22.4526002     2207.312     72.05859      1.739     3.44     5.856119     20.32992     224.4501        29     1.379     1.179  39.44   0
       324    911.7171    142.1780 300.4158412 +22.6984596     732.1183     72.02188      1.394     2.45     5.402768     20.32992     100.2367        10     0.946     0.654 -17.13   0
       325     38.6222    141.7555 300.1441006 +22.4369529     433.4074     72.11364      1.572     4.13      5.94385     20.32992     42.43161         6     0.741     0.658  -3.71   0
       326    245.9905    137.6951 300.2098968 +22.4979085     5604.452     71.98515      1.501     2.99      5.28545     20.32992      647.329        34     1.337     1.106  77.64   0
       327    227.5778    138.7578 300.2038246 +22.4926990     372.2422      72.0953      1.486     5.74     5.291693     20.32992      35.1521         8     1.015     0.914  66.82   0
       328     30.2026    132.1247 300.1446055 +22.4316636     1271.887     71.96677      1.639     3.15     6.015396     20.32992     140.1205        21     1.186     1.074 -46.69   0
       329    229.2791    128.7065 300.2076119 +22.4903200     601.1471     72.16864      1.467     3.73     5.293354     20.32992     71.72009        14     1.113     0.920  69.89   0
       330    890.0858    119.4947 300.4164460 +22.6854610     3621.454     72.24191      1.511     2.77     5.427412     20.32992     462.3197        33     1.309     1.123  72.14   0
       331    993.7537    118.2628 300.4491925 +22.7161115     2789.309      72.0953      1.625     2.87     5.466498     20.32992     322.0244        28     1.304     1.162  86.81   0
       332    439.6106    114.7537 300.2775908 +22.5492930     555.0143     72.07695      1.226     2.86     5.454704     20.32992     79.42374        10     0.897     0.769 -65.30   0
       333    192.7730    115.3010 300.2006021 +22.4755332       319.17     72.00351      1.153     2.70     5.515984     20.32992     57.41989         8     0.865     0.623   2.96   0
       334    553.8177    112.5177 300.3138826 +22.5828377     370.6988     72.02188      1.291     5.53     5.544254     20.32992     41.07735         8     1.151     0.750  19.75   0
       335    363.7817    106.4895 300.2566640 +22.5242136     712.4106     71.98515      1.479     2.34      5.31024     20.32992     78.52667        10     0.880     0.673  89.92   0
       336    129.6348    103.5614 300.1847728 +22.4532470     667.3792     72.11364      1.592     3.08      5.83681     20.32992       72.994        10     0.976     0.675   6.47   0
       337    490.9689    101.8649 300.2977605 +22.5609617       1761.5     72.05859      1.368     2.77     5.550071     20.32992     233.2763        22     1.141     0.966  79.86   0
       338    418.6824    102.3936 300.2750813 +22.5394736     515.4522     71.98515      1.566     4.89     5.418268     20.32992     61.97459         9     1.139     0.721  52.94   0
       339    552.7232    101.2532 300.3171927 +22.5792704     449.1604      72.0953      1.538     2.71     5.554498     20.32992      48.3003         7     0.815     0.597  62.44   0
       340    233.9543     97.3570 300.2192270 +22.4827105     413.1629      72.0953      1.474     4.69     5.298901     20.32992      39.3046         8     1.083     0.577 -24.87   0
       341    779.5948     91.7034 300.3909938 +22.6444111     368.3058     71.96677      1.109     2.53     5.463467     20.32992      61.4457         8     0.885     0.572 -13.23   0
       342    627.4116     87.7880 300.3448263 +22.5977501     188.1495     71.94839      1.588     4.83     5.603271     20.32992     39.55624         5     1.022     0.670 -16.53   0
       343    136.1655     87.7128 300.1919397 +22.4506493     402.1158     72.04024      1.667     4.31     5.859096     20.32992     46.00816         7     1.104     0.677 -32.87   0
       344    363.8841     86.9003 300.2630447 +22.5186125     361.9658     72.22359      2.339     5.47     5.289053     20.32992     27.88088         6     1.180     0.715  53.78   0
       345    925.1241     86.1025 300.4382008 +22.6863294     333.9192     72.20528      1.304     3.36     5.590435     20.32992      54.2548         7     1.008     0.523  19.80   0
       346    265.0080     81.6517 300.2339773 +22.4874964     6023.793     72.05859      1.517     2.90     5.322583     20.32992     679.8887        36     1.340     1.118  64.38   0
       347    676.2836     83.5474 300.3614310 +22.6111545     334.5711      72.0953      1.705     3.37     5.590408     20.32992      34.9282         5     0.722     0.473 -16.44   0
       348    771.8129     82.1741 300.3916559 +22.6393410     380.1047     72.05859      1.521     3.76     5.529857     20.32992     45.28017         7     1.028     0.828 -64.63   0
       349    116.0228     81.1188 300.1878137 +22.4427208     712.2566     72.02188      1.556     3.36     5.876924     20.32992     78.42551        12     1.039     0.881 -25.05   0
       350    894.3420     79.2852 300.4308067 +22.6751609     338.6598     72.16864      1.153     2.12     5.642613     20.32992     51.33561         5     0.760     0.638  45.21   0
       351    237.1345     76.2845 300.2270454 +22.4776064     343.5043     72.16864      1.284     2.23     5.432513     20.32992     54.15938         5     0.822     0.448  -4.73   0
       352    280.4755     72.9389 300.2416132 +22.4896239     486.5859     72.11364      1.737     4.89     5.280545     20.32992     45.20294         7     1.080     0.628 -45.51   0
       353     26.9999     72.2280 300.1630219 +22.4134972     330.0671     72.00351      1.432     3.56     6.549603     20.32992     38.75428         8     0.830     0.735 -18.56   0
       354    511.0801     67.0528 300.3153059 +22.5569701     6471.378     72.07695      1.427     2.79       5.6252     20.32992      752.288        39     1.296     1.129  63.22   0
       355    396.3735     66.7882 300.2796755 +22.5225572     742.1172     72.05859      1.499     2.60     5.284339     20.32992     84.67363        11     0.864     0.802 -86.44   0
       356    531.4163     61.2903 300.3235073 +22.5613994     250.7024     71.98515      1.089     3.52     5.638666     20.32992     41.17054         5     0.740     0.482  79.59   0
       357    763.3207     57.3108 300.3970657 +22.6296457     881.0336     72.18696      1.659     5.14      5.69884     20.32992     79.35505        17     1.440     0.969 -64.81   0
       358    856.8810     55.9261 300.4266914 +22.6572332     596.3568     72.16864      1.245     4.90     5.830238     20.32992     187.6248        11     1.089     0.624  -5.61   0
       359    203.9853     50.8786 300.2249668 +22.4603767     377.3964     72.07695      1.383     3.32     5.744642     20.32992     48.78376         8     0.835     0.733  -0.53   0
       360    639.4290     47.1685 300.3617346 +22.5896608     6333.469     72.05859      1.404     2.55     5.890752     20.32992     764.1464        38     1.273     1.090  71.00   0
       361    562.3748     49.4313 300.3369936 +22.5672537     444.1614     72.05859      1.290     3.74     5.723568     20.32992     72.59235         5     0.858     0.469  45.61   0
       362    414.4538     46.0887 300.2920115 +22.5220179     1650.225      72.0953      1.468     2.87     5.233675     20.32992      186.958        20     1.089     1.013 -89.52   0
       363    680.7515     44.6230 300.3754376 +22.6012924     983.0768     72.05859      1.540     4.04     5.883913     20.32992     124.6573        15     1.245     0.929 -83.82   0
       364    749.9253     42.2639 300.3977653 +22.6213085     365.2818      72.0953      1.929     3.55     5.800691     20.32992     38.42546         5     0.801     0.513  56.10   0
       365    696.7043     40.9403 300.3816033 +22.6050057     603.3033     72.13197      1.357     2.71     5.883981     20.32992     97.11195        12     1.030     0.740 -45.53   0
       366    163.2448     38.9324 300.2161671 +22.4447418     760.7499     72.05859      1.772     3.16     5.881328     20.32992      59.9875        11     0.879     0.848  -8.48   0
       367    966.4731     38.6821 300.4664709 +22.6850433     514.3578     72.18696      1.268     2.62     5.880582     20.32992     54.75824         6     0.829     0.466  -0.81   0
       368    734.9706     35.9613 300.3951452 +22.6150211     557.1364     72.07695      1.456     3.55     5.845679     20.32992     72.83782        10     1.073     0.735 -88.22   0
       369    143.1705     34.6771 300.2113034 +22.4375066     7365.067     72.04024      0.669     1.00     5.888781     20.32992     3544.207         9     0.511     0.450  78.28   0
       370    698.5720     31.1067 300.3853719 +22.6027349     812.1274     71.96677      1.700     4.76     5.954512     20.32992     81.41521        13     1.332     0.816  56.41   0
       371    683.7100     32.0446 300.3804356 +22.5985584     2873.871     72.05859      1.460     2.65     5.977783     20.32992     318.2288        26     1.244     1.023  61.69   0
       372    324.7462     33.2433 300.2682515 +22.4914680     492.4831     72.07695      1.505     2.27     5.171442     20.32992     63.76707         6     0.685     0.624 -85.40   0
       373    770.1805     23.6601 300.4101087 +22.6220138     1456.299     72.00351      1.442     2.85     5.923518     20.32992     196.4439        18     1.131     0.933  84.16   0
       374    930.2596     22.3333 300.4604684 +22.6695078     237.0429      72.0953      1.132     3.49     6.155219     20.32992     38.97912         5     0.774     0.456  11.19   0
       375    848.1982     18.2939 300.4361774 +22.6438044     293.9476     71.96677      1.161     3.76     6.138498     20.32992     42.66317         5     0.887     0.457  47.41   0
       376    708.0156     16.8213 300.3929442 +22.6014495     756.9048     72.04024      1.375     3.13      6.03828     20.32992      95.0323        12     0.935     0.891 -73.56   0
       377    513.8728     16.4231 300.3325813 +22.5432439     1118.399      72.0953      1.355     2.21      5.73966     20.32992     151.8171        12     0.905     0.712 -82.15   0
       378    172.6345   1016.8625 299.9015806 +22.7283080     456.7976     72.05859      1.994     7.16     99.21705     20.32992     28.54892        12     1.452     0.990  59.94  16
       379    749.6585   1015.7338 300.0815895 +22.9010543     391.5439      72.0953      1.701     6.01     4.209301     20.32992     35.17137         7     1.466     0.693  11.63  16
       380    799.5186     13.0204 300.4227043 +22.6277270     656.5975     72.02188      1.496     2.97     5.996364     20.32992     62.87849         8     0.860     0.637  39.90   0
       381    312.6687   1012.8561 299.9464381 +22.7691785     1779.805     72.07695      6.618     6.70     6.473877     20.32992      76.2038        35     1.837     1.443 -50.97  16
       382    148.5160   1008.2548 299.8968822 +22.7186014     1455.701     72.13197      3.405    13.69     91.52832     20.32992     51.95211        36     2.882     1.808 -17.48  18
       383    306.1818   1007.5810 299.9461361 +22.7657191     575.7907     72.05859      2.418     3.57     6.768394     20.32992     32.18074         5     0.974     0.376  84.57   1
