#   1 NUMBER                 Running object number                                     
#   2 X_IMAGE                Object position along x                                    [pixel]
#   3 Y_IMAGE                Object position along y                                    [pixel]
#   4 ALPHA_J2000            Right ascension of barycenter (J2000)                      [deg]
#   5 DELTA_J2000            Declination of barycenter (J2000)                          [deg]
#   6 FLUX_APER              Flux vector within fixed circular aperture(s)              [count]
#   7 FLUXERR_APER           RMS error vector for aperture flux(es)                     [count]
#   8 FLUX_RADIUS            Fraction-of-light radii                                    [pixel]
#   9 FWHM_IMAGE             FWHM assuming a gaussian core                              [pixel]
#  10 BACKGROUND             Background at centroid position                            [count]
#  11 THRESHOLD              Detection threshold above background                       [count]
#  12 FLUX_MAX               Peak flux above background                                 [count]
#  13 ISOAREA_IMAGE          Isophotal area above Analysis threshold                    [pixel**2]
#  14 A_IMAGE                Profile RMS along major axis                               [pixel]
#  15 B_IMAGE                Profile RMS along minor axis                               [pixel]
#  16 THETA_IMAGE            Position angle (CCW/x)                                     [deg]
#  17 FLAGS                  Extraction flags                                          
         1    207.0972     10.3081 300.2354424 +22.4424455      3656.77     72.51337      1.469     2.65      5.41671     20.40631     426.1453        32     1.265     1.133  57.67   0
         2    774.9827     11.2084 300.4119437 +22.6127279     661.5864     72.27408      1.447     2.92     5.402696     20.40631     73.68403        10     0.986     0.638  12.82   0
         3    532.9581      7.8878 300.3376197 +22.5393351     361.9729     72.32937      1.299     2.00     5.340317     20.40631     60.58523         6     0.730     0.611  -0.94   0
         4    629.7304      7.6352 300.3678404 +22.5682305     269.0431     72.32937      1.126     2.73     5.674757     20.40631     49.76781         5     0.723     0.448  18.10   0
         5    768.5931      3.0899 300.4125826 +22.6084805     950.0647     65.19809      1.337     2.66     5.506042     20.40631     125.4828        15     0.979     0.885  24.08  24
         6    323.1375      2.6295 300.2740203 +22.4749965     1071.783     63.22665      1.282     2.25     5.557677     20.40631      182.495        16     1.008     0.872  31.05  24
         7    733.8612      1.8501 300.4021595 +22.5977308     256.8012     59.28938      1.188     3.82     6.121066     20.40631     41.47963         6     0.764     0.564  49.68  24
         8    207.4621   1003.1503 299.9132083 +22.7274928      2858.14     72.38462      5.122    21.28     79.71443     20.40631     69.95891       130     4.493     2.798 -67.01  19
         9    284.7309   1019.2728 299.9319874 +22.7553088     2394.864     72.40302      4.863    21.02     34.37693     20.40631     59.80168       109     4.302     2.851  84.41  27
        10    273.8441   1005.4203 299.9331090 +22.7480696     3031.491     72.38462      8.412    49.01     39.21297     20.40631     105.8266       500    19.209     3.469 -13.41  19
        11    236.8625    992.9318 299.9256730 +22.7333888     4595.349     72.38462      8.803    28.75     60.88693     20.40631     94.99268       369     6.688     4.906  86.13  19
        12    255.2435    992.4470 299.9315459 +22.7387670     6267.738     72.36621     10.842    43.02     47.47927     20.40631     124.3102       610     8.809     5.831 -47.27  19
        13    113.3897    954.4912 299.8997989 +22.6853038      5118.24     72.27408     21.772   102.70     34.39881     20.40631     212.5634      3054    19.608    14.924  -9.61  19
        14    125.5404   1012.9258 299.8845654 +22.7057005     2757.728      72.3662     12.946    69.24     90.95049     20.40631     114.9992      1031    17.173     7.747  43.48  27
        15    200.7132    975.8557 299.9199898 +22.7176423     922.0352     72.40302      4.232     7.71      57.4172     20.40631     44.78203        15     1.936     0.858  65.42   3
        16    203.0319    982.3928 299.9185841 +22.7202123     1720.075     72.32937      3.764    12.48     62.34414     20.40631     52.04649        36     2.332     2.085  24.97   2
        17    533.5694    981.9599 300.0215530 +22.8192764     432.0053     72.34779      1.860     5.05     3.575079     20.40631     44.77453        10     1.330     0.783  58.31   0
        18    962.0353    977.4014 300.1565520 +22.9464435      705.199     72.29251      1.971     6.21     4.334709     20.40631     59.81524        18     1.355     1.122 -24.31   0
        19    274.2545    980.9855 299.9411861 +22.7411870     9031.252     72.32937     10.634    30.14     29.74681     20.40631     188.3431       819    11.124     5.061  60.91  19
        20    180.6219    962.5611 299.9180691 +22.7078000     1560.636     72.36621      6.881    13.27     47.71085     20.40631     49.14881        45     2.859     1.778 -15.39   1
        21    459.5898   1004.5814 299.9911656 +22.8035707     115.7573     72.29252      1.420     4.23     3.342798     20.40631     23.64512         5     1.218     0.418  36.03   0
        22    687.5145    960.4722 300.0764861 +22.8592833     6848.538     72.43983      1.849     4.06     3.924376     20.40631     443.1468        44     1.468     1.367  19.36   0
        23      3.8973    999.1755 299.8512475 +22.6652334     2676.948     68.40956     14.480    33.95    -24.52512     20.40631     56.42621       243     7.343     4.358 -65.82  27
        24     18.1271   1003.7472 299.8541800 +22.6708167     1381.524     72.32937      8.916    25.01    -10.46232     20.40631     47.04176        72     5.612     3.094 -51.50  19
        25     10.1499    955.9454 299.8672519 +22.6547232     854.8967      72.3662      3.783     3.79    -4.963816     20.40631     31.64858         5     0.799     0.515  33.20   0
        26    567.3829    954.2804 300.0410853 +22.8214779     453.9878     72.32937      1.896     6.76      3.64606     20.40631       33.277         9     1.184     1.082  29.79   0
        27    278.8713    954.3846 299.9512751 +22.7349453     506.1858     72.32937      1.653     6.07     17.23834     20.40631     63.90285        13     1.534     0.956 -13.52   0
        28    596.0726    951.1459 300.0510386 +22.8291836     1562.075     72.31094      1.698     3.96      3.67913     20.40631     120.3187        24     1.326     1.170 -42.15   0
        29    390.9842   1005.1153 299.9696438 +22.7831379     643.5563     72.29251      2.193     5.16     4.026875     20.40631      40.6069         8     1.083     0.694 -26.08   0
        30    489.8698    947.6124 300.0191233 +22.7963136     1057.293     72.34779      1.761     4.27     3.538709     20.40631     93.20492        20     1.307     1.043   2.22   0
        31    420.4483    945.6186 299.9981669 +22.7749147     6628.398     72.36621      1.832     4.33     3.854896     20.40631     486.8166        42     1.440     1.378 -88.65   0
        32    197.0135   1004.4607 299.9095339 +22.7247318     488.1231     72.29251      1.609     4.94     81.69373     20.40631     30.21214         5     1.471     0.469  -6.92   1
        33    453.0813    932.5458 300.0125741 +22.7809551     550.2142      72.3662      1.769     6.67     3.749063     20.40631     40.43928        12     1.232     1.014 -21.44   0
        34    158.4709    931.2823 299.9213579 +22.6921838     1377.783     72.45822      9.534    10.67     19.93159     20.40631      48.4426        22     2.152     1.475  35.46   3
        35    155.9834    933.0000 299.9200261 +22.6919296     983.5833     72.20029      3.446     3.83      21.4137     20.40631     39.05169         5     1.339     0.315  11.37   3
        36    966.8766    924.5298 300.1752624 +22.9327112     2191.023     72.43983      2.001     4.86     4.345712     20.40631     115.4426        33     1.462     1.409   0.88   0
        37    616.6006    921.4874 300.0670788 +22.8268293     435.7554     72.21875      1.734     6.19     3.731582     20.40631     39.00847         8     1.370     0.806   5.18   0
        38    755.9036    913.4243 300.1130990 +22.8662849     719.3981      72.2372      1.935     7.15     3.895499     20.40631     56.20026        15     1.533     0.934  39.90   0
        39    790.6044    907.4279 300.1258640 +22.8749665     1096.228     72.29252      1.968     5.68     3.889617     20.40631     67.40535        21     1.503     1.098 -21.06   0
        40    567.3737    908.2939 300.0560405 +22.8082799     414.9633     72.27408      1.664     4.80      3.72707     20.40631     40.94653         8     0.996     0.657  -3.51   0
        41    582.6177    998.0751 300.0315812 +22.8386129     2436.594     72.32937      1.887     4.22     3.664305     20.40631     158.2754        33     1.517     1.348 -63.52   0
        42     17.5981    979.4462 299.8619210 +22.6636943     1482.806     72.32937      8.164    31.76    -5.727303     20.40631     55.73264        82     8.477     3.304  20.92  19
        43    812.7103    901.2379 300.1347675 +22.8798160     11380.05     72.31094      1.777     3.87     3.963826     20.40631     707.4422        53     1.437     1.398 -37.55   0
        44    858.5130    901.3060 300.1490238 +22.8935648     484.0371     72.51337      1.760     5.59     4.276013     20.40631     35.04922        10     1.035     0.851 -14.06   0
        45      3.3106   1017.7592 299.8450193 +22.6703821     2980.055     66.21212     12.227    58.60     -33.3253     20.40631     67.43479       344    12.876     7.400  87.26  27
        46    123.9297    892.6746 299.9231788 +22.6707473     1209.634     72.40302      5.919     6.50     9.012246     20.40631     53.84299        18     1.456     1.142  53.61   0
        47    864.6700    888.8035 300.1550097 +22.8918201     365.0574     72.27408      1.561     5.94     4.278779     20.40631      30.7864         7     1.264     0.785  66.79   0
        48    518.0508    889.2261 300.0468857 +22.7880153     478.1779     72.34779      1.621     5.81     3.826706     20.40631     47.91021        10     1.039     0.915  16.86   0
        49    669.3568    993.4888 300.0600880 +22.8633130     8811.714     72.32937      1.953     4.49     3.910907     20.40631     524.3471        46     1.552     1.393  13.60   3
        50    821.3069    883.4255 300.1432403 +22.8772786     1423.526     72.27408      1.893     4.33     3.982444     20.40631      103.418        23     1.374     1.122  68.43   0
        51    114.3816    883.5043 299.9231936 +22.6652522     763.6857      72.2372      3.027     4.41      7.21499     20.40631     38.98753         7     1.161     0.476  84.69   0
        52   1004.3097    882.7792 300.2005191 +22.9319367     550.8825     72.27408      1.608     5.99     4.207733     20.40631     38.78976        11     1.437     0.703  -7.61   0
        53    673.1251    880.8138 300.0979134 +22.8321054     452.6812     72.34779      1.777     5.43     3.805511     20.40631     40.42153        11     1.196     0.752   0.36   0
        54    859.3011    876.9854 300.1571794 +22.8868173     779.2227      72.2372      1.704     5.70      4.20397     20.40631     56.54778        14     1.390     0.744 -24.00   0
        55    197.9592    877.4400 299.9511423 +22.6885988      485.677     72.40302      1.943     4.77     9.398273     20.40631     42.00473         6     1.542     0.419 -32.96   0
        56    968.5734    873.9723 300.1922355 +22.9186990     437.1788     72.29251      1.807     4.91     4.193669     20.40631     33.60802         6     1.068     0.640 -33.13   0
        57    906.7631    868.0946 300.1748696 +22.8984885     492.2774     72.31094      1.458     5.11     4.190082     20.40631     51.58033         9     1.544     0.479  77.31   0
        58    758.8030    867.0233 300.1290934 +22.8538331     915.3162     72.27408      2.083     4.69     3.813197     20.40631     65.36176        15     1.069     1.066 -81.56   0
        59    674.8285    991.1533 300.0625524 +22.8642838     9376.743     72.34779      1.899     4.30     3.925294     20.40631     599.1446        50     1.523     1.428  38.45   3
        60    770.4814    864.1883 300.1336548 +22.8565200     713.9445     72.31094      1.883     6.26     3.815042     20.40631     51.09427        16     1.252     0.979 -32.40   0
        61    471.6425    863.2989 300.0408713 +22.7666563     4240.382     72.31094      1.676     3.57     3.971891     20.40631     335.6278        34     1.344     1.234  48.05   0
        62    514.4312    851.1033 300.0581558 +22.7759905     313.7458     72.27408      1.691     5.98     3.981099     20.40631     36.86044         8     1.284     0.783  64.49   0
        63    249.3915    851.5942 299.9755367 +22.6966216      413.938     72.18183      1.966     5.61     5.825088     20.40631     36.95948         8     1.729     0.512  24.33   0
        64    133.4433    851.7884 299.9394299 +22.6618806     305.5129     72.32937      1.790     5.91     6.269063     20.40631     33.04877         8     1.172     0.838  31.70   0
        65    114.6927    850.4357 299.9340426 +22.6558649     309.6923     72.29251      1.083     3.86     5.407267     20.40631     37.29258         6     0.926     0.461  89.90   0
        66    197.0431    849.0622 299.9600846 +22.6801865     650.6436     72.32937      1.472     5.13     6.808561     20.40631     77.14448        13     1.263     0.837 -22.85   0
        67    173.9883    845.9966 299.9539147 +22.6723885      1535.28     72.14491      1.705     3.63     7.014797     20.40631     142.9911        23     1.295     1.115   3.28   0
        68    105.4726    846.4479 299.9324740 +22.6519541     357.2989     72.32937      1.844     3.86     4.935767     20.40631     40.72512         5     1.109     0.566  56.62   0
        69    769.0311    994.1146 300.0909403 +22.8933826     575.2536     72.32937      1.825     4.02      3.82316     20.40631     54.27381        13     1.275     1.091  50.31   0
        70    999.9914    833.5812 300.2151710 +22.9165103     2058.336     72.29251      1.836     4.56     4.239925     20.40631     119.8055        29     1.409     1.248 -19.64   0
        71    705.7292    833.3098 300.1235182 +22.8282437     422.8596     72.49499      1.730     7.31     3.820964     20.40631     33.94722        12     1.571     0.953  56.09   0
        72    783.3818    827.9067 300.1494730 +22.8499695     753.0564     72.25564      1.714     4.48     3.821465     20.40631     69.48125        15     1.197     0.935 -43.89   0
        73    206.4188    826.9675 299.9701827 +22.6766639     442.9919     72.32937      1.725     5.85     5.717805     20.40631     45.00616         8     1.453     0.722  47.59   0
        74    651.7227    821.5190 300.1105272 +22.8086678     4789.481     72.43983      1.603     3.17     3.894105     20.40631     458.9132        35     1.259     1.227  41.71   0
        75    112.8410    922.9613 299.9098834 +22.6761010     4097.742     72.42142     18.649    54.77     10.38906     20.40631     95.33182       951    12.380     6.723 -31.88   3
        76    453.7031    818.6676 300.0497994 +22.7484694     602.7316     72.43983      1.514     3.83     4.093334     20.40631      62.2467        12     1.071     0.844  -0.24   0
        77    202.0065    815.2308 299.9726266 +22.6719739     1338.706     72.32937      1.697     3.57      5.21945     20.40631     129.1082        20     1.231     1.038  27.69   0
        78    672.2675    813.8765 300.1194118 +22.8126332     774.1328     72.42142      1.603     3.80     3.892254     20.40631     59.01228        13     1.027     0.883  42.56   0
        79    221.5931    812.0206 299.9797595 +22.6769306     489.1619     72.31094      1.547     4.79     5.015905     20.40631     50.09912         9     1.079     0.657  51.17   0
        80    596.0620    805.6587 300.0983478 +22.7874268     1498.356     72.38462      0.604     1.26     4.016213     20.40631     759.5885         6     0.516     0.323  89.07   0
        81    589.0429    805.3430 300.0962647 +22.7852316     358.5876     72.29251      1.282     4.90     4.031819     20.40631     45.48927         7     0.983     0.693 -25.09   0
        82    827.7669    801.3101 300.1719552 +22.8556346     4287.493     72.29251      1.618     3.29     3.913552     20.40631     346.5435        29     1.242     1.173  33.31   0
        83    236.2746    794.9705 299.9898667 +22.6764456     491.1991     72.34779      1.933     5.63     4.599463     20.40631     37.87878         9     0.964     0.928 -85.63   0
        84    544.8604    793.8558 300.0862415 +22.7686864     658.9091     72.40302      1.445     4.09     4.145876     20.40631      59.1255        11     0.971     0.803  31.36   0
        85    191.1080    791.5540 299.9769353 +22.6619133     1082.959     72.34779      1.781     3.65     4.583022     20.40631     102.8696        21     1.197     1.131  21.79   0
        86    340.7579    783.7323 300.0260139 +22.7045678      53634.8     72.31094      1.606     3.34     4.495333     20.40631     5245.927        88     1.422     1.348  30.99   0
        87    606.3450    787.3297 300.1075088 +22.7852485     351.6725     72.34779      1.130     3.12     4.049147     20.40631     62.32439         6     0.828     0.520 -39.83   0
        88    598.5934    782.8779 300.1065419 +22.7816465     1658.538     72.25564      1.538     3.28     4.073428     20.40631     162.3468        20     1.063     1.032 -12.55   0
        89   1011.6005    782.2593 300.2354790 +22.9052437     793.8759     72.29251      1.656     4.34     4.295781     20.40631     69.99641        16     1.287     0.935 -20.51   0
        90    269.4850    781.9973 300.0044105 +22.6826886     472.2939     72.25564      1.527     2.64     4.576587     20.40631     51.18204         8     0.812     0.641   1.63   0
        91    627.4760    778.7974 300.1168636 +22.7891344     853.3887      72.2372      1.506     3.43     4.065943     20.40631     103.0903        16     1.123     0.950   7.45   0
        92     26.9912    778.1972 299.9302771 +22.6088299     759.3454     72.14491      1.849     4.93     4.591831     20.40631     74.78891        16     1.360     1.062  84.64   0
        93    638.6322    777.3099 300.1208220 +22.7920519     545.2977     72.29251      1.467     3.16     4.077349     20.40631     70.43582        10     0.926     0.754 -44.55   0
        94    959.1606    774.9203 300.2215062 +22.8874254     252.5155     72.31094      1.532     5.58     4.306649     20.40631     32.89717         7     1.198     0.732  41.27   0
        95    743.9213    773.5837 300.1548359 +22.8225433     523.3948     72.32937      1.588     4.05     3.830572     20.40631     51.22123        12     0.962     0.927 -50.03   0
        96    538.4980    770.3500 300.0919016 +22.7600319     314.5834     72.40302      1.617     3.38     4.222104     20.40631     46.87981         5     0.797     0.416  65.87   0
        97    781.6666    763.8488 300.1697636 +22.8310603     683.9171     72.32937      1.477     3.86     4.070952     20.40631     64.96236        14     1.124     0.854 -22.94   0
        98    390.4921    760.9927 300.0488778 +22.7129612     31764.44      72.2372      1.555     3.10     4.425374     20.40631     3551.376        64     1.330     1.284   4.72   0
        99    404.8528    761.4366 300.0532018 +22.7173957      2085.39     72.34779      1.565     3.16     4.403312     20.40631     196.4628        23     1.199     1.059  31.91   0
       100    280.3423    759.6136 300.0150624 +22.6795248     306.0915     72.29251      1.456     3.91     4.534799     20.40631     40.12023         5     0.980     0.470 -85.52   0
       101    913.6065    757.0319 300.2131135 +22.8686384     2853.763     72.32937      1.627     3.45     4.316696     20.40631      222.738        30     1.254     1.189 -22.89   0
       102    401.5657    755.6133 300.0540717 +22.7147389     635.8843     72.29251      1.605     4.13     4.420583     20.40631     74.12968        11     1.038     0.830  37.07   0
       103    671.4761    753.0562 300.1389365 +22.7949343     957.6869      72.3662      1.460     3.06     4.250796     20.40631     118.3561        15     1.062     0.922 -21.40   0
       104    507.9800    753.0339 300.0880291 +22.7459110     544.2618     72.34779      1.789     4.15     4.239811     20.40631     60.92134         8     1.111     0.578  23.00   0
       105    272.9767    752.4701 300.0150935 +22.6752659     865.9608     72.34779      1.616     4.31     4.530724     20.40631     72.97025        15     1.298     0.869 -43.22   0
       106     77.7190    748.7939 299.9555933 +22.6156242     478.6019     72.25564      1.632     3.98     4.567724     20.40631      45.1579         8     1.043     0.766  -6.90   0
       107    518.8268    747.8111 300.0931034 +22.7476643     829.1678     72.32937      1.441     2.76     4.272069     20.40631     106.0765        14     1.009     0.857 -18.55   0
       108    919.8135    744.6790 300.2190645 +22.8669493      731.127     72.32937      2.044     3.26     4.327947     20.40631     52.71829         9     0.868     0.707 -76.10   0
       109    668.0048    745.0076 300.1404712 +22.7915829     392.8639     72.18183      1.889     3.71     4.297216     20.40631     26.71923         5     0.999     0.395 -29.55   0
       110    420.9960    744.4912 300.0637327 +22.7173746     388.0377      72.2372      1.693     5.63     4.429117     20.40631     50.07446         6     1.339     0.714  30.99   0
       111    105.9077    742.6783 299.9663399 +22.6223298     599.5713     72.47661      1.880     4.44     4.545895     20.40631     50.98568        11     1.040     0.973 -11.68   0
       112    464.4585    742.7236 300.0778332 +22.7299012     385.3302     72.38462      1.355     4.44     4.289824     20.40631     51.71101         8     1.012     0.793  45.32   0
       113    376.9091    743.4575 300.0503509 +22.7038557     345.8456     72.38462      1.584     3.65     4.467868     20.40631     37.52569         5     0.879     0.515  48.42   0
       114    897.1279    739.8342 300.2135648 +22.8587608      496.513     72.32937      1.675     5.70     4.371515     20.40631     40.72794         9     1.189     0.769  26.80   0
       115    270.6566    737.0882 300.0193711 +22.6701571     537.9594     72.38462      1.511     4.48     4.512198     20.40631     50.08416        13     1.025     0.987 -11.29   0
       116    593.8331    727.6666 300.1230050 +22.7643697      462.194     72.32937      1.438     3.61     4.249922     20.40631     57.72845        10     0.939     0.822  -9.73   0
       117    563.8278    726.0236 300.1141953 +22.7549025     655.3976     72.32937      1.698     4.81     4.326223     20.40631     65.52159        14     1.287     0.907 -12.88   0
       118    473.1411    725.4398 300.0861528 +22.7275443     321.9893     72.32937      1.275     4.18     4.314316     20.40631     40.49281         5     0.875     0.571  42.61   0
       119    980.1249    722.3165 300.2451442 +22.8785919     4572.387     72.42142      1.638     3.40     4.309565     20.40631     364.4319        34     1.292     1.237  25.64   0
       120    585.5850    723.2672 300.1218662 +22.7606339     1418.527     72.31094      1.456     2.84     4.290281     20.40631     145.6813        17     1.038     0.961  76.87   0
       121    505.2564    722.8644 300.0969865 +22.7364347     385.5207     72.38462      1.272     2.79      4.32707     20.40631     53.79723         6     0.757     0.541 -26.82   0
       122    667.1085    717.9431 300.1489881 +22.7835430     352.0118     72.38462      1.513     4.65     4.400764     20.40631     39.98915         8     1.024     0.600  62.98   0
       123    968.4553    713.7318 300.2442941 +22.8726296     1547.497     72.36621      1.530     3.47     4.391726     20.40631     149.1617        19     1.134     1.012 -72.72   0
       124    331.6088    707.5698 300.0479210 +22.6799711      870.132     72.31094      1.527     2.96     4.541646     20.40631     113.9954        13     0.973     0.881  11.69   0
       125    795.0494    704.9789 300.1930685 +22.8181629     2733.599     72.32937      1.623     3.27     4.426971     20.40631     254.9937        28     1.483     1.015   8.85   0
       126    999.8628    704.0154 300.2572495 +22.8792453     1675.277     72.29251      1.754     3.74     4.211744     20.40631     124.8327        24     1.377     1.082   8.10   0
       127    304.6176    703.9727 300.0406945 +22.6708433     212.4875     72.32937      1.410     4.65     4.549926     20.40631     29.66916         5     1.016     0.603  16.92   0
       128     17.1951    694.8554 299.9543176 +22.5819935     801.4437     72.29251      1.838     4.16      4.73915     20.40631     91.09245        16     1.238     1.031  78.21   0
       129    877.3462    690.6817 300.2233708 +22.8387136     661.3642     72.36621      1.692     4.32     4.901943     20.40631     57.50025        15     1.182     0.922 -88.09   0
       130    180.2489    691.1604 300.0061863 +22.6298597     649.5588     72.36621      1.780     3.96     4.595326     20.40631     64.28551        10     1.124     0.859  25.51   0
       131    913.2838    681.9158 300.2374258 +22.8469611     149029.6     72.45822      1.578     3.24     4.985849     20.40631     13081.68       152     1.464     1.428 -15.95   0
       132    675.4471    685.8620 300.1620110 +22.7768300     389.7214     72.34779      1.448     3.74     4.490205     20.40631      43.6811         7     0.862     0.751  38.91   0
       133    765.8428    682.3334 300.1913244 +22.8029066     794.8041     72.31094      1.364     2.65     4.405873     20.40631     83.83287        10     0.813     0.769   6.68   0
       134    945.8909    675.2584 300.2497586 +22.8548157     429.4578     72.40302      1.592     3.59     4.852187     20.40631     56.86479         7     1.050     0.663 -57.08   0
       135    599.5791    670.7686 300.1432838 +22.7497561     1721.641     72.32937      1.485     2.77     4.542019     20.40631     210.1664        20     1.073     1.039  60.52   0
       136    780.7606    668.0635 300.2006106 +22.8032777     9335.439     72.31094      1.430     2.84     4.464106     20.40631     1006.707        39     1.184     1.148   6.40   0
       137    282.2577    663.0093 300.0470500 +22.6523829     4864.219     72.29251      1.474     2.74     4.629928     20.40631     614.1465        35     1.229     1.166   1.62   0
       138    364.4435    661.2831 300.0731750 +22.6765358     1167.299     72.29251      1.374     2.83     4.619139     20.40631     128.4718        14     0.946     0.865 -21.55   0
       139    239.9686    658.7166 300.0352940 +22.6384669     402.6633     72.32937      1.434     4.23     4.693961     20.40631      59.9511         7     0.835     0.808 -52.09   0
       140    572.4174    656.6503 300.1394125 +22.7375605     800.3025     72.32937      1.439     3.00     4.605103     20.40631      93.0176        13     0.967     0.869   1.12   0
       141    564.2524    648.7934 300.1394227 +22.7328571     3245.191     72.31094      1.346     2.59     4.626974     20.40631     403.6375        25     1.105     1.054 -28.69   0
       142    554.5345    642.6063 300.1384068 +22.7281676     1400.576     72.32937      1.351     2.45     4.616369     20.40631     188.1649        18     1.135     0.921  43.83   0
       143    947.6210    640.6713 300.2615363 +22.8453950     446.1752     72.32937      1.148     3.80     4.876428     20.40631     44.46783         6     0.887     0.466   4.61   0
       144    465.5952    639.8375 300.1116186 +22.7007102     268.7576      72.3662      1.056     2.03     4.566459     20.40631     51.64433         5     0.692     0.443  66.65   0
       145    217.8267    638.8244 300.0348718 +22.6261180     652.3393     72.29251      1.457     3.56     4.860146     20.40631      89.5382        14     1.161     0.822 -23.63   0
       146    232.0902    637.1922 300.0398368 +22.6299280      606.643      72.2372      1.612     4.22     4.847735     20.40631      62.5504        13     1.148     0.963 -23.51   0
       147    288.7056    634.5397 300.0583042 +22.6461475     430.6603     72.42142      1.791     3.94     4.648176     20.40631      50.0642         6     1.052     0.423 -33.68   0
       148   1001.4362    633.9393 300.2805107 +22.8595778     693.1492     72.34779      1.945     4.36     4.150839     20.40631      56.4729         7     0.943     0.575  -7.66   0
       149    257.8822    633.7050 300.0489896 +22.6366634     717.2258     72.49499      1.649     3.43     4.767707     20.40631     87.87542        14     1.085     0.968  -3.69   0
       150    578.4269    632.9121 300.1489960 +22.7325458     439.1445     72.31094      1.277     2.87     4.813154     20.40631     62.65754         8     0.849     0.643 -34.60   0
       151    479.2415    632.3833 300.1182878 +22.7026615     1761.022     72.34779      1.320     2.54     4.599904     20.40631     194.0364        20     1.128     0.853   5.18   0
       152    512.6890    631.4839 300.1289918 +22.7124304     389.8081     72.45822      1.562     4.12     4.604742     20.40631       41.361         5     0.984     0.507  45.49   0
       153    133.1813    627.1065 300.0123659 +22.5973645     19642.67     72.25564      1.577     3.10     4.994958     20.40631     2149.309        58     1.380     1.304  26.81   0
       154     54.1022    628.7792 299.9872493 +22.5741188     675.0284     72.25564      1.823     4.11     5.130219     20.40631     81.11682        12     1.135     0.851  12.36   0
       155    564.1193    627.4840 300.1463040 +22.7266986     1102.245     72.47661      1.467     3.03     4.757536     20.40631     127.3253        18     1.221     0.926   7.69   0
       156    599.8449    627.0679 300.1575645 +22.7372872     354.3866     72.31094      1.165     2.48     5.021955     20.40631     60.29119         8     0.808     0.702   9.24   0
       157    982.4631    613.8676 300.2811126 +22.8481269     1091.899     72.38462      1.634     4.52     4.418447     20.40631     99.84502        18     1.269     1.006 -26.71   0
       158     79.2781    611.4726 300.0006931 +22.5767083     1448.709     72.43983      1.966     5.08      5.17464     20.40631      116.128        29     1.516     1.247  89.17   0
       159    849.0480    612.0494 300.2400959 +22.8076443      535.358      72.3662      1.374     3.28     5.001317     20.40631     73.47147         9     0.932     0.665  66.39   0
       160    527.4974    608.3523 300.1411163 +22.7102279     371.9705     72.36621      1.125     3.34     4.687309     20.40631     66.02637         7     0.892     0.537 -32.32   0
       161    320.0810    607.6822 300.0767871 +22.6478492     358.4038     72.47661      1.343     4.22      4.72235     20.40631     42.87926         7     0.774     0.657  -8.44   0
       162    922.2540    606.7029 300.2646601 +22.8280357     831.3599     72.42142      1.703     3.38     5.171767     20.40631       76.739        13     0.995     0.883  27.54   0
       163    666.6509    604.8719 300.1855835 +22.7509340     267.6222     72.32937      1.377     4.36     4.789412     20.40631     33.48962         7     0.924     0.586  11.10   0
       164    484.3980    600.6636 300.1301966 +22.6951008     725.8938     72.32937      1.249     2.45     4.737632     20.40631     99.77068         9     0.924     0.560   3.87   0
       165    632.0499    599.0176 300.1767068 +22.7388836     499.5489     72.32937      1.330     3.77      5.11245     20.40631      58.0403         9     1.001     0.701  61.70   0
       166    679.2110    597.9163 300.1917557 +22.7527000     480.1086     72.29251      1.188     2.43     4.745924     20.40631     76.49197         7     0.842     0.503 -38.48   0
       167    650.0673    597.3445 300.1828625 +22.7438025     538.6194     72.36621      1.366     3.69     4.966806     20.40631     77.80035        11     0.965     0.933   1.13   0
       168    528.5654    596.2420 300.1453825 +22.7070708     934.9256     72.38462      1.342     2.88     4.805632     20.40631     109.5198        13     1.033     0.778   1.45   0
       169    715.7482    595.3087 300.2039866 +22.7628990     312.2575     72.38462      1.107     4.13     4.601546     20.40631      48.5451         7     1.123     0.564 -74.79   0
       170    962.3081    591.9734 300.2819377 +22.8357984     3456.242     72.27408      1.555     3.20      4.74207     20.40631     308.5286        32     1.242     1.186 -17.92   0
       171    494.1145    591.7681 300.1361106 +22.6954595     1652.853     72.31094      1.296     2.59     4.814062     20.40631     226.6123        18     1.018     0.941  43.27   0
       172    859.2673    589.0371 300.2507573 +22.8040932     122.8517     72.31094      0.942     3.61     4.982152     20.40631     34.23079         5     0.798     0.495 -38.79   0
       173    469.1740    587.3509 300.1297819 +22.6867149     363.4648     72.34779      1.307     2.80     4.798505     20.40631     48.57221         7     0.752     0.672  -3.88   0
       174     55.9402    585.2963 300.0019435 +22.5621980     5072.802     72.40302      1.655     3.24     5.397377     20.40631     519.7833        37     1.339     1.268  26.99   0
       175   1001.6760    582.4293 300.2973189 +22.8448443     388.7725     72.31094      1.545     4.08      4.41401     20.40631     47.22741         6     1.016     0.467  55.27   0
       176    315.1082    583.3576 300.0831409 +22.6393767     183.9395     72.32937      1.165     3.41     4.801807     20.40631     30.25169         5     0.775     0.434  18.44   0
       177    523.2633    582.6645 300.1481418 +22.7015829      296.228     72.36621      1.275     2.37     4.925581     20.40631     46.06226         5     0.692     0.461 -11.17   0
       178    357.4621    578.4763 300.0979016 +22.6506755     9203.201     72.38462      1.394     2.53     4.761723     20.40631     1224.091        41     1.224     1.131  28.60   0
       179    479.9523    575.6061 300.1369514 +22.6865738      9057.38     72.31094      1.361     2.53     4.915762     20.40631     1187.157        35     1.127     1.081  25.96   0
       180    245.7653    572.9628 300.0649512 +22.6155989     366.8205     72.40302      1.342     3.63      5.01564     20.40631     38.34759         6     0.905     0.456  52.51   0
       181    726.4795    571.7832 300.2149717 +22.7593562      291.047     72.32937      1.256     3.63     4.632481     20.40631     51.38771         8     0.963     0.631 -73.74   0
       182    891.5522    569.7634 300.2670844 +22.8082246      1997.38     72.36621      1.441     2.58     4.928191     20.40631     239.6622        22     1.152     0.982  -5.57   0
       183    124.1959    571.6476 300.0275859 +22.5787588     270.9436     72.31094      1.269     3.40     5.114375     20.40631     34.85735         5     0.780     0.428 -18.95   0
       184    976.2460    567.0345 300.2943859 +22.8328043     12757.27     72.34779      1.512     3.06     4.715218     20.40631      1231.78        49     1.294     1.252 -61.43   0
       185    540.5023    565.1777 300.1591885 +22.7017285     11677.64     72.25564      1.332     2.49     5.138518     20.40631     1435.185        45     1.181     1.134  26.23   0
       186    710.1155    561.0515 300.2133582 +22.7513705     573.3635     72.32937      1.356     3.43     4.755105     20.40631     70.07243         8     0.856     0.696  59.49   0
       187    267.8482    560.5779 300.0758404 +22.6186670     1311.727     72.34779      1.401     2.82     4.995098     20.40631     169.0688        18     1.078     0.947 -18.09   0
       188    425.7029    560.2562 300.1250522 +22.6659043     373.0345     72.42142      1.361     2.63     4.711063     20.40631     61.62805         7     0.909     0.512 -32.63   0
       189    514.7755    558.0362 300.1534980 +22.6919668     365.8483     72.34779      1.322     3.17     5.142819     20.40631     60.57394         9     0.933     0.680  30.04   0
       190    472.0816    553.3566 300.1417274 +22.6778261     4362.319     72.29251      1.345     2.64      5.02991     20.40631     520.9752        29     1.212     1.033  19.53   0
       191    815.0192    553.4888 300.2485085 +22.7806244     813.7592     72.27408      1.341     2.82     4.672207     20.40631     100.1394        13     1.013     0.784  39.13   0
       192    450.4873    551.7543 300.1355266 +22.6708930     1219.504     72.31094      1.329     2.40     4.889146     20.40631     190.2499        15     0.934     0.888  57.25   0
       193    204.9808    551.2462 300.0593226 +22.5971355     702.5267      72.3662      1.425     2.87     5.081815     20.40631     103.5391        16     1.055     0.936 -10.11   0
       194    892.0853    548.8454 300.2740444 +22.8023726     1547.845     72.31094      1.515     3.12      4.79143     20.40631     158.7825        21     1.152     1.020 -36.07   0
       195    138.1119    549.5374 300.0390911 +22.5765893     246.5616     72.42142      1.295     3.42      5.10222     20.40631     32.86549         5     1.446     0.234 -17.98   0
       196    588.8193    540.9092 300.1821152 +22.7092393     200550.4     72.25564      1.340     2.42     5.322449     20.40631     29724.34       186     1.422     1.312  -8.84   0
       197    772.6081    546.0338 300.2377100 +22.7657779     713.9155     72.32937      1.249     2.63     4.662674     20.40631      110.962        13     0.931     0.845  48.07   0
       198    412.7515    547.1307 300.1252843 +22.6582534     361.4212     72.32937      1.261     2.34     4.680859     20.40631     61.62294         6     0.744     0.521 -44.81   0
       199    274.9123    540.7288 300.0844829 +22.6150885     3556.696     72.49499      1.474     2.72     5.055469     20.40631     429.7441        32     1.201     1.166 -69.81   0
       200    840.8525    537.0055 300.2619151 +22.7836256     580.1058     72.29251      1.409     3.46     4.683415     20.40631     50.38215        10     0.895     0.755   5.19   0
       201    620.1109    527.5880 300.1961866 +22.7147899     337.8974     72.27408      1.415     3.91     5.250442     20.40631      35.4133         5     0.890     0.491   2.71   0
       202    479.2890    525.4375 300.1530371 +22.6719697     378.0797     72.31094      1.434     3.02     5.207751     20.40631     51.27601         5     0.759     0.425 -27.82   3
       203    479.4528    521.1730 300.1544728 +22.6707942     2668.395     72.34779      1.364     2.44     5.222616     20.40631     305.7929        22     1.080     0.955  88.22   2
       204    323.7081    523.6523 300.1052048 +22.6248179     490.3074     72.38462      1.131     1.99     4.892997     20.40631     85.44321         8     0.831     0.553 -71.96   0
       205    929.2755    521.3946 300.2945573 +22.8056203     255.1846     72.25564      1.381     3.65     4.868683     20.40631     49.02851         5     0.846     0.483  47.33   0
       206    891.0709    517.3954 300.2839414 +22.7930300     480.9603     72.27408      1.540     3.41     4.758815     20.40631     56.42944         8     0.964     0.643   6.39   0
       207    796.8364    510.1489 300.2569148 +22.7627241     355.3608     72.34779      1.093     2.25     4.674076     20.40631     70.60552         8     0.807     0.593  42.50   0
       208    876.4195    507.5798 300.2825600 +22.7858211     1767.396     72.32937      1.395     2.50     4.713754     20.40631     232.0933        18     1.042     0.937  68.41   0
       209    747.6487    505.1118 300.2432199 +22.7465431      2528.26     72.32937      1.318     2.48     4.656988     20.40631     305.4749        22     1.006     0.978 -79.67   0
       210      6.5297    505.8631 300.0123865 +22.5245885     847.2949      72.3662      1.646     3.12     5.711954     20.40631     110.6261        15     1.150     0.886   6.03  16
       211    107.4809    505.1380 300.0439875 +22.5546624     312.6229     72.42142      1.308     4.27     5.144133     20.40631     51.70872         5     0.793     0.655  22.76   0
       212    991.7579    502.4009 300.3202151 +22.8188692     475.8832     72.32937      1.324     2.95     4.849384     20.40631     64.27198         9     0.883     0.746  82.26   3
       213    990.6834    498.1835 300.3212493 +22.8173350     684.7123     72.29251      1.505     3.37     4.853308     20.40631     73.61403        14     1.131     0.819  26.81   2
       214    957.3209    501.8777 300.3096423 +22.8084079     289.8436     72.43983      1.430     3.44     4.860106     20.40631     41.55065         5     0.979     0.350  42.89   0
       215    652.5483    501.7271 300.2146878 +22.7170803     532.9283     72.32937      1.558     3.66      5.11199     20.40631      53.9618         9     0.986     0.609 -88.27   0
       216    534.9807    500.8985 300.1783425 +22.6816137     747.9308     72.25564      1.311     2.36     5.371091     20.40631      128.972        11     0.898     0.754  84.43   0
       217   1004.9352    499.2117 300.3253617 +22.8218976     1387.425     72.27408      1.481     2.94     4.848728     20.40631     149.8634        17     1.049     0.964  15.72   0
       218    876.7764    497.3808 300.2859830 +22.7829966      2380.49     72.32937      1.746     4.19     4.714649     20.40631     238.6558        30     1.586     1.080  76.83   0
       219    630.0344    495.7146 300.2096270 +22.7086076     910.4565     72.29251      2.304     5.83      5.19492     20.40631     89.04533        10     1.498     0.639  59.92   2
       220    416.2320    495.5127 300.1431280 +22.6444764     316.5485     72.29251      1.241     3.41     4.748876     20.40631     44.56631         5     0.772     0.436 -22.63   0
       221    914.8641    492.6534 300.2993953 +22.7930434     4472.778      72.3662      1.433     2.49     4.827013     20.40631     608.6832        33     1.167     1.140 -80.75   0
       222    468.3111    494.1494 300.1597791 +22.6596947     422.5473     72.32937      1.353     3.28     5.221556     20.40631     55.57779         8     0.883     0.683 -25.95   0
       223    556.0853    492.0381 300.1877906 +22.6853933     268.5065     72.31094      1.262     4.05     5.365578     20.40631     43.51104         5     1.137     0.466  69.14   0
       224    575.9225    488.9001 300.1949866 +22.6904363     385.6798     72.49499      1.582     3.28     5.328808     20.40631      43.9622         7     0.860     0.555  45.06   0
       225   1006.5331    482.8900 300.3311598 +22.8176834      772.954     72.45821      1.519     4.18     4.866407     20.40631     79.21824        17     1.311     0.873 -88.09   0
       226    146.8454    482.9348 300.0634301 +22.5600973     972.2501     72.32937      1.590     3.23      5.10161     20.40631     111.6669        16     1.074     0.968   3.35   0
       227    413.4617    476.1018 300.1485678 +22.6380724     330.6048     72.42142      1.321     5.13     4.796276     20.40631     36.76266         9     1.097     0.679  20.31   0
       228   1003.0347    472.4219 300.3334671 +22.8136263     342.0684     72.34779      1.573     5.24     4.876732     20.40631     33.50998         9     0.978     0.793  20.48   0
       229    139.5356    472.9655 300.0643944 +22.5550442     418.1295     72.32937      1.447     3.63     5.102064     20.40631     49.65768         7     0.869     0.671 -22.59   0
       230    747.0961    466.7896 300.2554899 +22.7353658     401.8239     72.25564      1.431     4.79     4.656639     20.40631     44.45255         9     0.948     0.686  65.70   0
       231    636.1230    464.7267 300.2215841 +22.7015296     277.7238     72.43983      1.154     4.31      5.16188     20.40631     46.18355         7     0.864     0.612  21.46   0
       232    356.2415    465.5528 300.1341884 +22.6178917     379.7212     72.38462      1.706     3.46     4.848303     20.40631     40.37196         5     0.732     0.472 -16.20   0
       233    688.4062    463.1225 300.2383925 +22.7167317     854.2629     72.25564      1.269     2.57     4.947326     20.40631     113.4335        13     0.994     0.791 -13.09   0
       234   1002.8875    455.5696 300.3388924 +22.8087369        539.6     72.31094      1.418     2.73     4.891041     20.40631     81.67726        10     0.939     0.724 -57.34   0
       235    749.1125    455.4824 300.2597891 +22.7327204     857.2518     72.43983      1.305     2.62     4.657336     20.40631     100.8444        13     0.925     0.827  84.29   0
       236    906.4146    451.4937 300.3101233 +22.7786817     1017.296     72.25564      1.544     3.03     4.777545     20.40631     124.7928        15     1.029     0.923  -3.24   0
       237    890.7138    448.0666 300.3063396 +22.7729953      665.879     72.43983      1.321     2.84     4.734614     20.40631      104.976        12     1.023     0.754 -10.16   0
       238    864.6898    449.5719 300.2977361 +22.7656354     223.5131     72.31094      1.038     3.46      4.66466     20.40631     42.91863         5     0.788     0.439  20.44   0
       239    634.8879    445.8502 300.2273272 +22.6957364     3215.246     72.32937      1.303     2.24     5.159295     20.40631      514.528        24     1.046     0.948  63.60   0
       240    995.4585    444.7778 300.3400781 +22.8034100     528.4245     72.32937      1.492     4.04     4.893764     20.40631     64.83702        11     1.050     0.814   4.63   0
       241    640.5048    433.5965 300.2330544 +22.6938985     286.0152      72.2372      1.173     4.01     5.136881     20.40631       54.243         6     1.028     0.447 -55.37   0
       242    474.6803    433.1034 300.1815789 +22.6440719     340.5411     72.45821      1.158     3.84     5.355905     20.40631     51.93998         7     0.919     0.555 -34.52   0
       243    407.0630    433.4520 300.1604214 +22.6239074      212.146     72.38462      1.135     3.28     5.019991     20.40631     50.15294         5     0.755     0.432  23.56   0
       244    918.1030    424.6271 300.3224899 +22.7744577     485.4444     72.29251      1.277     2.98     4.788824     20.40631     82.35506         9     0.892     0.755  16.46   0
       245   1004.5600    423.6896 300.3497632 +22.8000709     821.4683     72.32937      1.414     2.69     4.922475     20.40631      117.857        15     1.025     0.950 -48.34   0
       246    654.4426    421.6907 300.2412607 +22.6946530     261.6415     72.32937      1.103     2.90      5.09458     20.40631     47.35602         7     0.867     0.566 -29.48   0
       247    745.6279    419.7805 300.2702923 +22.7214169     1077.932     72.32937      1.360     2.43      4.65629     20.40631     155.5294        14     0.970     0.854 -52.03   0
       248    541.2845    420.3867 300.2064418 +22.6603771     369.5068     72.27408      1.101     2.42     5.327559     20.40631     63.37432         7     0.760     0.598 -24.93   0
       249    249.6836    418.1002 300.1164472 +22.5723241     598.5586     72.49499      1.297     2.55     5.143635     20.40631     91.41874        10     0.904     0.669   7.76   0
       250     89.2292    415.8135 300.0673106 +22.5235563     378.3551     72.32937      1.562     3.44     5.169752     20.40631     42.45181         5     0.859     0.454 -43.66   0
       251    311.8712    413.6280 300.1372397 +22.5896826     3743.221     72.31094      1.381     2.52     5.067911     20.40631     524.1273        26     1.147     1.008  53.41   0
       252    259.0120    408.3147 300.1225240 +22.5723114      7731.26     72.27408      1.417     2.68     5.125422     20.40631     939.3997        35     1.218     1.105  62.87   0
       253   1023.8029    403.2421 300.3624041 +22.7999510      743.082     55.48116      1.070     2.98      4.97011     20.40631     189.6945         8     1.083     0.397  88.89  24
       254    399.8670    402.6096 300.1681925 +22.6128936     4936.235     72.32937      1.369     2.51     5.050437     20.40631     694.6597        34     1.187     1.099  45.18   0
       255    644.0610    399.4261 300.2452531 +22.6851458     18642.98     72.32937      1.273     2.27      5.01835     20.40631     2869.739        48     1.139     1.084  81.06   0
       256    491.2542    401.3231 300.1970530 +22.6399103     267.4783     72.36621      1.084     3.41     5.360562     20.40631     42.18789         5     0.761     0.442  14.28   0
       257    660.4843    400.5188 300.2500145 +22.6903793     665.2653     72.45822      1.773     3.36     4.994401     20.40631     65.35629         9     0.957     0.754  -6.95   2
       258    663.2493    398.5866 300.2515030 +22.6906523     627.4638     72.36621      1.904     2.68       4.9778     20.40631     63.24602         8     0.843     0.647 -57.68   3
       259    841.0677    389.8095 300.3097693 +22.7413830     262.3143     72.32937      1.229     2.48     4.580884     20.40631     55.95237         6     0.854     0.449  39.23   0
       260    263.9825    386.5062 300.1311472 +22.5675403     417.3217     72.25564      1.386     4.20     5.125157     20.40631     46.86144         6     1.013     0.496   4.08   0
       261    977.5663    381.9726 300.3548820 +22.7799947     848.8477     72.34779      1.613     3.76     4.873101     20.40631     84.65267        14     1.070     0.971 -11.08   0
       262    514.5391    381.6074 300.2107003 +22.6412237     324.8102     72.31094      1.405     2.74     5.307467     20.40631     55.60973         5     0.724     0.453 -68.48   0
       263    198.6753    379.4508 300.1131297 +22.5459365     2089.926     72.32937      1.367     2.61     5.136336     20.40631     259.3604        19     1.051     0.978  43.86   0
       264    998.3616    369.4575 300.3654312 +22.7826203      1143.48     72.32937      1.265     2.34     4.924094     20.40631     167.5259        14     0.915     0.835  -1.49   0
       265    584.6835    368.8199 300.2366916 +22.6585647     6620.548     72.27408      1.274     2.23     5.012151     20.40631     1039.517        30     1.091     0.983  56.42   0
       266    299.6989    368.2894 300.1481669 +22.5730159     598.3162     72.49499      1.191     2.07     5.092005     20.40631     102.3863         9     0.755     0.712  -7.82   0
       267    844.9003    360.8787 300.3203531 +22.7342136     334.3459     72.45821      1.350     2.47     4.473553     20.40631     51.71093         5     0.754     0.494 -48.27   0
       268    157.1877    361.4504 300.1060732 +22.5283308     349.8083     72.38462      1.219     2.60     5.030809     20.40631     62.23932         6     0.703     0.608 -42.45   0
       269      4.3612    359.0440 300.0593643 +22.4818135     1365.052     70.06471      1.627     3.33     5.097368     20.40631     163.7702        22     1.206     1.080  74.73  16
       270    789.0433    357.9442 300.3038923 +22.7166452     1119.711     72.32937      1.393     2.86     4.684792     20.40631     152.9196        16     1.004     0.945  19.04   0
       271    698.4585    359.0474 300.2753042 +22.6898354     645.9771     72.38462      1.390     3.17     4.710465     20.40631     80.48173        11     1.069     0.773 -11.48   0
       272    491.3286    355.0360 300.2120970 +22.6266363     6100.688     72.32937      1.291     2.33     5.305768     20.40631     812.5725        28     1.105     0.988  49.67   0
       273    883.2977    349.5411 300.3360047 +22.7424497     1581.627     72.40302      1.376     2.35     4.447816     20.40631     219.4374        18     1.100     0.895  72.32   0
       274    980.9249    349.9380 300.3663257 +22.7717878     629.1075     72.38462      1.367     3.53     4.877838     20.40631      91.2751         9     1.008     0.735 -28.50   0
       275    476.2609    343.6386 300.2111047 +22.6188476     531.7803     72.32937      1.170     2.72     5.205142     20.40631     85.23032         8     0.848     0.728 -22.94   0
       276    558.4415    341.8630 300.2372667 +22.6429581     504.4912     72.31094      1.307     2.60     5.064102     20.40631     66.98342         9     0.893     0.625  15.95   0
       277      2.8118    340.4386 300.0649194 +22.4760097     1101.151     64.08492      1.591     3.44     5.123161     20.40631     113.4651        18     1.170     1.009  18.28  24
       278    539.0212    339.9744 300.2318324 +22.6365978     257.9588     72.31094      1.242     2.22     5.137252     20.40631     50.14509         5     0.624     0.559   0.41   0
       279    856.1134    337.1978 300.3315335 +22.7307624     627.5645     72.25564      1.455     2.69     4.463954     20.40631     78.46989        10     0.894     0.724  29.36   0
       280    137.4033    336.3054 300.1080819 +22.5151810     290.1358      72.2372      1.325     4.22     5.026785     20.40631     35.02641         7     1.137     0.446  29.61   0
       281    378.8800    334.2623 300.1838405 +22.5869749     2521.467     72.42142      1.305     2.40     5.041563     20.40631     356.9204        23     1.042     0.973  85.09   0
       282     97.5002    331.8511 300.0971254 +22.5019386     1068.134     72.42142      1.459     2.54     5.013605     20.40631     144.4373        16     1.063     0.869  28.87   0
       283    726.6986    329.2706 300.2937658 +22.6897343     193.5997     72.45822      1.000     2.01     4.665056     20.40631     56.95844         5     0.699     0.429 -12.23   0
       284    348.2215    323.6681 300.1777390 +22.5747446     29991.29     72.32937      1.351     2.48     5.186026     20.40631     3996.681        59     1.238     1.142  50.06   0
       285    882.9503    321.3531 300.3450427 +22.7342408     1306.936     72.36621      1.293     2.33     4.570176     20.40631     192.5681        19     0.991     0.975  14.79   0
       286    838.3802    319.3499 300.3317955 +22.7203219     286.8495     72.31094      1.264     3.70     4.609191     20.40631     54.84118         6     1.020     0.449  35.92   0
       287     44.4835    311.4180 300.0872802 +22.4801771     4969.367     72.29252      1.607     3.03     5.243536     20.40631     607.3691        34     1.270     1.235  48.57   0
       288    798.2777    310.2845 300.3222349 +22.7057093     530.1138     72.43983      1.271     2.75     4.721035     20.40631     67.03578         9     0.896     0.678  -1.28   0
       289    446.8492    308.9586 300.2132016 +22.6000729     671.6818      72.3662      1.405     4.51     4.966351     20.40631     86.03743        12     1.177     0.746  49.17   0
       290    222.5871    310.0534 300.1430805 +22.5331806      374.331     72.34779      1.217     2.57     5.390817     20.40631     65.95315         8     0.830     0.615   1.57   0
       291    758.7236    303.5504 300.3120910 +22.6919304     2108.776     72.32937      1.357     2.37      4.70925     20.40631     277.2553        24     1.126     1.043  26.19   0
       292    566.6599    298.2574 300.2539733 +22.6328904     503.9392     72.40302      1.549     2.73     4.786231     20.40631     54.47536         6     0.835     0.469  47.92   0
       293    973.7526    296.5793 300.3814012 +22.7542954     551.5705     72.36621      1.221     2.23     4.948612     20.40631     88.91138        10     0.843     0.717  86.47   0
       294    420.4517    288.0882 300.2117565 +22.5861684     2134.005     72.34779      1.400     2.89     5.089416     20.40631     279.1541        22     1.289     0.852  63.48   0
       295    632.7275    286.9811 300.2782082 +22.6494377     247.6639     72.32937      1.189     1.83     4.725981     20.40631      75.6205         5     0.701     0.406  71.40   0
       296    852.1041    281.8789 300.3482310 +22.7136564      364.105     72.43983      1.412     4.11     4.734804     20.40631      39.8252         6     1.009     0.585  -8.92   0
       297    859.8619    280.9814 300.3509410 +22.7157206     600.0235     72.31094      1.245     2.35     4.736564     20.40631     88.46871        10     0.837     0.727 -75.52   0
       298    741.7021    278.8382 300.3148030 +22.6797297     462.9536     72.32937      1.281     1.99     4.735562     20.40631     75.22314         7     0.768     0.555 -55.28   0
       299    710.2676    277.6392 300.3053962 +22.6699728      316.923     72.29251      1.152     3.38     4.734037     20.40631     49.62299         5     0.911     0.426  81.35   0
       300    496.3401    267.5027 300.2420550 +22.6029893     1166.492     72.40302      1.316     2.51     4.750416     20.40631     148.3942        15     0.997     0.837  67.04   0
       301    741.1314    259.3426 300.3209491 +22.6739542     2213.998     72.34779      1.284     2.15     4.743513     20.40631     323.4746        21     1.066     0.965  42.25   0
       302   1002.5178    253.7646 300.4042643 +22.7505887     3205.995     72.29251      1.502     2.74     5.114885     20.40631     400.4886        28     1.226     1.101  67.14   0
       303    449.5688    243.0963 300.2354120 +22.5819658     590.1147     72.27408      1.174     2.53     4.984923     20.40631      80.0723        10     0.871     0.694  29.75   0
       304    155.2456    237.2220 300.1457677 +22.4920831     585.8574     72.36621      1.293     3.51     5.411541     20.40631     93.21764        12     1.175     0.751 -35.77   0
       305    124.2480    237.1505 300.1361559 +22.4827711      1471.01     72.36621      1.755     4.11     5.291599     20.40631     140.9368        24     1.278     1.234  -7.16   0
       306   1018.3764    234.5342 300.4154498 +22.7498021     472.8481     72.31094      1.371     3.12     5.120738     20.40631      60.5407         9     0.898     0.730  -4.19  16
       307    872.1582    234.1777 300.3699568 +22.7059419     341.7912      72.3662      1.606     4.40     4.928131     20.40631     30.09778         5     0.797     0.692 -47.24   0
       308    861.9886    231.4852 300.3676590 +22.7021237     413.2629     72.27408      1.504     3.14     4.921924     20.40631     43.86167         6     0.778     0.500  -0.08   0
       309    208.4358    229.2847 300.1648779 +22.5057462     443.4908     72.31094      1.241     3.30     5.514548     20.40631     68.76575         8     0.966     0.597 -36.70   0
       310   1003.2287    227.3406 300.4130567 +22.7432001      425.813     72.32937      1.640     2.64     5.104136     20.40631     48.64025         5     0.692     0.469   7.97   0
       311     63.4256    226.1453 300.1208231 +22.4613786     328.5755      72.3662      1.366     4.58     5.219488     20.40631     52.32816         6     0.844     0.705 -59.18   0
       312    812.9767    220.8304 300.3558339 +22.6843893       607.98     72.32937      1.180     2.27     4.906166     20.40631     104.6469        11     0.900     0.715 -73.38   0
       313    403.1512    220.5604 300.2282747 +22.5615854     406.3231      72.3662      1.416     5.42     5.326187     20.40631      42.7878         9     1.053     0.788 -15.75   0
       314    903.3989    214.2429 300.3861643 +22.7095586      348.073     72.31094      1.289     2.57     5.114098     20.40631     41.81765         5     0.711     0.453  70.27   0
       315     87.6494    212.8448 300.1326635 +22.4648218     233.9763      72.3662      1.251     3.98     5.269892     20.40631     37.54644         5     1.079     0.473  86.18   0
       316    911.0417    209.8188 300.3899827 +22.7105734     2083.499     72.34779      1.395     2.79     5.155929     20.40631     287.2887        22     1.078     1.023  58.25   0
       317    329.5397    207.1987 300.2097042 +22.5356927     2175.381     72.29251      1.346     2.38     5.469177     20.40631     283.6224        22     1.146     0.975  66.73   0
       318    407.3979    202.3403 300.2355047 +22.5576228     1058.386     72.31094      1.426     2.72     5.360503     20.40631     118.4393        15     0.995     0.896 -32.68   0
       319    809.4415    201.5322 300.3609903 +22.6777816     492.8173     72.31094      1.230     2.56     4.974253     20.40631     77.97705        13     0.927     0.845  42.36   0
       320    159.3826    202.4369 300.1583338 +22.4833346     287.5802     72.32937      1.231     3.46     5.552515     20.40631      40.8927         6     0.817     0.556 -45.19   0
       321    916.3468    198.8580 300.3951918 +22.7090083     287.6393     72.38462      1.067     2.29     5.233846     20.40631     55.41996         5     0.692     0.459 -75.90   0
       322    454.2291    198.8482 300.2512122 +22.5706479     400.8719     72.34779      2.003     4.69     5.159831     20.40631      38.0957         6     1.028     0.669  85.92   0
       323    224.1665    194.3503 300.1810974 +22.5004276     906.8649      72.3662      1.498     3.34     5.575804     20.40631     90.29666        15     1.066     0.930 -44.09   0
       324      5.5254    195.8280 300.1126649 +22.4353172     474.0653     72.34779      1.544     3.51     5.207003     20.40631     35.53818         5     0.971     0.366  -5.82  16
       325    342.1090    193.7457 300.2179768 +22.5355939     299.6474     72.38462      1.288     4.28     5.459833     20.40631     36.49277         7     0.880     0.592  24.53   0
       326    762.1071    191.3760 300.3495292 +22.6606921     1716.478     72.25564      1.271     2.20     4.951092     20.40631     250.6095        22     1.017     0.979 -73.21   0
       327     77.3384    191.7661 300.1362941 +22.4556791     206.0339     72.34779      1.133     2.57     5.338522     20.40631     40.43736         5     0.736     0.432 -71.19   0
       328    827.1294    190.7972 300.3699856 +22.6799887     464.3721     72.27408      1.248     3.57     5.084016     20.40631     79.57809         9     1.043     0.626  84.93   0
       329    245.8758    187.7350 300.1899932 +22.5050331     553.8903     72.40302      1.318     3.03     5.576332     20.40631     84.77494        11     0.979     0.764  57.14   0
       330    766.2540    182.9261 300.3535617 +22.6595037     800.9832     72.34779      1.349     2.34     4.989591     20.40631     113.0195        12     0.861     0.827  -5.06   0
       331    535.7670    183.6337 300.2815296 +22.5906969        177.2     72.40302      1.048     2.59     4.864367     20.40631     43.84349         5     0.702     0.464  14.12   0
       332    686.5998    181.9737 300.3290481 +22.6353842     1158.378     72.29251      1.243     2.25     4.851392     20.40631     186.0829        14     0.891     0.839  35.38   0
       333    507.7821    178.9997 300.2743190 +22.5809840     396.0353     72.25564      1.279     4.58     5.054458     20.40631      56.2226         7     0.966     0.617 -76.52   0
       334    882.1740    173.5107 300.3927540 +22.6914910     1469.198     72.27408      1.309     2.44     5.372947     20.40631     211.4796        17     0.968     0.934  63.77   0
       335    612.8310    173.6497 300.3087663 +22.6109042     1091.369      72.3662      1.366     3.00     4.736523     20.40631      164.766        15     1.062     0.855  75.70   0
       336    894.1249    172.7376 300.3967316 +22.6948450      797.405     72.38462      1.288     2.13     5.385953     20.40631     137.9769        14     0.939     0.877  26.24   0
       337   1010.9445    162.8959 300.4363627 +22.7269680     1181.916     72.42142      1.496     2.82     5.287726     20.40631     132.7059        15     1.082     0.902 -80.59   0
       338     34.6030    159.5206 300.1334699 +22.4336107     542.8372      72.2372      1.559     3.17     5.298186     20.40631     56.15261         9     0.865     0.798  65.19   0
       339    245.0862    155.8529 300.2000845 +22.4956389     644.4152      72.3662      1.279     2.66     5.617607     20.40631     97.35382        11     0.931     0.733  76.34   0
       340    106.6888    150.5468 300.1587791 +22.4526408     2326.421     72.34779      1.585     2.96     5.551168     20.40631     273.4248        25     1.228     1.049  47.76   0
       341    930.0169    147.6532 300.4160588 +22.6983694     774.1304     72.31094      1.495     2.80     5.495868     20.40631     108.2029        14     1.007     0.925  80.26   0
       342     56.2589    147.7020 300.1440299 +22.4367087      566.244     72.42142      1.756     4.10      5.38119     20.40631     59.52875         8     1.045     0.606   8.64   0
       343    264.1297    143.9308 300.2098719 +22.4979202     5744.149     72.38462      1.413     2.84     5.589506     20.40631     653.5576        33     1.233     1.096  64.75   0
       344     48.3194    138.3389 300.1445982 +22.4316405      1400.48     72.40302      1.575     3.28     5.353117     20.40631     148.1884        19     1.146     1.028  28.08   0
       345    247.6149    135.0501 300.2076148 +22.4904209     640.4063     72.36621      1.497     3.32     5.596803     20.40631     76.37742        12     1.062     0.778  20.66   0
       346     80.4106    133.1803 300.1562422 +22.4397779     230.7429     72.31094      1.432     3.51     5.491156     20.40631     29.07555         5     0.781     0.456  73.14   0
       347    908.3266    125.5899 300.4164469 +22.6855321     3472.982     72.32937      1.397     2.61     5.536147     20.40631     491.3074        27     1.166     1.058  78.97   0
       348   1012.0901    124.4054 300.4491995 +22.7162357     2812.548      72.2372      1.473     2.61     5.471344     20.40631     402.7967        28     1.196     1.123 -65.77   0
       349    457.7223    120.9299 300.2775618 +22.5493024     522.8328     72.43983      1.353     2.77      5.43558     20.40631     94.16632        12     1.038     0.740  49.50   0
       350    210.9310    121.0916 300.2007324 +22.4754198      271.476     72.45821      1.276     2.49     5.620585     20.40631     56.21255         7     0.856     0.498 -50.83   0
       351    381.9861    112.4458 300.2567416 +22.5241807     721.6342     72.34779      1.875     3.16     5.565729     20.40631     94.70837         8     1.005     0.682  68.70   0
       352    386.1632    111.0446 300.2584956 +22.5250292     409.4609     72.38462      1.260     2.60     5.568031     20.40631     53.57412         5     0.791     0.468  30.09   0
       353    148.0623    109.5852 300.1849168 +22.4532763     808.0671     72.29251      1.795     3.45     5.612893     20.40631     71.64951        12     1.092     0.706 -30.56   0
       354    509.1467    108.0866 300.2977335 +22.5610109     1867.839      72.3662      1.344     2.47     5.316261     20.40631     238.8651        21     1.120     0.897  63.92   0
       355    437.1415    108.5183 300.2751792 +22.5395716      464.977     72.38462      1.326     2.74     5.507282     20.40631     54.35596         6     0.759     0.495   6.84   0
       356    570.9927    107.3560 300.3172280 +22.5793194     436.1026     72.34779      1.477     2.63     5.256783     20.40631      50.9645         7     0.724     0.645  15.01   0
       357    332.8378    104.0324 300.2441771 +22.5070413     364.2031      72.3662      1.528     3.52      5.55269     20.40631     41.04931         7     0.856     0.649 -34.57   0
       358    252.1939    103.2723 300.2193395 +22.4826640     406.0053     72.27408      1.357     5.00     5.559527     20.40631     48.76392         9     1.091     0.720  85.94   0
       359    725.8865    101.9889 300.3672212 +22.6241456     285.4696     72.27408      1.389     3.75     5.463853     20.40631     36.17546         5     0.650     0.621  -1.95   0
       360    797.5192     97.8176 300.3908998 +22.6443850      258.986     72.32937      1.074     1.94     5.507823     20.40631     53.72688         5     0.672     0.461  66.79   0
       361    283.1090     87.7680 300.2339797 +22.4874714      6089.86     72.27408      1.450     2.74     5.480896     20.40631     735.7797        37     1.325     1.085  71.09   0
       362    789.4625     88.6288 300.3913668 +22.6393309     241.5923     72.32937      1.071     2.85     5.481538     20.40631     53.56345         6     0.840     0.478  -6.01   0
       363    134.0919     87.2595 300.1878103 +22.4426777     881.6907     72.40302      1.882     3.83     5.597492     20.40631     84.82512        13     1.117     0.987  49.16   0
       364    912.7032     85.5148 300.4308027 +22.6753122     399.0937     72.51337      1.541     2.62     5.568195     20.40631     49.01347         5     0.707     0.442 -25.08   0
       365    255.0818     81.9192 300.2271585 +22.4773947     227.7155     72.49499      1.160     3.43     5.528458     20.40631     52.83931         7     0.917     0.706  79.21   0
       366    758.9910     79.0559 300.3849717 +22.6274582      331.595     72.32937      1.038     2.55     5.549207     20.40631     49.18592         5     0.635     0.566  89.66   0
       367    298.7737     79.3383 300.2415842 +22.4897419     250.6232     72.32937      0.944     2.56     5.490697     20.40631      50.5517         5     0.752     0.415 -21.31   0
       368     45.5780     78.1562 300.1632530 +22.4135374     366.6964     72.38462      1.687     2.45      5.41324     20.40631     39.78429         5     0.715     0.444 -67.36   0
       369    529.2473     73.2061 300.3152975 +22.5570030     6325.986     72.32937      1.314     2.45      5.34299     20.40631     835.5583        34     1.181     1.051  85.57   0
       370    414.6468     73.1057 300.2796562 +22.5226571     547.0888     72.34779      1.129     2.17     5.609331     20.40631     100.3332        11     0.874     0.713 -15.91   0
       371    781.6083     63.6365 300.3970189 +22.6297918     829.8527     72.32937      1.532     4.74     5.425028     20.40631     94.36766        15     1.586     0.780 -80.31   0
       372    722.8668     64.3897 300.3784669 +22.6124286     296.2385     72.32937      1.417     4.17      5.71518     20.40631      39.4175         9     0.998     0.797  44.90   0
       373    873.8784     61.9968 300.4263174 +22.6569298     346.9612      72.2372      1.419     3.72     5.346873     20.40631      54.7578         9     0.996     0.791  33.84   0
       374    222.0317     57.0654 300.2249354 +22.4603530     490.0736     72.32937      1.381     2.38     5.523836     20.40631     75.87563         9     0.795     0.712 -48.01   0
       375    580.9075     55.4485 300.3371397 +22.5673645     434.9944     72.36621      1.444     3.34     5.372604     20.40631      51.7836         8     0.929     0.743  62.04   0
       376    657.6714     53.3371 300.3617351 +22.5897365     6271.293     72.36621      1.313     2.32     5.680887     20.40631     869.0693        32     1.157     1.037  63.53   0
       377    432.5959     52.2693 300.2919950 +22.5220436     1521.692     72.29251      1.366     2.52     5.549109     20.40631     182.6869        20     1.035     0.990  75.23   0
       378    768.4581     48.6897 300.3977641 +22.6215572     450.2512     72.40302      1.951     5.25     5.519876     20.40631     44.09787         9     1.644     0.474 -84.39   0
       379    698.8309     50.8378 300.3753691 +22.6013373     850.9732     72.32937      1.270     2.36     5.792522     20.40631     136.5358        13     0.902     0.851  52.79   0
       380    714.6717     46.7986 300.3816142 +22.6049166     632.2464     72.21875      1.403     2.22     5.826073     20.40631     102.2099         9     0.895     0.610  11.30   0
       381    984.7460     44.3665 300.4666116 +22.6850238     525.8313     72.34779      1.409     3.10     5.598691     20.40631     66.36667         8     0.886     0.683 -72.82   0
       382    181.3381     44.7889 300.2162610 +22.4446346      735.217     72.27408      1.684     3.06     5.496533     20.40631     82.59911        11     1.090     0.701  24.62   0
       383    753.4068     42.2791 300.3951504 +22.6152090     467.6515     72.25564      1.130     4.08     5.687043     20.40631     65.36238         9     1.126     0.663 -12.36   0
       384    716.9193     37.3557 300.3853747 +22.6028733     907.4979     72.31094      1.756     4.71     5.894618     20.40631     91.97642        13     1.490     0.626  53.08   0
       385    701.8270     38.1272 300.3804217 +22.5985784     2802.738     72.32937      1.360     2.61     5.886209     20.40631     398.5811        25     1.203     0.952  72.57   0
       386    342.5724     39.1827 300.2682226 +22.4913221     496.3677     72.32937      1.298     3.55     5.598271     20.40631     51.54966         7     0.876     0.578 -14.37   0
       387    788.3231     29.7970 300.4100786 +22.6220671     1413.283      72.2372      1.322     2.69     5.251739     20.40631     199.8425        18     1.103     0.923  80.09   0
       388    948.8522     28.4420 300.4605749 +22.6697044     289.5544     72.32937      1.416     4.50     5.574776     20.40631     40.55524         7     1.160     0.496   1.70   0
       389    866.0805     24.4535 300.4360526 +22.6437952      256.527      72.3662      1.297     4.26     5.037985     20.40631     34.60059         5     0.795     0.651  77.53   0
       390    726.2040     23.1322 300.3928772 +22.6015610     795.7332     72.31094      1.309     2.86     5.987798     20.40631     97.51882        15     1.045     0.879   2.97   0
       391    531.9736     22.2039 300.3326745 +22.5431565     1068.052     72.29251      1.367     2.94     5.340763     20.40631     147.5864        17     1.019     0.918 -76.34   0
       392    104.9178     22.2279 300.1998164 +22.4152569     458.3322     72.32937      1.373     3.93     5.524065     20.40631     65.70567         9     1.156     0.622 -38.69   0
       393    435.7843     20.4890 300.3032857 +22.5138635     797.9186     72.25564      1.349     2.12     5.543105     20.40631     120.8239        12     0.902     0.795 -35.11   0
       394    818.3250     19.2738 300.4228413 +22.6280169      501.357     72.40302      1.436     2.89     5.001152     20.40631      69.3959         8     1.024     0.509 -19.32   0
       395    331.4107   1019.0286 299.9465847 +22.7692494     860.1429     72.32937      1.819     4.46     13.61541     20.40631     66.20791        18     1.270     1.133 -77.74  16
       396    166.6782   1013.6580 299.8971123 +22.7182612      1245.28     72.36621      3.158     9.83     93.98726     20.40631     56.79849        20     1.713     1.574 -46.34  18
       397    183.2048   1015.8105 299.9015488 +22.7238398     4.950398     72.18183      1.419     3.49     93.73399     20.40631     25.50645         5     1.016     0.345  45.85   0
       398    216.4848   1008.9345 299.9141314 +22.7318595     1048.103     72.43983      3.032     9.15     83.70705     20.40631     44.23586        19     2.413     0.968 -75.95  19
       399    212.1525   1012.6112 299.9115883 +22.7316129     995.2744     72.34779      2.838     9.27     87.53752     20.40631      46.2214        19     1.773     1.352  16.63  19
       400    212.3252   1007.5410 299.9132916 +22.7302113     1074.574     72.38462      3.573     7.32     83.34497     20.40631     61.09688        19     1.717     0.873 -35.94   3
