#   1 NUMBER                 Running object number                                     
#   2 X_IMAGE                Object position along x                                    [pixel]
#   3 Y_IMAGE                Object position along y                                    [pixel]
#   4 ALPHA_J2000            Right ascension of barycenter (J2000)                      [deg]
#   5 DELTA_J2000            Declination of barycenter (J2000)                          [deg]
#   6 FLUX_APER              Flux vector within fixed circular aperture(s)              [count]
#   7 FLUXERR_APER           RMS error vector for aperture flux(es)                     [count]
#   8 FLUX_RADIUS            Fraction-of-light radii                                    [pixel]
#   9 FWHM_IMAGE             FWHM assuming a gaussian core                              [pixel]
#  10 BACKGROUND             Background at centroid position                            [count]
#  11 THRESHOLD              Detection threshold above background                       [count]
#  12 FLUX_MAX               Peak flux above background                                 [count]
#  13 ISOAREA_IMAGE          Isophotal area above Analysis threshold                    [pixel**2]
#  14 A_IMAGE                Profile RMS along major axis                               [pixel]
#  15 B_IMAGE                Profile RMS along minor axis                               [pixel]
#  16 THETA_IMAGE            Position angle (CCW/x)                                     [deg]
#  17 FLAGS                  Extraction flags                                          
         1    836.4340     14.9820 300.4260062 +22.6182525     721.0231     72.71357      1.771     5.58     4.247003     20.51471     60.80855        15     1.338     0.848  65.90   0
         2    856.3279     11.2901 300.4334031 +22.6231426     2248.225     72.88007      1.477     2.68     4.260453     20.51471     264.5534        24     1.200     1.010 -86.69   0
         3    561.8748      9.8438 300.3421503 +22.5346012     439.3889     72.69505      1.272     2.04     4.694783     20.51471     71.77608         8     0.742     0.658 -50.21   0
         4    239.7836      6.5666 300.2430154 +22.4372032     1091.372     72.69505      1.643     3.03     4.422177     20.51471     120.0088        20     1.268     1.013  -1.05  16
         5    804.8961      4.0077 300.4197337 +22.6056586     809.5334     69.16348      1.451     2.93     4.283989     20.51471     103.2788        13     1.081     0.768  43.88  16
         6    511.9456      2.0225 300.3291434 +22.5174044     370.1137     60.50135      1.314     1.94     4.488746     20.51471     52.47692         5     0.596     0.562  88.18  24
         7    295.9273   1023.0326 299.9304098 +22.7457854     869.1747     60.12175      5.788     9.40     64.08601     20.51471     57.07439        17     1.890     1.303 -23.25  27
         8    266.2792   1009.9979 299.9254349 +22.7331488     3946.086     72.62091      7.906    32.53     61.76593     20.51471     88.21407       300     6.067     5.133  52.36  19
         9    285.7335   1008.3305 299.9320248 +22.7385104     4679.199     72.76911      8.325    23.24     60.86989     20.51471     90.10474       336     5.494     4.770 -53.46  19
        10    304.6833    998.0290 299.9412677 +22.7412447     7344.047     72.71357      8.437    34.20     41.52283     20.51471     150.6396       696    10.674     4.707  64.47  18
        11    238.0130   1019.3512 299.9136058 +22.7273450     3712.944      72.7506      6.650    22.95     66.27251     20.51471      76.1544       203     4.734     4.061 -34.42  27
        12    142.8059    940.3235 299.9097321 +22.6761089     3583.908     72.62091     16.350    50.91     15.72286     20.51471     153.8457       828    10.723     6.707 -34.21   3
        13    144.3164   1017.0984 299.8852242 +22.6985689     5071.517     72.88007     11.252    40.44     51.65472     20.51471     102.7479       713     9.964     6.076   8.92  27
        14    141.9546    977.5051 299.8973723 +22.6865114     4615.022     72.73209     23.956    80.67     32.60706     20.51471     120.0453      3118    17.953    15.254 -28.08  27
        15    626.2872    968.2924 300.0509978 +22.8292097     1465.193     72.88007      1.736     3.84      2.65595     20.51471        120.8        21     1.205     1.126  60.01   0
        16    519.9384    964.9191 300.0189930 +22.7963408     893.2691     72.80611      1.780     5.79      2.66722     20.51471     66.87279        17     1.357     1.012 -63.59   0
        17    450.7304    962.7286 299.9981722 +22.7749488      6493.31     72.78762      1.857     3.96     3.015541     20.51471     453.8197        46     1.465     1.408 -44.38   0
        18    800.0404   1011.3362 300.0911076 +22.8936705     750.9167     72.67652      2.174     7.13     1.485335     20.51471      49.8023        16     1.229     1.157  23.61   0
        19    991.7697    994.6476 300.1563003 +22.9463581     770.0547     72.73209      1.899     6.61     2.583268     20.51471     48.89512        16     1.220     1.005 -11.99   0
        20    226.7115   1020.5763 299.9096948 +22.7243034     1133.437     70.51332      5.220    10.21     66.86506     20.51471     44.21285        27     2.349     1.236 -61.96  27
        21    483.5626    949.6651 300.0126367 +22.7810519     424.9442     72.69505      1.586     4.14     2.730994     20.51471      42.0938         6     1.059     0.463   5.56   0
        22    182.4553    945.1102 299.9204941 +22.6893837     946.7943      72.7506      3.575     3.41      23.3892     20.51471     32.55209         5     1.281     0.262  35.35   0
        23    996.3176    941.9935 300.1748508 +22.9326002     1584.943     72.63945      1.785     4.75     2.905075     20.51471     97.96944        18     1.498     0.936  69.50   3
        24    998.6533    941.3417 300.1757912 +22.9331130     1237.156     72.76911      1.752     4.83     2.915548     20.51471      91.4728        17     1.421     0.820  60.67   3
        25    196.0520    980.1205 299.9133298 +22.7035020     1576.386     72.71357      9.347    13.46     43.69805     20.51471     38.13619        36     2.508     2.008 -53.43   2
        26    233.7483   1001.1172 299.9182133 +22.7208375     2160.727      72.7506      5.970    16.37     55.87822     20.51471     53.36404        65     3.614     2.063  76.04   3
        27    218.8861    984.4652 299.9190122 +22.7116023     409.5182     72.80612      1.794     3.80      46.4495     20.51471     34.09202         5     1.258     0.329 -48.62   0
        28    647.1436    938.7587 300.0670996 +22.8269899     385.1181     72.69505      1.800     4.54     2.751101     20.51471     33.88411         7     1.049     0.559 -73.17   0
        29    495.7483    937.5063 300.0203836 +22.7812196     416.4714     72.78762      1.604     5.01     2.773875     20.51471     34.77135         6     1.142     0.622 -41.78   0
        30    785.9595    930.3615 300.1130668 +22.8662049     769.6584     72.78762      1.923     6.84     3.437922     20.51471       52.573        16     1.532     0.855  62.48   0
        31    820.6835    924.4747 300.1258011 +22.8749252     1013.876     72.80612      1.880     5.20     3.580515     20.51471     64.77331        22     1.344     1.203 -40.75   0
        32    597.9006    925.9355 300.0559401 +22.8085414     463.8191     72.80611      2.273     5.21     2.775041     20.51471     38.71424         8     1.126     0.682  -4.46   0
        33    842.9409    918.3372 300.1347334 +22.8798355     11384.06      72.7506      1.871     3.99     3.582615     20.51471     655.2802        55     1.521     1.451 -36.84   0
        34     30.6556    921.5206 299.8810144 +22.6370481     657.4052      72.7506      1.869     5.27     2.894644     20.51471     58.72067        11     1.314     0.608  55.52   0
        35    888.5827    918.3153 300.1489654 +22.8935106     501.4162     72.67652      1.887     4.20     3.401261     20.51471     45.83118         8     1.112     0.717  19.65   0
        36    154.1743    909.7563 299.9232063 +22.6707588     861.2842     72.73209      2.805     5.40     9.870412     20.51471     60.28634        16     1.384     1.044  13.39   0
        37    548.4315    906.1897 300.0469650 +22.7880378     356.3268     72.71357      1.632     3.98     2.822743     20.51471     39.48627         6     0.918     0.673 -61.05   0
        38    212.0994    979.9697 299.9183657 +22.7082762     1786.578     72.67652      5.767    13.24     44.08451     20.51471     52.62605        38     3.002     1.625  33.44   2
        39    851.4954    900.4771 300.1432089 +22.8772717      1392.77      72.8431      1.801     4.45     3.590984     20.51471     100.8154        21     1.294     1.121   9.54   0
        40    894.4148    906.4402 300.1546462 +22.8918488     337.6444     72.73209      1.531     4.78     3.414243     20.51471     48.13939         7     1.004     0.866   5.10   0
        41    889.6116    893.7972 300.1572614 +22.8867786     849.1719     72.52812      2.224     5.65     3.480512     20.51471     58.98829        16     1.243     1.070   9.73   0
        42    937.6344    885.1356 300.1750489 +22.8986841     477.2455     72.71357      1.851     7.10     3.403307     20.51471     45.52629        11     1.453     1.017  13.96   0
        43    789.4178    883.8075 300.1292872 +22.8538766     644.5559     72.67652      1.892     6.14     3.610316     20.51471     44.59255        14     1.157     1.129  25.24   0
        44    800.7417    881.2820 300.1336368 +22.8565462     552.7403     72.78762      1.643     6.33     3.652397     20.51471     43.31725        12     1.083     1.038  35.50   0
        45    501.9418    880.4717 300.0408620 +22.7667139     4083.908      72.7506      1.710     3.61     2.857708     20.51471     313.4778        35     1.318     1.285  -9.77   0
        46    563.5599   1000.2075 300.0210872 +22.8195507     337.0993      72.7506      1.661     4.67     2.540548     20.51471     29.35894         6     1.327     0.466  22.12   0
        47    545.1391    868.4893 300.0582018 +22.7762322     386.5939     72.80612      1.587     4.12     2.869643     20.51471     37.74996         6     0.982     0.494   5.05   0
        48    164.6822    868.5983 299.9398561 +22.6621126     412.8216     72.62091      1.753     3.51      5.06381     20.51471     36.94067         5     0.771     0.461  15.69   0
        49    227.2554    866.2831 299.9600537 +22.6802288     898.8365     72.76911      1.925     5.85     5.050882     20.51471     78.27934        16     1.315     0.996   1.97   0
        50    204.3058    863.1254 299.9539483 +22.6724357     1390.849     72.86159      1.679     3.53     4.717737     20.51471     135.1874        26     1.309     1.220  38.44   0
        51    717.8242    977.6574 300.0764550 +22.8593501       6727.2     72.71357      1.918     4.12     2.674372     20.51471     398.0639        49     1.523     1.466  33.70   0
        52    736.0043    850.6156 300.1234422 +22.8283345     425.4941     72.58381      1.798     5.03     3.596699     20.51471     34.02671         6     1.023     0.727  -5.68   0
        53    813.6588    844.5828 300.1495969 +22.8498808       551.65     72.65799      1.413     5.33     3.666295     20.51471     51.87601        11     0.984     0.815 -80.34   0
        54    235.5861    845.4630 299.9694129 +22.6767582     271.2732     72.67652      1.354     4.31     4.430634     20.51471     42.60246         6     1.153     0.459 -10.64   0
        55    561.9409    843.3959 300.0715914 +22.7740700     300.5782     72.67652      1.419     3.95     3.028905     20.51471     30.45985         5     0.912     0.489  -0.40   0
        56    681.9431    838.5718 300.1105211 +22.8086690     4694.397     72.71357      1.607     3.30     3.292722     20.51471     392.6556        36     1.295     1.231  -7.91   0
        57    172.2318    839.3753 299.9517041 +22.6559992     511.7086     72.71357      1.666     3.21     4.182082     20.51471     49.13546         5     0.762     0.420  22.26   0
        58    484.2660    835.6611 300.0499341 +22.7485543     690.7306      72.7506      1.714     4.73     3.171937     20.51471     77.79442        10     1.128     0.829 -77.66   0
        59    232.0842    832.3254 299.9725962 +22.6719396     1498.396     72.80612      1.953     5.10     4.185845     20.51471     122.9934        23     1.452     1.141   3.58   0
        60    702.1833    831.1318 300.1192439 +22.8126014     670.6272     72.71357      1.580     3.97     3.426126     20.51471     78.64198        12     1.055     0.830   1.56   0
        61    251.5541    829.5916 299.9795366 +22.6769981      370.109     72.73209      1.533     4.01      4.09586     20.51471     54.89365         7     0.849     0.832  67.75   0
        62    858.0831    818.3295 300.1719777 +22.8556566     4139.146      72.8431      1.659     3.41     3.657922     20.51471     300.0583        35     1.322     1.258  84.34   0
        63    575.0355    810.6702 300.0863082 +22.7686044     660.0167     72.71357      1.556     3.28      3.18627     20.51471     61.85017        12     1.034     0.785  27.90   0
        64    221.4750    808.7127 299.9769759 +22.6619840     1063.323      72.8431      1.825     4.53     3.732304     20.51471     92.83641        20     1.472     0.933 -40.01   0
        65    636.7253    804.2811 300.1075906 +22.7852680     447.9933     72.82462      1.748     5.46     3.301246     20.51471     43.58384         9     1.018     0.825  33.47   0
        66    370.9949    800.8322 300.0260227 +22.7045841     53427.98     72.69505      1.626     3.11     3.705532     20.51471     5062.443       105     1.526     1.436  49.54   0
        67    628.7265    799.9539 300.1065070 +22.7816275     1582.413     72.71357      1.529     3.13     3.291691     20.51471     167.2502        22     1.125     1.071   4.30   0
        68    299.2596    799.1391 300.0042672 +22.6825774     338.6665     72.76911      1.475     6.06       3.5882     20.51471     39.42123        10     1.093     0.946 -73.96   0
        69     23.9802    795.9359 299.9197766 +22.5990458     855.6523     72.69505      2.390     5.22     3.564609     20.51471     71.75398        15     1.416     1.108 -70.99   0
        70     57.3860    795.8340 299.9301837 +22.6090442     850.8177     72.69505      1.845     4.56     3.589127     20.51471     75.82285        17     1.428     0.931 -24.97   0
        71    657.7658    796.0098 300.1168312 +22.7892018     873.2446     72.69505      1.488     3.15      3.38867     20.51471     87.56064        13     1.009     0.821   7.47   0
        72    668.5504    794.2834 300.1207507 +22.7919395     506.3387     72.71357      1.591     4.73     3.423692     20.51471     47.77906        10     1.082     0.700   7.23   0
        73    989.4039    792.3635 300.2213597 +22.8875485     229.0414     72.73209      1.200     4.00     3.780715     20.51471     30.57183         6     0.954     0.480   1.60   0
        74    774.1205    790.5594 300.1548439 +22.8225167     359.6588     72.69505      1.431     4.09     3.646661     20.51471     43.43737         8     0.863     0.714  44.26   0
        75    569.0129    787.4666 300.0919775 +22.7601384     302.8225     72.69505      1.533     3.82     3.289581     20.51471     28.54153         6     0.841     0.499   1.46   0
        76    811.9228    781.1031 300.1696964 +22.8311312     778.2006      72.8431      1.553     3.55     3.684064     20.51471     63.10995        14     1.066     0.901  27.71   0
        77    420.7332    778.1070 300.0488806 +22.7129834     31430.95     72.86159      1.576     3.01      3.62098     20.51471     3000.211        72     1.375     1.355 -83.39   0
        78    434.9568    778.6368 300.0531329 +22.7174016     1962.324     72.78762      1.574     2.99     3.604728     20.51471      199.797        22     1.154     1.054  41.69   0
        79    943.8893    774.0600 300.2131187 +22.8686536     2638.828     72.80611      1.663     3.45      3.77308     20.51471     203.4893        27     1.260     1.196 -18.49   0
        80    432.1090    772.5308 300.0542319 +22.7147953     636.0358      72.8431      1.638     3.45     3.602151     20.51471     55.92793        10     0.903     0.849 -89.34   0
        81    701.5364    770.0663 300.1388965 +22.7948753     941.9493     72.76911      1.502     4.07     3.538061     20.51471     96.89937        14     1.135     0.875  15.15   0
        82    303.3773    769.8074 300.0150825 +22.6753985     807.4841     72.69505      1.662     3.48     3.564444     20.51471     78.97397        14     1.069     0.878  35.80   0
        83    548.9713    765.0062 300.0930410 +22.7476819     833.1866     72.71357      1.476     3.12     3.375888     20.51471     89.72195        13     1.038     0.806  50.81   0
        84    107.9990    765.9156 299.9556295 +22.6156567     472.5517     72.60236      1.426     4.86     3.652763     20.51471     50.11465         8     1.015     0.659  -4.49   0
        85    950.0988    761.7294 300.2190633 +22.8669717     615.4702     72.86159      1.723     4.60     3.758666     20.51471     55.43435        15     1.131     1.037 -76.65   0
        86    537.9498    770.0681 300.0879652 +22.7458299     584.3283     72.69505      1.626     4.82     3.374489     20.51471     54.42508        12     1.185     0.750 -53.27   0
        87    494.6319    759.5996 300.0778878 +22.7298354     365.1177     72.67652      1.485     5.53     3.513574     20.51471     54.97713         9     1.024     0.841  29.08   0
        88    136.6426    759.3907 299.9666487 +22.6223818     485.8365     72.73209      1.649     4.39      3.65491     20.51471     47.42438         7     0.932     0.588  20.95   0
        89    927.7741    756.9423 300.2136593 +22.8589077     395.7275     72.71357      1.761     4.93     3.784046     20.51471      35.4209         7     1.057     0.651  24.50   0
        90    300.6776    754.0823 300.0193547 +22.6700774     431.3616     72.82462      1.514     3.96     3.539065     20.51471     44.81794        10     1.004     0.894  41.46   0
        91    624.4565    744.8125 300.1231032 +22.7645175       447.83     72.71357      1.517     3.78     3.517373     20.51471      56.1207        10     0.998     0.900 -15.98   0
        92    593.8578    743.0307 300.1141562 +22.7548323     627.7772     72.73209      1.456     3.04     3.508076     20.51471     68.03513        11     0.930     0.797  57.22   0
        93   1010.2565    739.3871 300.2450852 +22.8785746     4401.569     72.69505      1.743     3.57     3.612067     20.51471     316.5933        39     1.398     1.313 -61.90   0
        94    503.2792    742.0846 300.0862719 +22.7274015     304.0768     72.86159      1.473     4.33     3.519559     20.51471      31.9564         6     1.074     0.497 -39.96   0
        95    615.7864    740.3851 300.1218429 +22.7606472     1244.583     72.63945      1.405     2.86     3.538108     20.51471      126.167        20     1.108     0.992  -9.15   0
        96    534.9825    740.1473 300.0967677 +22.7363520     369.9958     72.69505      1.588     5.47     3.486382     20.51471     33.56982         9     1.211     0.698  -9.60   0
        97    697.1689    735.4603 300.1487853 +22.7836294     282.8944      72.7506      1.281     4.82     3.575258     20.51471     37.99775         9     0.910     0.764  29.45   0
        98    998.7819    730.7850 300.2443029 +22.8726656     1633.341     72.69505      1.656     3.48     3.670713     20.51471     134.7143        25     1.282     1.147  31.96   0
        99    361.6236    724.7725 300.0478318 +22.6799500     862.4095     72.69505      1.619     3.95     3.690099     20.51471     81.85555        15     1.215     0.850  35.50   0
       100    227.0204    725.2025 300.0058445 +22.6396947     275.5384     72.63945      1.379     3.92     3.566408     20.51471     25.52988         5     0.854     0.517  53.96   0
       101    825.3464    722.1024 300.1930586 +22.8182084     2537.903     72.80612      1.676     3.55     3.765308     20.51471      207.072        33     1.620     1.149   4.83   0
       102    299.6227    717.0517 300.0310621 +22.6591370     799.3502     72.71357      0.625     0.94     3.575984     20.51471     387.5278         6     0.488     0.413  12.38   0
       103     47.6407    712.0898 299.9543758 +22.5821072     743.4622     72.71357      1.656     4.23     3.644146     20.51471     69.64092        14     1.056     0.954  28.09   0
       104    210.5185    708.4442 300.0061619 +22.6299365     660.4492     72.69505      1.503     2.89     3.641029     20.51471     80.59502        13     0.974     0.900  74.14   0
       105    907.7356    707.7194 300.2234121 +22.8387629     619.1008     72.82462      1.747     4.82     3.904665     20.51471     47.15592         9     1.190     0.554 -21.94   0
       106    943.5628    698.9998 300.2374155 +22.8469911     147556.2     72.71357      1.639     3.21     3.930306     20.51471     11736.36       168     1.559     1.523  82.17   0
       107    795.9481    699.1713 300.1913509 +22.8028123     816.0352     72.73209      1.472     2.91      3.76573     20.51471     84.93755        10     0.868     0.754   4.78   0
       108    976.0939    691.8798 300.2498728 +22.8546902     361.7215      72.8431      1.330     3.30      3.94688     20.51471     42.68829         6     0.917     0.442  33.81   0
       109    706.0099    702.8864 300.1621259 +22.7769255     373.1674     72.65799      1.335     3.33      3.63987     20.51471     49.26311         6     0.892     0.472 -35.58   0
       110    629.7526    687.7378 300.1433019 +22.7497181     1591.918      72.7506      1.428     2.69     3.925964     20.51471      207.756        18     1.036     0.957  15.62   0
       111    811.0201    685.1378 300.2006079 +22.8032977     9292.499     72.67652      1.478     2.79     3.840112     20.51471     945.7119        44     1.265     1.215 -64.26   0
       112    312.5045    680.0983 300.0470758 +22.6523981     4924.253     72.89854      1.548     2.74     3.694197     20.51471     538.9605        39     1.335     1.219 -68.59   0
       113     26.2366    678.4556 299.9586580 +22.5660386     1667.627     72.71357      1.892     3.64     3.589857     20.51471     153.4479        24     1.294     1.189  43.99   0
       114    394.4738    678.3653 300.0731297 +22.6764849     1119.307     72.69505      1.467     2.77     3.610982     20.51471     124.3123        16     1.084     0.845 -13.38   0
       115    270.2049    675.7258 300.0353458 +22.6384555     376.5467     72.63945      1.367     3.38     3.700112     20.51471     46.94479         6     0.734     0.629  72.39   0
       116    602.6871    673.7291 300.1394276 +22.7375826      710.665      72.8431      1.418     2.60      4.13865     20.51471     110.7875        12     1.051     0.757  33.31   0
       117    594.4390    665.9062 300.1394019 +22.7328639     3163.834     72.73209      1.411     2.60     4.092082     20.51471     381.2502        27     1.131     1.076  41.60   0
       118    584.7687    659.7866 300.1383799 +22.7282080     1407.363     72.69505      1.431     2.52     4.049662     20.51471     179.0358        21     1.068     0.992  28.13   0
       119    513.1115    659.1820 300.1162732 +22.7065523       397.08     72.63945      1.269     4.34     3.680904     20.51471     42.41472         8     1.142     0.559  12.57   0
       120    978.4284    657.9455 300.2616285 +22.8456381     361.0742     72.71357      1.468     5.08     4.025962     20.51471     38.49313         9     1.051     0.694   3.84   0
       121    248.1543    655.9165 300.0349277 +22.6261574     747.2723     72.69505      1.573     3.47     3.758892     20.51471     76.37784        11     0.965     0.779  44.08   0
       122    261.9724    654.1304 300.0398034 +22.6297899     568.6573     72.71357      1.369     3.03     3.772321     20.51471     65.69684        10     0.897     0.735   8.32   0
       123    318.8064    651.1917 300.0584276 +22.6459934     376.1873     72.56525      1.570     4.51     3.789182     20.51471     38.86164         8     0.923     0.661  85.19   0
       124    287.8538    651.3557 300.0487507 +22.6367568      595.573     72.73209      1.488     3.36     3.798703     20.51471     69.27065         8     0.922     0.619 -23.29   0
       125    608.7084    649.9053 300.1490433 +22.7325468     527.7447     72.88007      1.715     3.17     4.273239     20.51471      59.1524         9     0.925     0.668 -17.22   0
       126    509.4172    649.3268 300.1183257 +22.7026155     1852.516     72.71357      1.453     2.69     3.759653     20.51471     198.1343        19     1.046     0.983  71.35   0
       127    543.2879    649.1745 300.1289163 +22.7127261      275.437     72.65799      1.396     4.27      3.86043     20.51471     32.83219         6     0.925     0.579  25.54   0
       128    163.4292    644.2830 300.0123765 +22.5974033     19447.88     72.73209      1.646     2.97     3.840353     20.51471     1925.094        66     1.431     1.342  41.73   0
       129    594.4916    644.8159 300.1462710 +22.7268239     995.8917     72.63945      1.509     3.10     4.200684     20.51471     111.1547        15     1.010     0.963 -39.82   0
       130     84.8869    646.0485 299.9874022 +22.5743445      697.848     72.71357      1.845     4.41     3.848815     20.51471     67.35099        12     1.222     0.751 -10.07   0
       131    629.7405    643.5040 300.1576714 +22.7370128     419.7864     72.78762      1.429     4.05     4.170984     20.51471     40.03241         7     0.975     0.482   9.12   0
       132    347.5302    636.2339 300.0722190 +22.6503153     291.9142     72.71357      1.260     3.35     3.826431     20.51471     48.21222         5     0.760     0.427  65.69   0
       133   1012.4656    630.9332 300.2810203 +22.8480693     1043.114     72.76911      1.634     4.05     3.937932     20.51471     96.42758        18     1.209     1.038  24.34   0
       134    109.4769    628.4747 300.0007498 +22.5766818     1522.888     72.80612      1.965     4.48     3.846405     20.51471      117.301        29     1.553     1.228 -85.31   0
       135    879.4819    629.2438 300.2401063 +22.8077515     535.2289     72.67652      1.532     3.61     4.039364     20.51471     55.63037         9     0.939     0.704  54.17   0
       136    175.7967    628.8264 300.0212408 +22.5966794     328.0182     72.67652      1.330     2.39     3.835937     20.51471     59.58987         6     0.721     0.605  -3.82   0
       137    557.8289    625.2349 300.1412201 +22.7102116     383.6006     72.73209      1.368     3.47     4.211943     20.51471     48.97155         8     0.793     0.709  45.48   0
       138    952.7544    623.6633 300.2647620 +22.8280963     734.8273      72.7506      1.652     3.03     3.974028     20.51471     69.65134        11     0.983     0.730  81.37   2
       139    350.3686    624.1413 300.0770303 +22.6476960     340.6278     72.73209      1.442     3.95     3.862578     20.51471      35.8797         6     0.752     0.626 -38.23   0
       140    514.7242    617.5419 300.1303038 +22.6950811      770.795     72.76911      1.550     2.97     4.065969     20.51471     98.77061        15     1.004     0.938  85.85   0
       141    662.4786    616.5163 300.1766336 +22.7390743     437.4283     72.82462      1.333     2.77     4.182806     20.51471      60.6226        10     0.922     0.722 -20.37   0
       142    709.8281    614.8547 300.1919198 +22.7527867     502.0835     72.71357      1.478     2.64     4.081614     20.51471     62.18509         8     0.766     0.692 -46.35   0
       143    680.3557    614.3660 300.1828994 +22.7438143     478.9195     72.76911      1.261     3.37     4.153913     20.51471      63.0911        10     0.915     0.816 -54.70   0
       144    559.0130    613.4966 300.1454022 +22.7071960     869.5744     72.60236      1.461     2.80     4.343771     20.51471     108.6865        15     1.094     0.805  43.72   0
       145    992.5892    609.0687 300.2819252 +22.8358325     3221.947     72.71357      1.544     2.98     3.895936     20.51471     285.0657        28     1.194     1.109 -21.89   0
       146    524.2087    608.8480 300.1360798 +22.6954282      1637.94     72.73209      1.366     2.44     4.220874     20.51471     203.9054        22     1.103     1.011 -45.78   0
       147     86.1693    602.3890 300.0019833 +22.5622062     5118.471     72.71357      1.687     3.15     3.930004     20.51471     545.1872        41     1.380     1.289  37.03   0
       148    553.7881    599.9367 300.1481808 +22.7017362     212.4369     72.69505      1.095     2.72     4.395205     20.51471     51.83724         6     0.874     0.448  52.06   0
       149    387.6952    595.6052 300.0979089 +22.6506984     8912.653     72.62091      1.442     2.54     3.893198     20.51471     1166.852        40     1.194     1.152  57.39   0
       150    510.1199    592.7041 300.1369395 +22.6865695     8812.781     72.82462      1.382     2.52     4.186608     20.51471      1101.19        41     1.189     1.141  69.82   0
       151    756.3810    589.2652 300.2147340 +22.7593852     314.8827     72.67652      1.519     4.03      4.01434     20.51471     33.44391         6     0.910     0.510 -48.00   0
       152    275.2440    589.6488 300.0648764 +22.6152673     249.4714      72.7506      1.113     3.19     3.947896     20.51471     37.88601         5     0.722     0.463 -12.09   0
       153    921.8705    586.7693 300.2671190 +22.8082433     1972.032     72.71357      1.547     2.84     3.966392     20.51471     216.9703        25     1.194     1.069  82.09   0
       154    154.2794    588.6432 300.0276077 +22.5786961     331.8393     72.69505      1.473     3.47     3.879948     20.51471     33.12227         5     0.756     0.459 -13.09   0
       155   1006.4774    584.0671 300.2943786 +22.8328055     12405.66     72.80612      1.576     3.00     3.883507     20.51471     1138.926        54     1.373     1.292  66.76   0
       156    570.6949    582.2567 300.1591865 +22.7017269      11410.8     72.76911      1.352     2.42     4.411897     20.51471     1365.424        44     1.192     1.135  69.05   0
       157    740.3049    578.1053 300.2133511 +22.7513625     631.8321     72.88007      1.495     3.37     4.050908     20.51471     61.44893        10     0.913     0.740   8.83   0
       158    298.1719    577.6877 300.0758896 +22.6187106     1320.424     72.71357      1.410     2.94     3.948259     20.51471     144.1357        18     1.074     0.931  33.93   0
       159    455.9467    576.3184 300.1254053 +22.6656249     374.0216      72.7506      1.443     4.45     4.042501     20.51471     41.62185         6     0.927     0.608  59.07   0
       160      1.0578    574.9703 299.9844563 +22.5288043     467.3383     54.97329      0.958     2.96     4.308614     20.51471     113.8731         6     1.128     0.228 -87.37  24
       161    545.0608    575.2053 300.1534979 +22.6920186     445.5861     72.67652      1.484     2.63     4.418387     20.51471      54.8716         7     0.807     0.642  62.96   0
       162    502.3978    570.4753 300.1417567 +22.6778722     4297.847     72.62091      1.373     2.42     4.267482     20.51471     532.0699        29     1.167     1.030  67.36   0
       163    845.2437    570.5520 300.2485018 +22.7806306     827.5319     72.73209      1.360     2.84      3.97003     20.51471     97.80833        14     1.025     0.810  23.97   0
       164    480.7761    569.0097 300.1355046 +22.6709699     1285.228     72.71357      1.393     2.45     4.199481     20.51471      171.872        17     1.095     0.925  76.42   0
       165    235.0655    568.2037 300.0593522 +22.5970631     656.4457     72.73209      1.386     3.18     3.960844     20.51471     71.38621        12     1.007     0.775  30.27   0
       166    922.2153    566.0476 300.2739576 +22.8023914     1699.194      72.7506      1.576     3.14     3.944893     20.51471      163.713        24     1.294     1.031 -18.36   0
       167   1022.3763    564.4133 300.3057215 +22.8319169     224.4834     63.49891      1.567     3.47     3.877032     20.51471     25.54135         5     1.061     0.327 -69.27  16
       168    619.0018    557.9863 300.1821084 +22.7092345     198250.7     72.54669      1.422     2.52     4.424468     20.51471      25625.8       204     1.477     1.466 -86.70   0
       169    442.4657    564.5430 300.1250357 +22.6582026     396.3555     72.76911      1.287     2.77     4.020739     20.51471     50.35322         6     0.819     0.499 -88.54   0
       170    802.7965    562.9883 300.2377309 +22.7657417     735.1678     72.52812      1.288     2.49     3.918235     20.51471      105.637        12     0.901     0.822  27.75   0
       171   1007.1555    559.6981 300.3025059 +22.8260037      302.236     72.71357      1.436     4.33     3.887662     20.51471     30.07783         7     0.847     0.629  23.72   0
       172    305.0924    557.9351 300.0844567 +22.6151168     3377.922     72.82462      1.417     2.71     3.936069     20.51471     369.7262        26     1.111     1.086 -44.18   0
       173    870.8061    554.2071 300.2617780 +22.7835907     540.4109     72.56525      1.533     3.16     3.966761     20.51471     54.38112         9     0.908     0.670  27.00   0
       174    650.0448    544.5668 300.1961327 +22.7146827     243.7786      72.7506      1.262     3.97     4.425342     20.51471     42.83737         6     1.027     0.678 -15.76   0
       175    509.6162    538.2502 300.1544692 +22.6707826     2735.716     72.73209      1.455     2.50     4.421144     20.51471     297.9201        25     1.129     1.023  64.61   2
       176    354.3156    540.7944 300.1053296 +22.6249564     443.8856     72.63945      1.425     4.95     3.904816     20.51471     51.22855         9     0.974     0.815  57.15   0
       177    921.2629    535.3838 300.2836202 +22.7932931      333.995     72.69505      1.324     3.39     3.919858     20.51471     35.10752         5     0.744     0.448  18.58   0
       178    665.7088    535.3788 300.2039945 +22.7167372      387.754     72.65799      2.429     5.59     4.457406     20.51471     35.91878         8     1.303     0.676   7.60   0
       179    740.3683    533.8618 300.2277410 +22.7386707     259.7777     72.73209      1.030     3.38     4.051081     20.51471     37.82772         5     0.737     0.453 -73.41   0
       180    826.5374    526.9845 300.2568225 +22.7625079     435.0732     72.67652      1.533     3.88      3.92743     20.51471     67.92767        10     1.232     0.652 -26.93   0
       181    906.6341    524.4857 300.2825991 +22.7857797     1723.695     72.67652      1.494     2.74     3.921884     20.51471     197.9225        21     1.169     1.074   2.15   0
       182    792.8818    525.1261 300.2469386 +22.7518925     342.0133     72.82462      2.376     3.73     3.933521     20.51471      33.5235         5     0.956     0.417 -45.23   0
       183     36.8431    522.9969 300.0124468 +22.5246329     948.5707     72.73209      2.047     3.84     4.141812     20.51471     89.54283        15     1.187     0.907   1.12   0
       184    777.8596    522.1105 300.2432373 +22.7465259     2622.944     72.80612      1.405     2.62     3.966449     20.51471     323.1152        27     1.155     1.102  69.01   0
       185   1022.7536    519.9794 300.3202710 +22.8192562     508.9583     61.62613      2.379     5.69     3.889302     20.51471     37.60588         9     1.131     0.806 -65.64  19
       186   1021.1205    515.5283 300.3212071 +22.8174876     784.0203     68.87078      1.762     5.51     3.890379     20.51471     71.72823        15     1.404     0.852  85.50  18
       187    682.8791    518.8378 300.2147135 +22.7171302     369.0535     72.69505      1.369     3.14     4.452494     20.51471     54.91095         8     0.873     0.724 -82.52   0
       188    565.0764    518.0604 300.1782872 +22.6816067     698.3747     72.76911      1.372     2.43     4.491858     20.51471     96.03578         9     0.799     0.695  23.87   0
       189    906.9533    514.5065 300.2859394 +22.7830070     2274.418     72.73209      1.712     4.05     3.917347     20.51471     233.4759        32     1.699     1.065  79.70   0
       190    660.1811    512.6235 300.2096629 +22.7085441     743.5738     72.71357      2.129     4.20     4.541064     20.51471     71.61153        10     1.099     0.814  82.11   2
       191    446.0630    512.7624 300.1429710 +22.6444139     263.5875     72.73209      1.384     3.74     4.115674     20.51471     36.91904         5     0.828     0.484 -53.39   0
       192    945.1211    509.7067 300.2993976 +22.7930574     4239.419      72.8431      1.439     2.76     3.903829     20.51471     501.6895        32     1.186     1.121  83.90   0
       193    498.7730    511.4420 300.1598006 +22.6598342     275.5514     72.73209      1.155     3.22     4.422387     20.51471      59.1511         8     0.894     0.625  -2.53   0
       194    586.3616    509.2231 300.1877829 +22.6854472     249.7045     72.73209      1.120     3.40     4.507075     20.51471     37.22753         5     0.744     0.449  73.29   0
       195    682.8647    506.7381 300.2186382 +22.7136498     296.8332      72.7506      1.507     3.28     4.496099     20.51471     43.58337         6     0.761     0.595  48.97   0
       196    605.7069    505.2801 300.1950858 +22.6901118     385.3839      72.8431      1.232     5.07     4.513838     20.51471     45.96495         8     1.418     0.512  45.28   0
       197    176.9637    499.9827 300.0634485 +22.5600600     948.3389     72.71357      1.349     2.95     3.991611     20.51471     110.9667        14     0.986     0.894  25.92   0
       198    837.8150    493.7476 300.2711304 +22.7563342     331.8045     72.69505      1.133     2.29     3.915105     20.51471     51.27609         6     0.734     0.525  53.67   0
       199    169.2849    489.9310 300.0643260 +22.5548725     346.7551     72.80612      1.359     4.34     4.005998     20.51471     55.85327         8     0.990     0.739 -77.89   0
       200    777.2012    484.2651 300.2553216 +22.7354538     451.6097     72.71357      1.476     3.86     3.964667     20.51471     48.51764         9     0.947     0.690   9.09   0
       201    718.5565    480.3599 300.2383201 +22.7167642     778.6235     72.80612      1.284     3.18      4.23372     20.51471     111.2997        11     0.985     0.773 -64.13   0
       202    666.2783    481.9744 300.2215137 +22.7015660     279.9249     72.71357      1.186     2.91     4.670496     20.51471     47.10537         6     0.828     0.559   1.10   0
       203    385.5127    482.6151 300.1339240 +22.6176068     319.5511     72.65799      1.274     3.60      3.88818     20.51471     37.82534         6     0.881     0.484  -3.73   0
       204     77.1923    474.9778 300.0405695 +22.5229602     297.1479     72.69505      1.477     2.86     4.077175     20.51471     37.62318         5     0.783     0.492  33.68   0
       205    779.3542    472.3291 300.2598680 +22.7326687     802.0358     72.69505      1.282     2.51     3.955858     20.51471     105.3535        13     0.912     0.826  39.88   0
       206    936.6200    468.4931 300.3101297 +22.7786645     1074.508     72.63945      1.465     2.60     3.905007     20.51471     127.9073        16     0.970     0.960 -70.27   0
       207    920.8489    465.1147 300.3063096 +22.7729709     610.3654     72.69505      1.376     3.04     3.897692     20.51471     70.59511        10     0.931     0.693 -32.29   0
       208    901.3134    465.2446 300.3001773 +22.7671584     280.8286     72.69505      1.550     3.83     3.887569     20.51471      33.9841         5     0.997     0.421  -5.41   0
       209    665.1137    462.9092 300.2273411 +22.6957396      3195.45     72.88007      1.325     2.39     4.646701     20.51471     454.7155        25     1.069     0.992 -69.64   0
       210    141.4829    454.3314 300.0672446 +22.5363181      334.551     72.82462      1.438     2.69     4.039082     20.51471     44.19073         5     0.694     0.484  75.66   0
       211    670.3601    450.9805 300.2328477 +22.6938842     232.6168      72.7506      1.103     3.78     4.636271     20.51471     38.34372         6     0.823     0.643 -52.60   0
       212    505.0049    450.1472 300.1816411 +22.6440986     315.1133     72.69505      1.312     2.93     4.455797     20.51471     65.66581         8     0.881     0.764  53.74   0
       213    436.7562    450.8758 300.1601688 +22.6238533     217.8818     72.69505      1.042     3.26     4.153108     20.51471     38.47925         5     0.930     0.341 -44.40   0
       214    948.4882    441.9616 300.3224441 +22.7745907     640.6205     72.69505      1.515     3.58      3.94111     20.51471     78.10002         8     1.055     0.534  54.95   0
       215    775.6510    436.8632 300.2702285 +22.7213673     1118.694     72.76911      1.366     2.76     3.944409     20.51471     146.9965        16     1.131     0.807  64.24   0
       216    571.3857    437.5254 300.2063993 +22.6603648     390.9203     72.73209      1.227     2.91     4.554417     20.51471     61.98199         8     0.839     0.694 -61.61   0
       217    279.6228    435.0242 300.1164458 +22.5721984     572.3269     72.67652      1.282     2.89     3.931903     20.51471     95.25642        10     0.977     0.650  30.25   0
       218    119.2327    433.5139 300.0670892 +22.5236710     239.4702     72.67652      1.397     5.04     4.053646     20.51471     29.26768         7     1.069     0.672 -13.94   0
       219    342.0667    430.7696 300.1372431 +22.5896970     3674.763     72.71357      1.388     2.50     4.108985     20.51471      473.331        30     1.128     1.103  18.28   0
       220    289.2187    425.4905 300.1225239 +22.5723383     7359.885     72.63945      1.417     2.53     3.935854     20.51471     837.8729        36     1.214     1.105  59.96   0
       221    429.9753    419.6994 300.1681795 +22.6128678     4625.871     72.63945      1.366     2.45     4.242934     20.51471     649.8608        32     1.194     1.043  77.82   0
       222    674.2252    416.4696 300.2452545 +22.6851261     18328.75     72.71357      1.330     2.31     4.563603     20.51471       2503.5        50     1.215     1.131  69.56   0
       223    691.9530    416.4283 300.2507892 +22.6904247     761.1553     72.73209      2.047     6.94     4.389842     20.51471     59.75332        16     1.888     0.715 -32.29   0
       224    917.2312    412.6330 300.3222197 +22.7568002     135.8855     72.73209      1.255     4.53      3.89234     20.51471       33.533         5     0.844     0.691  46.52   0
       225    871.2491    407.0544 300.3096966 +22.7414283      453.432      72.7506      1.498     3.33     3.791211     20.51471      51.0931         9     0.991     0.707  19.74   0
       226    293.9788    403.6395 300.1310962 +22.5674919      417.614      72.7506      1.384     4.84     4.092809     20.51471     44.84616         9     0.940     0.707 -63.86   0
       227   1007.7271    399.2848 300.3547712 +22.7800546     618.3485     72.82462      1.300     2.73     4.127461     20.51471      96.0391        13     1.021     0.807 -19.35   0
       228    545.3333    398.8224 300.2108528 +22.6414406     313.3973     72.69505      1.445     3.27     4.554417     20.51471     51.43443         6     0.722     0.653  38.99   0
       229    228.8655    396.6515 300.1131223 +22.5459648     2007.203      72.7506      1.432     2.75     3.998093     20.51471     248.8086        23     1.139     1.052  37.35   0
       230    884.5599    387.8540 300.3200779 +22.7398942     262.9442     72.69505      1.616     4.33     3.861259     20.51471     27.13238         5     0.955     0.559 -43.50   0
       231    614.8591    385.9074 300.2366883 +22.6585602     6699.532     72.78762      1.339     2.26     4.336536     20.51471     966.9786        38     1.183     1.079  61.74   0
       232    329.8332    385.4871 300.1481362 +22.5730277     615.8277     72.67652      1.252     2.86     4.343488     20.51471     82.50196        11     1.000     0.708  -6.53   0
       233    187.1357    378.7062 300.1059766 +22.5283018     529.1411     72.82462      1.361     3.99     4.055597     20.51471     66.79482         8     0.861     0.758 -64.71   0
       234    874.8666    377.6290 300.3203750 +22.7340522     357.2436     72.71357      1.206     2.40     3.865043     20.51471     59.29686         5     0.877     0.334 -85.67   0
       235    728.9456    376.2277 300.2753599 +22.6899522      592.438     72.71357      1.370     3.84     3.889632     20.51471     67.41472        10     0.979     0.760  38.93   0
       236     34.4960    375.7877 300.0595033 +22.4816918     1472.777     72.62091      1.696     3.79      4.21096     20.51471     153.2776        24     1.444     1.130  57.85   0
       237    819.0872    374.6569 300.3039550 +22.7164958     1186.654     72.78762      1.382     2.72      3.86717     20.51471     159.8091        16     1.242     0.787  72.67   0
       238      3.7943    373.7081 300.0506440 +22.4718869     1346.065     68.41955      1.840     4.92     4.275274     20.51471     103.8369        23     1.479     1.084 -52.21  16
       239    521.4890    372.1541 300.2120867 +22.6266351     5987.562     72.71357      1.301     2.32     4.497662     20.51471     765.0338        33     1.119     1.053  88.98   0
       240   1010.7827    366.8503 300.3662516 +22.7716420      480.756     72.71357      1.409     3.44     4.127642     20.51471     63.84979        11     1.091     0.676 -87.52   0
       241    913.3790    366.5725 300.3359690 +22.7424040     1497.296     72.71357      1.459     2.63     3.938565     20.51471     196.8269        18     1.043     0.941  71.43   0
       242     12.8072    361.7754 300.0573148 +22.4711659     498.1574     72.69505      1.680     3.15     4.280003     20.51471     48.49458         7     0.946     0.561  16.17   0
       243    506.2757    360.7718 300.2110459 +22.6188069     440.3997     72.71357      1.288     2.71      4.46219     20.51471     81.88508         8     1.025     0.490  69.73   0
       244    588.6869    359.0124 300.2372684 +22.6429921     329.8354     72.65799      1.127     1.69      4.28873     20.51471     80.24615         5     0.670     0.420 -67.92   0
       245    867.0489    358.0470 300.3242935 +22.7260818     323.0413      72.7506      1.413     3.20      3.90106     20.51471     42.79529         5     0.956     0.369 -30.35   0
       246     33.2516    357.6045 300.0650173 +22.4761005     1085.078     72.71357      1.480     3.03     4.240968     20.51471     122.4723        15     0.996     0.912  18.83   0
       247    569.2567    356.4561 300.2320493 +22.6364366     251.2352     72.78762      1.282     3.37     4.402001     20.51471     39.28708         5     0.727     0.472  16.60   0
       248    886.1282    354.2284 300.3314799 +22.7306963     388.6016     72.71357      1.215     2.92     3.928828     20.51471     64.10697         9     0.906     0.665  17.78   0
       249    409.0048    351.4193 300.1838159 +22.5869729     2536.229     72.65799      1.358     2.41     4.420553     20.51471     316.8675        24     1.084     1.032 -12.81   0
       250    127.5354    348.7837 300.0971667 +22.5018422     982.4498     72.69505      1.502     2.93     4.097568     20.51471     130.9957        17     1.145     0.906  42.49   0
       251    756.8042    346.2278 300.2937745 +22.6896728     273.8647     72.67652      1.402     3.94       3.8157     20.51471     33.01871         5     0.734     0.706  53.17   0
       252    378.3992    340.8202 300.1777352 +22.5747566      29447.1     72.63945      1.405     2.40     4.482436     20.51471     3769.368        73     1.336     1.210  66.19   0
       253    913.1838    338.4916 300.3450211 +22.7342714     1337.682     72.63945      1.316     2.54     3.955679     20.51471      178.417        17     1.013     0.879 -68.36   0
       254    868.2193    336.1735 300.3317566 +22.7201434     263.7674     72.73209      1.250     3.04     3.914148     20.51471     43.93924         5     0.864     0.426  43.59   0
       255     74.6887    328.5987 300.0872988 +22.4802022     4988.628     72.63945      1.635     3.00     4.216688     20.51471     557.8402        40     1.435     1.182  44.80   0
       256    828.2751    327.5014 300.3221212 +22.7056908      595.587      72.8431      1.301     2.74     3.873689     20.51471     83.88686         9     0.837     0.723  17.62   0
       257    252.7449    327.1813 300.1430885 +22.5331783     384.3515     72.69505      1.243     3.54     4.297372     20.51471     52.68893         8     0.909     0.665  22.14   0
       258    477.1845    326.0987 300.2132443 +22.6001298     597.3132     72.62091      1.453     3.23     4.351991     20.51471     77.02125         9     0.952     0.740  43.67   0
       259    788.6788    320.5268 300.3120455 +22.6918297     2074.608     72.82462      1.388     2.54     3.837872     20.51471     284.4055        18     1.071     0.892  67.34   0
       260    597.0551    315.2150 300.2540855 +22.6329140     323.2871     72.69505      1.156     2.68     3.939671     20.51471     51.67373         7     0.732     0.642  10.31   0
       261   1004.0242    313.7563 300.3813735 +22.7543493      627.314      72.7506      1.421     2.92     4.111349     20.51471      72.0406        10     0.881     0.755 -53.71   0
       262    450.5640    305.1714 300.2117512 +22.5861417     2161.193     72.73209      1.465     3.11     4.351613     20.51471     247.3228        24     1.327     0.934  65.00   0
       263    663.3159    304.2500 300.2782752 +22.6496093     381.0093     72.69505      1.686     2.89     3.817227     20.51471     39.24964         5     0.727     0.450  78.20   0
       264    881.8784    299.0058 300.3480744 +22.7135457     295.2382     72.63945      1.247     2.41     3.927069     20.51471      46.1009         5     0.769     0.475  27.06   0
       265    889.9048    297.9837 300.3509080 +22.7156546     544.9927     72.63945      1.351     2.96     3.934452     20.51471     67.47535         9     0.867     0.740  78.67   0
       266     20.7262    297.3957 300.0806618 +22.4550648     480.0812     72.63945      1.776     4.20      4.50796     20.51471     49.94748         7     1.212     0.534 -65.63   3
       267     23.6926    295.8413 300.0820873 +22.4555083     599.1373     72.71357      1.500     3.46     4.501003     20.51471     77.30689        11     1.006     0.833  53.02   2
       268    772.0820    295.8783 300.3148717 +22.6797742     478.8677     72.82462      1.415     2.48     3.826093     20.51471     69.50839         8     0.881     0.608 -59.37   0
       269    740.0392    294.8648 300.3052176 +22.6698881     354.4016     72.69505      1.344     4.45     3.803922     20.51471     46.77842         7     1.098     0.696 -38.45   0
       270     98.4832    285.2319 300.1087594 +22.4748886     196.1116     72.69505      1.163     5.17     4.252816     20.51471     28.93969         7     1.332     0.567 -31.01   0
       271    526.5209    284.6564 300.2420436 +22.6030041     1226.444      72.7506      1.290     2.22      3.88195     20.51471     172.9334        16     1.055     0.846  24.95   0
       272    333.3484    284.5960 300.1819658 +22.5451074     333.3752     72.71357      1.371     4.26     4.483279     20.51471     40.79648         7     1.264     0.571  41.99   0
       273    771.3883    276.3956 300.3209763 +22.6739655     2251.593     72.56525      1.333     2.31     3.824042     20.51471      312.684        20     1.089     0.924 -86.03   0
       274      4.4738    261.7646 300.0871727 +22.4399647     72211.02     70.68501      1.692     2.94     4.585677     20.51471     8174.468       103     1.577     1.426  58.33  24
       275    479.5731    260.3810 300.2353080 +22.5819648     620.9442     72.73209      1.250     2.63     4.276509     20.51471     98.59087        12     0.891     0.841   2.17   0
       276    154.5308    254.5156 300.1361367 +22.4828730       1556.3     72.80612      1.830     3.75     4.229467     20.51471     131.7834        22     1.288     1.108 -26.31   0
       277    185.1937    254.4098 300.1456997 +22.4920342     561.9388     72.56525      1.368     3.02     4.230126     20.51471     63.58365        12     0.969     0.812 -58.69   0
       278    891.5806    248.0513 300.3676293 +22.7017971     299.7304     72.69505      1.197     1.85     3.891526     20.51471      60.7445         6     0.738     0.492 -85.59   0
       279    692.9601    246.0915 300.3063750 +22.6417701     1807.642     72.71357      0.484     2.49     3.798639     20.51471     1147.754         8     0.489     0.381 -65.10   0
       280    238.4186    246.4006 300.1648405 +22.5056875     479.4183     72.63945      1.390     4.81     4.313105     20.51471     58.60172        10     1.045     0.772 -26.80   0
       281    914.3179    240.1024 300.3772961 +22.7063166     360.9868     72.88007      1.414     4.20     3.908021     20.51471     36.97776         6     0.887     0.627 -27.75   0
       282    133.2927    240.6087 300.1340482 +22.4725136     105.3096     72.63945      1.045     3.47     4.303884     20.51471     32.96175         5     0.784     0.443 -18.50   0
       283    843.1858    237.9270 300.3558287 +22.6843994     791.3463     72.71357      1.543     3.33     3.844843     20.51471     94.37695        12     1.013     0.815 -26.04   0
       284    433.4216    237.3565 300.2284164 +22.5615231      423.958     72.76911      1.161     2.49     4.419661     20.51471     61.27116         8     0.844     0.604  75.03   0
       285    933.8237    231.3767 300.3862079 +22.7096450     409.0518     72.67652      1.374     1.73     3.930493     20.51471     54.84107         5     0.671     0.441 -23.51   0
       286    941.1591    226.9619 300.3899270 +22.7105705     2151.026     72.80612      1.389     2.61     3.946499     20.51471     279.6525        23     1.109     1.003 -88.18   0
       287    359.5785    224.2341 300.2097025 +22.5356290     2034.002     72.73209      1.341     2.39     4.482449     20.51471     260.3299        20     1.068     0.961  89.03   0
       288    437.7240    219.3261 300.2356029 +22.5576317     909.7236     72.80612      1.366     3.02     4.398553     20.51471     110.5083        16     1.088     0.903   8.28   0
       289    189.7004    219.9499 300.1582768 +22.4834898     268.0942     72.80612      1.074     2.21     4.366151     20.51471     55.07372         7     0.711     0.619 -69.43   0
       290    839.4828    218.2298 300.3610634 +22.6776267      606.053     72.73209      1.230     2.68     3.828659     20.51471     82.54588         9     0.819     0.762  26.82   0
       291    946.4371    215.2560 300.3953696 +22.7087830      290.038     72.71357      1.416     3.14     3.945107     20.51471     41.49453         5     0.718     0.485  78.48   0
       292     35.8005    212.9853 300.1127216 +22.4353557     414.1477     72.56525      1.616     4.51     4.493574     20.51471     50.14018         7     0.914     0.631 -14.84   0
       293    254.4280    211.7152 300.1810665 +22.5005241     758.9796     72.71357      1.578     2.90     4.416536     20.51471     75.86229        13     1.024     0.786   3.94   0
       294    856.8469    207.7351 300.3698792 +22.6798061     630.8319      72.7506      1.399     3.02     3.820739     20.51471     90.90501        11     1.021     0.755  75.75   0
       295    792.2209    208.3443 300.3495412 +22.6606362     1692.248     72.73209      1.310     2.12     3.821591     20.51471     256.0403        20     1.076     0.917  69.27   0
       296    275.6531    204.6219 300.1899655 +22.5048474     548.6319     72.71357      1.446     4.17     4.448211     20.51471      78.5361        12     1.264     0.733  46.19   0
       297    796.2709    199.9356 300.3535303 +22.6594307     775.8973      72.7506      1.337     2.66      3.81832     20.51471      99.5943        11     0.891     0.774  40.96   0
       298    716.7183    199.0685 300.3290266 +22.6353653     1119.929     72.82462      1.270     2.50      3.80869     20.51471     153.7741        15     0.988     0.822  77.23   0
       299    538.5079    195.4416 300.2747118 +22.5809573     491.0132     72.71357      1.571     5.09     3.759982     20.51471     48.22144         8     1.132     0.648  -3.14   0
       300    912.1938    190.5446 300.3927074 +22.6914270     1501.227     72.71357      1.517     2.94     3.821845     20.51471     183.9745        18     1.157     0.941  57.44   0
       301    643.0515    190.8122 300.3087606 +22.6109345     1076.222      72.7506      1.504     2.29     3.744921     20.51471     166.7668        12     0.927     0.751  67.58   0
       302    924.2103    189.8224 300.3966880 +22.6948155     840.8882     72.71357      1.539     2.76     3.823263     20.51471     115.7478        15     1.073     0.856   6.42   0
       303     14.3782    179.1958 300.1170254 +22.4192330     384.1013     72.67652      1.446     3.35     4.517213     20.51471     37.84787         5     0.723     0.468  76.49   0
       304     64.9743    176.4198 300.1336398 +22.4336041     475.2321     72.71357      1.374     2.92     4.502419     20.51471     51.92042         7     0.718     0.662   2.20   0
       305    274.9763    172.9104 300.2000382 +22.4955358     711.0169     72.63945      1.352     3.09     4.433129     20.51471     87.76419        13     1.066     0.770  42.99   0
       306    136.9628    167.7428 300.1588178 +22.4526910     2124.167     72.71357      1.447     2.63     4.516434     20.51471     246.4234        24     1.126     1.074  80.76   0
       307    960.2544    164.9484 300.4159931 +22.6984462     806.5317      72.7506      1.552     3.54     3.968522     20.51471     91.23941        14     1.088     0.901  82.16   0
       308     86.6833    164.7887 300.1441546 +22.4367721     476.4568     72.67652      1.451     4.39     4.523273     20.51471     56.33235        10     1.087     0.884   4.20   0
       309    294.2874    161.0074 300.2099018 +22.4979029     5649.451     72.62091      1.440     2.61     4.427987     20.51471     613.8452        36     1.260     1.112  74.65   0
       310    276.2130    162.4256 300.2038224 +22.4928946     266.2582     72.71357      1.203     2.16     4.428446     20.51471     55.55893         5     0.722     0.451 -20.98   0
       311     39.5754    156.8150 300.1321073 +22.4203614     339.1221     72.73209      1.511     4.43     4.551926     20.51471     33.62643         7     0.903     0.618   6.37   0
       312     78.5433    155.5416 300.1446241 +22.4316769     1362.822     72.78762      1.719     2.79     4.559448     20.51471     142.3806        19     1.142     0.974  -6.00   0
       313    277.6000    152.1248 300.2075934 +22.4903513     700.3818     72.58381      1.648     2.78     4.427987     20.51471     88.87883        13     1.012     0.868 -41.30   0
       314    938.4068    142.6516 300.4164105 +22.6854944     3518.766     72.71357      1.481     2.68     3.924197     20.51471     411.5629        31     1.216     1.180 -33.21   0
       315    487.9356    137.8443 300.2776485 +22.5492572     766.9109     72.71357      1.582     3.47     3.968237     20.51471     90.77962        13     1.040     0.918 -68.91   0
       316    241.0047    138.5567 300.2006154 +22.4754884     213.5446     72.73209      1.022     3.70     4.427987     20.51471     42.77664         6     0.791     0.496   1.96   0
       317    602.1387    135.8313 300.3138492 +22.5828783     361.6591      72.7506      1.408     3.70     3.890096     20.51471      51.1434         7     0.890     0.576  33.35   0
       318    411.9116    129.7245 300.2566267 +22.5241532     831.9217      72.8431      2.569     3.46     4.469122     20.51471     86.78827         9     1.170     0.593 -46.87   2
       319    177.9766    126.4447 300.1849518 +22.4531224     641.9008      72.7506      1.786     4.19     4.507418     20.51471     61.98489        13     1.153     0.845  29.47   0
       320    539.2603    125.0256 300.2977781 +22.5609435     1755.732     72.69505      1.434     2.57     4.021266     20.51471     215.0811        22     1.204     0.960  87.30   0
       321    467.1776    125.8080 300.2750912 +22.5395810     439.6721     72.71357      1.251     2.26      4.14558     20.51471     67.17075         6     0.708     0.553 -34.61   0
       322    600.9385    124.3163 300.3172088 +22.5792086     381.6081     72.80612      1.274     3.43     3.998806     20.51471     50.04323         5     0.811     0.419 -16.92   0
       323    282.6811    120.5727 300.2194024 +22.4828096     547.2662     72.73209      1.752     3.75     4.427987     20.51471     45.07655         8     0.816     0.782 -60.15   0
       324    827.5200    114.5814 300.3909450 +22.6442365     320.5457     72.71357      1.167     2.75     3.920431     20.51471     53.89661         6     0.883     0.406  68.18   0
       325    674.7532    111.1009 300.3444788 +22.5975088     221.0949     72.73209      1.151     4.45     4.234048     20.51471     29.74336         7     0.923     0.610  58.96   0
       326    313.2418    104.9238 300.2339777 +22.4874694     5955.697     72.69505      1.452     2.60     4.427987     20.51471     650.2054        40     1.386     1.086  57.34   0
       327    820.0624    105.3343 300.3916187 +22.6393448     393.0831      72.7506      1.383     3.75     3.948866     20.51471     44.61475         6     0.979     0.431 -12.65   0
       328    164.3916    104.1637 300.1879528 +22.4426519      821.591     72.71357      1.843     3.48     4.531078     20.51471      75.2283        12     0.995     0.830 -24.16   0
       329      8.2945    102.0434 300.1401482 +22.3952587     561.8892     72.73209      1.363     5.31     5.135103     20.51471     69.77081        11     1.249     0.638 -36.02  16
       330    942.9657    102.4333 300.4308713 +22.6752877      327.455     72.78762      1.388     3.03     4.184541     20.51471     42.13588         6     0.830     0.676 -19.09   0
       331    285.0206     98.7468 300.2272049 +22.4772400     358.5429     72.69505      1.230     2.11     4.427987     20.51471     58.47761         5     0.818     0.435   0.95   0
       332    329.0721     96.4089 300.2416606 +22.4897653     169.0662     72.69505      1.116     3.50     4.426428     20.51471     45.49917         7     0.834     0.611 -24.61   0
       333     75.2313     95.4597 300.1630722 +22.4134315      452.507      72.7506      1.634     2.16     4.919687     20.51471     52.01267         5     0.696     0.444 -25.04   0
       334    559.3849     90.3203 300.3152931 +22.5569932     6161.681     72.73209      1.375     2.43     4.278503     20.51471     725.9453        35     1.237     1.052  72.75   0
       335    445.0019     90.2117 300.2797305 +22.5227089     638.6299     72.52812      1.347     2.94     4.397124     20.51471      81.7785        12     1.013     0.763 -76.00   0
       336    616.5220     85.2088 300.3347385 +22.5726309     339.2073     72.67652      1.455     4.95     4.311923     20.51471     35.91595         8     1.092     0.636  54.60   0
       337    811.6202     80.3895 300.3970740 +22.6296432      909.965     72.69505      1.829     5.97     4.028448     20.51471     97.53854        14     1.605     0.803 -47.63   0
       338    753.2663     81.5031 300.3785304 +22.6124991     268.0626     72.80612      1.190     3.37     4.249787     20.51471     39.60214         5     0.740     0.444  22.78   0
       339    904.2678     78.8206 300.4264604 +22.6569155     453.9598     72.69505      1.399     3.25     4.145026     20.51471     64.20411         8     0.939     0.602  54.88   0
       340    252.1112     74.3294 300.2248879 +22.4603654     566.8628     72.88007      1.531     3.57     4.426502     20.51471     64.32946         9     0.910     0.708  68.12   0
       341    610.8377     72.8598 300.3369714 +22.5673786     434.0602     72.73209      1.295     2.50     4.358996     20.51471      60.0197         7     0.696     0.674  -1.44   0
       342    687.7414     70.3842 300.3617227 +22.5896886     6226.803     72.69505      1.393     2.40     4.437301     20.51471     839.3516        37     1.220     1.126 -89.20   0
       343    462.6075     69.3498 300.2919705 +22.5219853     1549.747     72.71357      1.393     2.47     4.335469     20.51471     200.8488        19     1.162     0.901  47.43   0
       344    728.9478     67.9001 300.3753634 +22.6013082     935.2229     72.80611      1.452     2.58     4.398088     20.51471     128.0721        13     0.951     0.859 -37.55   0
       345    798.3892     65.5016 300.3977767 +22.6214012      339.216     72.60236      1.627     4.16     4.090637     20.51471     38.47626         6     1.001     0.493 -54.61   0
       346    744.7837     63.6992 300.3816585 +22.6048397     735.6271     72.62091      1.676     2.54     4.366421     20.51471     97.73896        11     0.934     0.767 -57.53   0
       347   1014.7343     61.2957 300.4665880 +22.6849210      516.187     72.82462      1.508     3.58     4.327659     20.51471     78.00728        10     1.064     0.882  45.52   0
       348    211.4919     61.8554 300.2163042 +22.4446120     658.3959     72.76911      1.463     2.79     4.442166     20.51471     80.39384        11     0.906     0.826 -24.40   0
       349    746.8759     54.0477 300.3854385 +22.6026899     901.1727     72.71357      1.831     5.31     4.399593     20.51471     80.75895        19     1.601     0.915  42.77   0
       350    731.9191     55.2965 300.3803742 +22.5985726     2638.173      72.8431      1.303     2.38     4.452317     20.51471     384.7337        24     1.087     0.989  66.44   0
       351    372.6021     56.2005 300.2682314 +22.4912501     504.7153     72.49098      1.422     2.36     4.415633     20.51471     69.05177         7     0.798     0.579 -19.78   0
       352     25.5903     49.7139 300.1624798 +22.3854166     745.0309     72.63945      1.584     2.82     5.264614     20.51471     73.08881        14     0.951     0.899   1.97   0
       353    818.4282     46.8139 300.4100784 +22.6220223     1670.497     72.73209      1.542     2.79     4.139407     20.51471     185.1734        25     1.365     0.985 -85.96   0
       354    756.3157     39.8590 300.3929781 +22.6014340     684.2035     72.82462      1.329     3.54     4.410692     20.51471      94.8822        10     1.004     0.693  61.01   0
       355    561.9044     39.5539 300.3325316 +22.5431525      1024.53     72.73209      1.328     2.46     4.538605     20.51471      143.155        12     0.968     0.780 -46.68   0
       356    134.8869     39.4309 300.1997648 +22.4152172     558.8232     72.69505      1.498     3.63      4.62037     20.51471     59.59405        10     1.013     0.756 -17.73   0
       357    465.6204     37.4995 300.3032306 +22.5137324     722.7589     72.63945      1.355     2.89     4.340153     20.51471     95.77312        12     0.961     0.803  63.64   0
       358    848.0336     36.3646 300.4226919 +22.6278750     456.2249     72.76911      1.295     3.43     4.176393     20.51471     45.50641         9     0.956     0.638  49.91   0
       359    237.1854     27.4647 300.2354359 +22.4424293     3848.968     72.69505      1.526     2.73     4.423468     20.51471     395.8314        33     1.339     1.111  61.59   0
       360    805.2455     28.0392 300.4120549 +22.6126766      642.903     72.78762      1.287     3.80     4.203292     20.51471     80.01766        12     1.102     0.774  29.35   0
       361     29.0303     26.9282 300.1709319 +22.3799041     247.6169     72.71357      1.823     6.29     5.316058     20.51471     30.22701         8     1.305     0.852  15.17   0
       362    659.5699     24.8398 300.3677096 +22.5681584     295.2814     72.69505      1.411     2.55     4.607652     20.51471     39.77824         5     0.718     0.445  67.42   0
       363    563.0616     24.7222 300.3376984 +22.5392345     289.1326     72.78762      1.199     3.04      4.61602     20.51471     63.74366         5     0.959     0.430  62.57   0
       364    798.5060     19.9234 300.4125849 +22.6083251     803.1883      72.8431      1.310     2.83      4.24192     20.51471     109.4971        11     0.941     0.766  24.85   0
       365    353.3096     19.5707 300.2741015 +22.4749449     1119.105     72.67652      1.406     2.66     4.238999     20.51471     136.3271        14     0.940     0.886  57.49   0
       366    579.5229     16.8888 300.3453615 +22.5419103     281.8436     72.86159      1.822     4.24     4.644857     20.51471     30.85354         6     1.034     0.496  86.29   0
       367    421.6497   1022.4104 299.9697074 +22.7833401      435.069     63.32901      1.408     4.69     3.320907     20.51471     52.45634         8     1.201     0.663 -18.46  16
       368    759.6855     15.2321 300.4020090 +22.5953587     552.7625     72.67652      1.726     2.85     4.491136     20.51471      56.9763         8     0.789     0.768 -71.49   0
       369    612.9376   1015.2611 300.0315590 +22.8386820     2363.746      72.7506      1.933     4.38     2.504202     20.51471     156.7372        33     1.455     1.345  32.10  16
       370    875.4070   1015.9896 300.1130790 +22.9176037     801.7303     72.58381      0.628     0.65     1.247961     20.51471     391.0528         5     0.502     0.346 -16.85   0
       371    699.5583   1010.5082 300.0600768 +22.8632997     8434.953     72.71357      1.980     4.31     2.515953     20.51471     449.2048        49     1.608     1.414  57.87   3
       372    705.0016   1008.3937 300.0624602 +22.8643254      9651.86     72.52812      2.034     4.76     2.515635     20.51471     533.3704        56     1.601     1.560 -26.45   3
