#   1 NUMBER                 Running object number                                     
#   2 X_IMAGE                Object position along x                                    [pixel]
#   3 Y_IMAGE                Object position along y                                    [pixel]
#   4 ALPHA_J2000            Right ascension of barycenter (J2000)                      [deg]
#   5 DELTA_J2000            Declination of barycenter (J2000)                          [deg]
#   6 FLUX_APER              Flux vector within fixed circular aperture(s)              [count]
#   7 FLUXERR_APER           RMS error vector for aperture flux(es)                     [count]
#   8 FLUX_RADIUS            Fraction-of-light radii                                    [pixel]
#   9 FWHM_IMAGE             FWHM assuming a gaussian core                              [pixel]
#  10 BACKGROUND             Background at centroid position                            [count]
#  11 THRESHOLD              Detection threshold above background                       [count]
#  12 FLUX_MAX               Peak flux above background                                 [count]
#  13 ISOAREA_IMAGE          Isophotal area above Analysis threshold                    [pixel**2]
#  14 A_IMAGE                Profile RMS along major axis                               [pixel]
#  15 B_IMAGE                Profile RMS along minor axis                               [pixel]
#  16 THETA_IMAGE            Position angle (CCW/x)                                     [deg]
#  17 FLAGS                  Extraction flags                                          
         1    704.3503     14.6429 300.4312205 +22.6044452     745.4254     72.73943      1.342     2.37     5.549136     20.51156     97.81686        12     0.922     0.729 -53.66   0
         2    512.9373     12.7964 300.3722005 +22.5466159     1848.038     72.70241      1.276     2.22     5.003172     20.51156     292.2138        19     1.035     0.866  54.92   0
         3    235.7833     10.1628 300.2868179 +22.4628561     750.7031     72.70241      1.424     3.02     4.779244     20.51156     85.98305        12     1.029     0.746  86.34   0
         4    470.2442      6.6848 300.3608909 +22.5320763      1248.51     72.66536      1.256     2.41     5.082288     20.51156     189.1878        16     0.972     0.868  78.17  16
         5    575.6101      3.2653 300.3948050 +22.5626390     1230.708     66.37129      1.232     2.39     4.954455     20.51156     181.5945        17     0.981     0.918  76.23  24
         6    170.7147      2.4816 300.2690766 +22.4411563     429.2546      62.8926      1.144     3.34     5.731686     20.51156     55.11363         9     1.024     0.601  28.48  24
         7    602.1462   1008.6466 300.0764846 +22.8593089     6718.588     72.73943      1.698     3.38     2.943258     20.51156      524.505        43     1.402     1.284  35.81   0
         8    181.5968   1016.8607 299.9429728 +22.7354562     4936.994     72.68388      9.587    39.54     15.95483     20.51156     134.5198       532     7.839     5.732  29.36  26
         9    152.6619   1022.0486 299.9322911 +22.7282554     1608.961     64.99802     15.526    25.38     24.08709     20.51156     50.58852       119     7.838     2.282   6.52  27
        10     34.3594    986.7046 299.9070379 +22.6826050     1190.552     72.70241     11.925    12.49     52.94941     20.51156     38.91977        23     2.263     1.919 -39.97   3
        11     42.6918   1019.2808 299.8990235 +22.6944403     1643.254     72.83192      9.077    16.29     72.91096     20.51156     44.65777        54     2.941     2.509 -27.25  27
        12     33.4085   1011.4485 299.8986892 +22.6894085     2715.462     72.72092      6.783    23.75     72.06842     20.51156     62.23108       140     4.147     3.778 -32.23  19
        13    114.5429   1005.6142 299.9257946 +22.7121006     1190.997     72.68389      6.344     8.28     32.94501     20.51156     43.38123        18     1.736     1.103 -58.17   0
        14    193.5488   1002.6868 299.9513014 +22.7349823     686.0123     72.72092      1.791     6.44     12.09969     20.51156       60.823        15     1.273     0.989  61.80   0
        15    754.5660   1002.8788 300.1258418 +22.9033687     471.5742     72.64684      1.763     4.79     2.944732     20.51156     36.29856         9     1.110     0.587  24.24   0
        16    481.5638   1002.7673 300.0408588 +22.8214470     585.8914     72.72092      1.858     4.97     2.900929     20.51156     46.89798        11     1.131     0.853  58.11   0
        17    510.7076    999.4669 300.0510043 +22.8292446     1586.936      72.8504      1.717     3.56     2.912788     20.51156      121.984        18     1.167     0.970   3.40   0
        18     76.9799   1011.7151 299.9121379 +22.7025695     1087.025      72.6283      5.713    11.81     50.90481     20.51156     32.33213        17     2.424     1.601 -61.48  18
        19    688.0903    997.0164 300.1070386 +22.8817508     257.7321      72.6283      1.421     3.93     3.028473     20.51156     31.66394         5     0.841     0.525 -28.04   0
        20    404.5714    995.9586 300.0191163 +22.7963920     1104.584     72.72092      1.545     3.54     3.140155     20.51156     102.1368        19     1.204     1.001 -55.83   0
        21     62.8024    994.8959 299.9132075 +22.6934932     780.2363     72.60976      3.268     5.52     47.70408     20.51156      37.9298         9     1.331     0.646 -89.58   3
        22     59.4262    994.7217 299.9122154 +22.6924294     871.7963     72.70241      5.983    11.29     49.28396     20.51156     32.52571        15     2.710     1.309 -16.36   2
        23    335.0918    993.9225 299.9981651 +22.7749570     6498.974      72.8504      1.663     3.28     3.841905     20.51156      566.821        42     1.353     1.292 -49.21   0
        24    114.4353   1021.9207 299.9204535 +22.7167408     1687.025      65.5138     11.616    14.32     38.54261     20.51156     55.60569        50     2.925     1.951  12.17  27
        25     49.1200    993.6392 299.9093661 +22.6890244     642.8998     72.66536      3.010     5.32     52.54914     20.51156     29.35923         7     1.784     0.448  25.96   0
        26     42.6982    981.8127 299.9112202 +22.6837075     894.6859     72.59122      3.537     7.97     46.22858     20.51156      46.6354        15     1.572     1.130 -62.32   0
        27    367.9352    980.5039 300.0127487 +22.7809665     382.7914     72.81343      1.239     3.50     3.517855     20.51156     55.80872         8     0.822     0.758  17.08   0
        28     28.3911    976.5994 299.9084727 +22.6779175     1963.483     72.51699      6.963    18.89     46.89882     20.51156     51.72527        85     4.036     2.455   0.88   3
        29     24.6042    964.8506 299.9111198 +22.6734142     1996.452     72.70241      4.733    16.65     37.78141     20.51156     50.06449        62     3.614     2.133 -64.63   3
        30    881.4623    972.4254 300.1753079 +22.9326756     2145.678     72.70241      1.683     3.66     2.937685     20.51156     152.6718        25     1.199     1.188 -33.29   0
        31     31.1505    963.0923 299.9137254 +22.6748761     1977.679     72.73943      6.148    13.83     34.92182     20.51156     48.06905        44     2.824     1.883 -31.47   3
        32    531.7289    969.9588 300.0671524 +22.8270878     410.5215     72.66536      1.480     4.22      2.92679     20.51156     40.95228         8     0.958     0.629  25.54   0
        33    379.5625    968.5408 300.0202593 +22.7810256     322.5837     72.72092      1.423     5.05     3.427488     20.51156     40.09956         7     0.915     0.843  70.99   0
        34    670.1451    961.6298 300.1129663 +22.8662160     830.1465     72.72092      2.043     5.82     3.048596     20.51156     52.15556        13     1.302     0.773  79.20   0
        35    997.3810    960.1193 300.2154644 +22.9638880      581.232     72.68388      1.793     5.57     2.683187     20.51156     44.65844        15     1.153     0.979  61.57   0
        36     44.7019    958.5188 299.9194231 +22.6776349     894.9288     72.83192      4.569     7.05     29.29193     20.51156     43.13062        10     1.521     0.967  39.21   0
        37    704.9035    955.9570 300.1256406 +22.8750119     899.2751     72.72092      1.499     3.34     2.999964     20.51156     89.84122        16     1.167     0.857 -43.99   0
        38    482.2507    956.7252 300.0560581 +22.8084486     485.5544     72.70241      1.744     4.61     2.981604     20.51156     45.77861         9     1.015     0.860 -10.03   0
        39    727.2383    949.3102 300.1347625 +22.8798021     11413.03     72.68388      1.597     3.10     2.963072     20.51156     922.8418        55     1.362     1.332 -64.96   0
        40    918.2289    948.6891 300.1944977 +22.9368829      320.535     72.68388      1.232     4.22     2.937685     20.51156     46.74585         8     1.006     0.612 -10.71   0
        41    773.0723    949.0616 300.1491256 +22.8934739     546.4666     72.73943      1.569     4.89     2.933947     20.51156     44.27076         9     0.870     0.778 -45.59   0
        42     38.9346    940.9422 299.9233510 +22.6708668     471.3758     72.73943      1.596     4.88     16.92265     20.51156     44.78097         8     1.093     0.619  62.00   0
        43    432.3408    937.6517 300.0467329 +22.7880043     308.1116     72.75794      1.308     4.85     3.154783     20.51156     66.66412         7     0.996     0.670 -71.72   0
        44    735.7137    931.2787 300.1432714 +22.8771689     1429.236      72.8504      1.616     3.43     2.947979     20.51156     129.3548        23     1.229     1.121  67.88   0
        45     29.0046    931.9343 299.9231975 +22.6653040     128.3811     72.70241      1.160     3.64     10.31555     20.51156     34.90886         5     0.619     0.617   7.57   0
        46    918.8162    930.3309 300.2006555 +22.9317885     515.2982     72.72092      1.286     3.85     2.937685     20.51156     54.32793        10     1.116     0.621  -6.24   0
        47    588.0424    928.6737 300.0981212 +22.8321366     700.5364     72.68388      2.278     6.00     2.937169     20.51156     37.91137        12     1.334     0.759  34.03   2
        48    773.8892    924.9350 300.1572318 +22.8867944     961.1337     72.83192      1.939     3.63      2.95839     20.51156     74.52186        15     1.029     0.983 -19.66   0
        49    881.6418    921.6085 300.1919025 +22.9181417     424.0027     72.72092      1.887     5.83     2.967007     20.51156     41.83991         9     1.176     0.812   3.81   0
        50    822.4632    916.0356 300.1752671 +22.8988024     694.5022     72.70241      1.677     4.89      2.99043     20.51156     64.97892        13     1.042     0.977  62.83   0
        51    673.6398    915.2395 300.1291518 +22.8539528     694.9623     72.77644      1.436     3.78      3.16493     20.51156     77.77971        15     1.056     0.999  -0.07   0
        52    386.2253    911.6521 300.0408445 +22.7667116     4187.944     72.72092      1.557     3.02     3.497567     20.51156      413.502        34     1.270     1.157  79.82   0
        53    685.1666    912.4201 300.1336599 +22.8566002     576.8572     72.70241      1.453     3.16     3.175518     20.51156      64.5499         9     0.853     0.753 -43.46   0
        54    430.1568    900.1354 300.0582606 +22.7765893     375.3434     72.68388      1.209     3.52     3.353864     20.51156      46.7391         5     0.983     0.363 -88.54   0
        55    164.7653    900.2443 299.9756909 +22.6969796      376.876     72.75794      1.665     4.10     4.881896     20.51156     47.27149         7     1.035     0.587 -72.15   0
        56     48.0696    900.0862 299.9394817 +22.6619020     622.9585     72.81343      2.736     6.16     6.025533     20.51156     36.49826        10     1.242     0.859  33.92   0
        57     29.2778    899.5908 299.9338054 +22.6561180     569.2482     72.66536      1.998     3.77     5.942248     20.51156     43.07336         6     0.915     0.446 -87.36   0
        58    111.6845    897.3869 299.9601245 +22.6802266     933.7365     72.64684      2.021     4.92     5.738601     20.51156     81.65806        15     1.271     1.026 -27.40   0
        59     19.6328    895.3215 299.9321985 +22.6519987     860.9121     72.68389      4.371     8.83     5.571635     20.51156     61.59096        15     1.721     1.265 -86.33   0
        60     88.4662    894.3091 299.9539114 +22.6723743     1774.832     72.83192      1.969     4.11     5.752378     20.51156     138.8844        26     1.324     1.235  22.59   0
        61    960.3749    883.1687 300.2289632 +22.9307021     2195.946     72.70241      1.631     3.35     3.022804     20.51156     169.0179        24     1.168     1.130 -56.70   0
        62    914.5184    881.7169 300.2151344 +22.9165426     2191.662     72.83192      1.572     3.32     3.073599     20.51156     188.1935        23     1.132     1.093  58.61   0
        63   1011.6224    877.8110 300.2466922 +22.9445202     324.4703     72.70241      1.465     3.67     3.013417     20.51156     33.82793         5     1.012     0.384  -4.69   0
        64    698.2536    875.6320 300.1497067 +22.8499669     718.8917     72.72092      1.476     3.33      3.47223     20.51156     76.59842        13     0.989     0.889 -64.18   0
        65    120.9606    875.7116 299.9700584 +22.6767985     415.4183     72.68388      1.404     4.56     4.262089     20.51156     49.79499         8     0.995     0.593  55.51   0
        66    566.2153    869.6476 300.1105302 +22.8086553     4721.457     72.73943      1.406     2.68     3.281127     20.51156     486.5202        30     1.132     1.083  66.82   0
        67     56.1163    870.1985 299.9517043 +22.6557524     497.5684     72.60976      2.037     5.84     3.938372     20.51156     39.02372        10     1.224     0.783  84.57   0
        68    368.3911    866.8243 300.0498807 +22.7485047     621.9347     72.70241      1.347     3.99     3.660079     20.51156     80.30556        11     1.025     0.819   0.93   0
        69    116.3101    863.5212 299.9725788 +22.6719083     1402.149     72.83192      1.723     3.31     3.576435     20.51156      130.315        20     1.178     1.055  -8.09   0
        70    586.6141    862.1895 300.1193082 +22.8126330     597.0938     72.60976      1.282     3.33     3.406265     20.51156     85.72836        12     1.092     0.715 -12.15   0
        71    135.8477    860.6434 299.9795864 +22.6769479     484.1983     72.73943      1.512     5.24     3.567284     20.51156     54.99661        12     1.160     0.916 -74.34   0
        72    503.2095    851.9152 300.0966840 +22.7846710      334.955     72.64684      1.479     4.59     3.423125     20.51156     30.30683         5     1.301     0.460  62.38   0
        73    997.7959    849.7678 300.2515027 +22.9323234     429.5748     72.68388      1.896     4.69     3.076957     20.51156     35.29657         7     1.342     0.465  58.75   0
        74    742.2407    849.3634 300.1719579 +22.8556150     4183.587     72.79494      1.418     2.64     3.552385     20.51156     432.1375        32     1.184     1.106  74.90   0
        75    959.0508    849.3324 300.2395588 +22.9205887     1221.026     72.68388      1.611     3.82     3.164331     20.51156     103.7052        19     1.172     1.061   8.48   0
        76    473.2303    846.4664 300.0891253 +22.7741158     337.8408     72.70241      1.344     4.24      3.49997     20.51156      42.6127         5     1.119     0.499   0.83   0
        77    151.2666    843.4523 299.9899702 +22.6766478     465.6043     72.72092      1.357     3.26     3.556408     20.51156     50.79666         6     0.897     0.442 -89.72   0
        78    459.5031    842.0610 300.0862860 +22.7687345     497.1589     72.79494      1.301     3.17     3.517357     20.51156     63.73568        11     0.903     0.850 -18.96   0
        79    105.7851    840.1308 299.9769166 +22.6620443     959.8258     72.72092      1.498     3.43     3.568922     20.51156     116.1408        13     0.965     0.935  85.35   0
        80    255.2707    832.0540 300.0260090 +22.7045919      53090.4     72.72092      1.524     2.75     3.457285     20.51156     5902.187       103     1.421     1.390  42.37   0
        81    520.8301    835.3174 300.1075682 +22.7851939     441.9369     72.72092      1.561     4.72     3.428489     20.51156     49.51416         9     0.934     0.806 -61.56   0
        82    513.1755    831.0467 300.1065745 +22.7816728     1714.712     72.72092      1.446     2.73     3.451843     20.51156     180.3949        19     1.048     0.927  30.87   0
        83    926.0204    829.9212 300.2355720 +22.9051164     940.7319     72.70241      1.476     3.50     3.407145     20.51156     84.73734        14     1.073     0.878  19.24   0
        84    228.6362    829.7590 300.0184742 +22.6959414     226.6254     72.77644      1.177     4.14     3.482869     20.51156     33.72182         6     0.716     0.682 -25.03   0
        85    183.5405    830.2404 300.0042987 +22.6825463     459.8856     72.70241      1.541     3.85     3.527608     20.51156     54.62683         8     0.845     0.797  -9.39   0
        86    542.2626    827.1134 300.1169090 +22.7892677     860.5938     72.81343      1.449     3.16     3.439267     20.51156     98.02322        15     1.089     0.883  23.19   0
        87    553.0273    825.4624 300.1207975 +22.7920222     625.5164     72.70241      1.397     3.87     3.459221     20.51156     69.73238        12     1.112     0.774  83.43   0
        88    873.3054    822.9937 300.2213879 +22.8873297     381.3709     72.59122      1.450     5.22     3.515383     20.51156     42.90263         8     1.107     0.695  59.32   0
        89    658.6317    821.8607 300.1548562 +22.8226546     259.2601     72.73943      1.237     2.77     3.636923     20.51156     51.04733         7     0.802     0.607 -66.03   0
        90    125.0466    820.7993 299.9891895 +22.6622840     199.1885     72.70241      1.204     4.68     3.555768     20.51156     30.26488         5     0.924     0.674 -22.18   0
        91    453.5353    819.2883 300.0918360 +22.7604115     309.1161     72.83192      1.492     3.84     3.525382     20.51156     35.81561         6     0.932     0.453  -0.62   0
        92    305.0073    809.2934 300.0488784 +22.7129882     31053.18     72.60976      1.456     2.64     3.420435     20.51156     3355.745        70     1.323     1.265  49.87   0
        93    695.9738    811.9293 300.1697192 +22.8309995     754.2897     72.70241      1.335     2.85     3.643543     20.51156     104.9335        11     0.914     0.785  18.23   0
        94    319.4234    809.6984 300.0532303 +22.7174295      2027.57      72.6283      1.439     2.76      3.42978     20.51156     227.4881        24     1.142     1.095 -19.74   2
        95    316.0894    803.8128 300.0541075 +22.7147413     728.2869     72.64684      1.624     3.98     3.416017     20.51156     67.23576        11     1.048     0.767  61.15   2
        96    194.7340    808.2547 300.0149287 +22.6796018     210.6927     72.75794      1.318     4.34     3.490581     20.51156     31.95362         5     0.739     0.724  -9.80   0
        97    828.0712    805.0392 300.2131261 +22.8686177     2787.961     72.66536      1.416     2.69     3.692806     20.51156     338.2545        28     1.163     1.087 -54.29   0
        98    858.2562    803.0817 300.2231728 +22.8771020      377.955     72.73943      2.254     5.41     3.663063     20.51156     30.08374         7     1.032     0.802 -15.89   0
        99    585.8560    801.1744 300.1389191 +22.7948969     964.5984     72.70241      1.418     3.40     3.572399     20.51156      121.114        17     1.071     0.983  21.96   0
       100    187.5984    801.2020 300.0150043 +22.6754383     797.0399     72.47985      1.527     2.83     3.494874     20.51156     90.82735        12     0.940     0.824 -57.49   0
       101    422.3336    801.1116 300.0880382 +22.7458381     315.0872     72.81343      1.261     3.37      3.56818     20.51156     54.51259         8     0.928     0.695  16.50   0
       102    433.1544    796.0627 300.0930474 +22.7476353     813.7242     72.73943      1.378     3.16     3.579563     20.51156     91.14645        14     0.983     0.914  44.20   0
       103    834.0293    793.0442 300.2188848 +22.8669592     504.0989     72.73943      1.410     3.51     3.766176     20.51156     62.78591         8     0.827     0.658  36.10   0
       104    335.0178    792.4355 300.0636951 +22.7171567      262.452     72.70241      1.380     2.44      3.42738     20.51156     42.43651         6     0.759     0.496  -0.88   0
       105    378.9202    790.9342 300.0778404 +22.7298962     406.4708     72.81343      1.332     4.94     3.518349     20.51156     47.66895        10     0.990     0.732  28.47   0
       106    291.1440    791.1015 300.0504833 +22.7036115     354.4589     72.79494      1.370     3.64     3.413551     20.51156     42.93431         5     1.032     0.370  34.84   0
       107    587.7200    790.2244 300.1430608 +22.7923134     409.5986     72.68388      1.258     3.79     3.572504     20.51156      42.7188         5     0.908     0.455 -43.72   0
       108     20.8290    790.4138 299.9666918 +22.6222918      669.862     72.72092      1.641     2.80      3.55144     20.51156     69.17648         8     0.848     0.645  -9.82   0
       109    811.7158    787.8000 300.2136349 +22.8587661     466.1337     72.57266      1.644     4.52     3.826144     20.51156     45.25657         6     0.965     0.601 -16.03   0
       110    185.3381    785.5938 300.0193775 +22.6702846     498.5788     72.68389      1.519     2.83     3.488781     20.51156     56.52172         9     0.839     0.749 -81.51   0
       111    508.6558    775.5897 300.1232042 +22.7644052     408.8947     72.70241      1.153     2.70     3.554553     20.51156     64.21143         6     0.670     0.640  58.69   0
       112    515.4411    774.3644 300.1257148 +22.7660884     336.3592     72.75794      1.236     3.85     3.561563     20.51156     32.41072         5     1.007     0.422  14.62   0
       113    478.1829    773.9783 300.1142430 +22.7548042     597.2755     72.68388      1.408     2.86     3.543058     20.51156     80.98202        11     0.999     0.670   1.67   0
       114    387.3037    773.2264 300.0862073 +22.7273312     335.0729     72.66536      1.268     3.65      3.62688     20.51156     46.75977         7     0.963     0.572  13.57   0
       115    894.4348    770.2773 300.2451221 +22.8785232     1905.623     72.66536      0.796     2.57     3.836829     20.51156     471.0053        30     1.134     1.099 -60.86   0
       116    499.9569    771.4677 300.1218368 +22.7606137     1283.059     72.68388      1.271     2.59     3.552509     20.51156     168.7483        15     0.924     0.904 -27.15   0
       117    419.5325    771.1893 300.0968975 +22.7364137     462.4125     72.70241      1.500     1.57     3.756678     20.51156     69.03091         5     0.633     0.476  69.04   0
       118    581.3961    766.6595 300.1487551 +22.7836543     368.0927     72.66536      1.260     3.60     3.576052     20.51156     45.64156         9     0.901     0.839  37.24   0
       119    882.9766    761.7071 300.2443364 +22.8726285     1591.018      72.6283      1.361     2.69     3.908225     20.51156     201.6626        18     1.081     0.937 -14.84   0
       120    245.8283    755.9908 300.0478092 +22.6799460      950.926     72.70241      1.566     3.93     3.426388     20.51156     107.7237        17     1.277     0.942 -74.79   0
       121    709.5215    753.0589 300.1930858 +22.8181612     2597.264     72.73943      1.458     2.64     3.825119     20.51156     317.5295        29     1.402     0.986  -3.89   0
       122    914.1397    751.8048 300.2572740 +22.8791220     1614.975     72.66536      1.417     2.80     3.873978     20.51156     189.7645        20     1.080     0.972 -15.43   0
       123    791.8554    738.9333 300.2233361 +22.8387825     563.1238     72.75794      1.381     3.76       4.1034     20.51156     77.32117         8     0.876     0.860 -66.47   0
       124     94.7876    739.7773 300.0061333 +22.6299742     708.9642     72.68388      1.748     3.58     3.544144     20.51156     79.07478        11     0.960     0.900  22.54   0
       125    827.7437    729.9669 300.2374380 +22.8469625       146819     72.72092      1.376     2.37     4.132796     20.51156      19214.4       153     1.391     1.315  87.22   0
       126    590.0757    733.8435 300.1621286 +22.7768381      402.131     72.68388      1.234     4.44     3.591583     20.51156     51.91075         8     0.861     0.651  30.90   0
       127    974.6754    731.6622 300.2827041 +22.8914725      1294.72     72.75794      1.402     2.51     3.604318     20.51156     161.3781        17     1.061     0.900  20.39   0
       128    432.3639    731.2486 300.1138775 +22.7288026     241.1819     72.72092      1.459     4.40     3.924169     20.51156     27.97509         5     0.967     0.570 -39.41   0
       129    680.2768    730.2079 300.1914051 +22.8028349     758.9634     72.66536      1.363     3.98     3.809927     20.51156     90.89314        11     1.116     0.687  18.71   0
       130    860.7390    722.7502 300.2500709 +22.8547769     429.2059     72.75794      1.227     2.98     4.124716     20.51156     64.36356         9     1.041     0.561  44.56   0
       131   1023.4448    720.9418 300.3014041 +22.9030016     390.1756      57.8295      1.280     3.55     3.426048     20.51156     68.98895         7     0.952     0.642  87.62  24
       132    513.8043    718.8558 300.1432545 +22.7496683     1724.775     72.66536      1.310     2.45     3.735832     20.51156     251.7325        17     0.975     0.916 -46.40   0
       133    695.2130    716.1038 300.2006441 +22.8032628     9220.551      72.6283      1.316     2.32      3.89327     20.51156     1261.914        40     1.138     1.111  -0.51   0
       134    196.6736    711.4062 300.0470225 +22.6524115     4978.935     72.64684      1.450     2.66     3.625907     20.51156     544.8115        35     1.194     1.152  41.82   0
       135    278.4965    709.2576 300.0731616 +22.6763426     1221.303     72.77644      1.451     2.68     3.705454     20.51156     151.4437        17     1.056     0.941  82.93   0
       136    154.4528    706.9819 300.0353371 +22.6384747     528.7589     72.68388      1.553     3.41     3.696713     20.51156      78.5359         8     1.083     0.529 -67.79   0
       137    487.0116    704.9409 300.1394383 +22.7376412      886.973     72.66536      1.402     2.52     3.799776     20.51156      115.783        13     1.022     0.805  49.20   0
       138    478.7502    697.0349 300.1394371 +22.7328951     3335.832     72.72092      1.320     2.31     3.848945     20.51156     470.1937        24     1.061     0.961  42.13   0
       139    468.9721    690.8999 300.1383881 +22.7282025     1517.436     72.64684      1.370     2.44     3.937073     20.51156     217.9969        19     0.997     0.985  74.67   0
       140    397.8318    689.9783 300.1165495 +22.7066048     294.4478     72.70241      1.214     3.88     4.080526     20.51156     49.83114         8     0.848     0.630  38.07   0
       141    862.5547    688.5394 300.2617597 +22.8454952     447.7429     72.72092      1.565     3.83     4.094479     20.51156     46.92871         8     0.935     0.666 -88.06   0
       142    132.6212    687.3522 300.0349329 +22.6262950     645.4139     72.72092      1.320     3.49     3.851074     20.51156      82.9123        12     1.099     0.790  25.67   0
       143    146.6828    685.4700 300.0399149 +22.6299743     793.3468     72.81343      1.533     2.95     3.861921     20.51156     84.13935        13     0.998     0.814 -23.95   0
       144    915.5312    682.1447 300.2803574 +22.8595298     601.4263     72.73943      1.700     3.66     3.932339     20.51156     66.14503         9     0.974     0.697 -38.51   0
       145    203.7096    682.7117 300.0585376 +22.6462927     379.2191     72.86888      1.541     3.64     3.811314     20.51156     37.14792         5     0.887     0.430  44.96   0
       146    493.0185    681.3379 300.1489810 +22.7326685     362.3138     72.66536      1.202     2.98     3.973346     20.51156     65.63128         8     0.843     0.664  53.29   0
       147    172.3286    682.0798 300.0489880 +22.6366967     511.5341     72.81343      1.208     2.54     3.865237     20.51156     79.05116         8     0.873     0.587  34.02   0
       148    393.6434    680.5627 300.1183070 +22.7026470      1744.79     72.77644      1.275     2.32     4.094498     20.51156     242.0935        17     0.985     0.881  27.75   0
       149    969.5193    677.6989 300.2986408 +22.8744252      865.336     72.83192      1.404     2.60     3.873305     20.51156     95.98434        14     0.914     0.893  81.92   0
       150     47.6388    675.5635 300.0123588 +22.5974137     19303.17     72.77644      1.596     2.93     4.421722     20.51156     2100.318        66     1.395     1.334  35.69   0
       151    478.8603    675.5916 300.1464421 +22.7267742     985.7371     72.66536      1.303     4.96     3.976948     20.51156     133.4279        14     1.394     0.781 -48.35   0
       152    513.9524    675.0988 300.1575256 +22.7371544     319.2356     72.73943      1.225     2.11     4.085332     20.51156     71.85005         6     0.849     0.423  35.50   0
       153    232.1075    667.6855 300.0722506 +22.6505020     196.1263     72.86888      1.151     3.85     3.873069     20.51156     37.33392         6     0.828     0.648 -24.17   0
       154    896.6103    661.7103 300.2811000 +22.8479915     1091.793     72.64684      1.384     2.49     3.968346     20.51156     134.8728        15     0.967     0.918 -36.65   0
       155    763.3576    659.8369 300.2401696 +22.8075288     411.2816     72.77644      1.388     3.80     4.036387     20.51156     56.93101         7     0.845     0.692  30.03   0
       156     59.8703    660.2645 300.0211313 +22.5966974     434.3466     72.73943      1.586     3.66     4.338481     20.51156     52.73676         8     0.939     0.615   5.47   0
       157    441.9594    656.5132 300.1411587 +22.7102344     372.7181     72.68388      1.182     2.48     4.191382     20.51156     55.43713         6     0.754     0.497   5.18   0
       158    836.9362    654.7206 300.2647666 +22.8281058     914.1066     72.81343      1.642     2.69     4.033611     20.51156     81.46825        11     0.909     0.747  77.39   0
       159    234.5869    655.5255 300.0769738 +22.6477577     293.1604     72.72092      1.199     2.91      3.87941     20.51156     59.36714         5     0.893     0.478 -11.07   0
       160    398.6291    648.8259 300.1301740 +22.6950353     535.5728     72.70241      1.211     2.30     4.165156     20.51156     108.2786        10     0.886     0.679   5.91   0
       161    546.8013    647.3060 300.1767862 +22.7390249     496.0141     72.60976      1.403     3.99     4.291959     20.51156     56.99459        10     1.108     0.607  46.13   0
       162    594.0773    645.9036 300.1919629 +22.7527941     509.4265     72.83192      1.247     3.24     3.968882     20.51156     65.17006         9     0.966     0.636  57.18   0
       163    564.2767    645.0187 300.1829708 +22.7436070     587.2891     72.70241      1.274     2.73     4.180467     20.51156     91.33442        11     0.926     0.756  32.54   0
       164    443.4301    644.6516 300.1454718 +22.7072712     863.9961     72.72092      1.542     3.61     4.202745     20.51156     106.6655        16     1.181     0.935  19.17   0
       165    876.6503    639.9382 300.2819533 +22.8357576     3239.981     72.75794      1.292     2.26     3.958161     20.51156     454.3591        21     0.985     0.939 -56.87   0
       166    408.4980    640.0574 300.1360946 +22.6954784     1752.559     72.79494      1.280     2.27     4.227253     20.51156     250.3566        16     0.948     0.886  59.81   0
       167   1022.5584    639.2236 300.3276939 +22.8792560     253.0648     62.61369      1.329     3.51     3.900101     20.51156     32.23998         5     0.773     0.460 -72.49  16
       168    974.7626    637.9669 300.3131918 +22.8645802      686.592     72.73943      1.324     2.64     3.892583     20.51156     83.72115        11     0.860     0.801 -67.98   0
       169    758.6153    635.8175 300.2464989 +22.7992096     114.8352     72.68388      0.798     3.47     3.969455     20.51156     30.79651         5     1.190     0.293 -35.41   0
       170    383.9541    635.3344 300.1299930 +22.6867632     257.8364     72.70241      1.198     3.25     4.060819     20.51156     45.42416         7     0.748     0.650   4.46   0
       171    437.6592    630.7131 300.1482060 +22.7015406     202.1094     72.79494      1.003     2.27     4.233818     20.51156     45.00791         5     0.692     0.457  76.17   0
       172    229.5268    631.1473 300.0833235 +22.6392467     117.8223     72.70241      1.046     4.57       3.8573     20.51156     39.55234         6     1.005     0.590  24.47   0
       173    916.0725    630.0895 300.2974472 +22.8447376     321.5696     72.86888      1.245     2.54     3.895164     20.51156     59.66673         8     0.821     0.693  18.54   0
       174    271.8441    626.8226 300.0978873 +22.6506989     9146.732     72.75794      1.349     2.39     3.943375     20.51156     1281.885        42     1.164     1.136  56.91   0
       175    394.3367    623.8446 300.1369574 +22.6865794     8854.117     72.72092      1.282     2.23     4.129788     20.51156     1221.502        35     1.119     1.042  70.80   0
       176    159.5397    621.7571 300.0646182 +22.6155586     362.5067     72.68388      1.764     4.34     3.946557     20.51156     39.63641         6     0.955     0.562 -28.59   0
       177    473.0135    620.6979 300.1624640 +22.7092661     199.8463     72.59122      1.001     4.02     4.169439     20.51156     39.07878         5     1.067     0.433 -67.40   0
       178    998.9860    618.9784 300.3269200 +22.8663788     962.3298     72.68388      1.459     2.64      3.89693     20.51156     112.1392        14     0.979     0.862 -63.86   0
       179    640.6683    620.0849 300.2148648 +22.7593459     393.4189     72.79494      1.258     2.92     3.912915     20.51156     42.85723         7     0.729     0.658 -88.38   0
       180    806.0419    617.7026 300.2671680 +22.8082169     1883.036     72.70241      1.309     2.28     3.909923     20.51156     274.1729        17     0.952     0.866  19.94   0
       181    890.6205    615.0588 300.2943956 +22.8327953     12403.16     72.68388      1.315     2.27     3.888771     20.51156     1614.952        42     1.123     1.111 -81.24   0
       182    454.8756    613.4208 300.1591837 +22.7017395     11291.67     72.70241      1.260     2.13     4.222897     20.51156     1553.108        45     1.126     1.093  65.45   0
       183    847.9445    611.0688 300.2823863 +22.8188649     2877.108     72.73943      0.470     2.27     3.883417     20.51156     1998.467         9     0.405     0.387 -13.53   0
       184    624.2781    608.9860 300.2133668 +22.7512469     578.1154     72.72092      1.161     2.18     3.918158     20.51156     88.18674         8     0.761     0.627  64.57   0
       185    182.4443    608.8644 300.0759274 +22.6187315     1336.201     72.70241      1.392     2.65     3.913036     20.51156     166.7276        16     1.056     0.866  -1.53   0
       186    429.3169    606.4013 300.1535107 +22.6920618     444.6283     72.59122      1.215     2.72     4.270885     20.51156     52.93582         7     0.798     0.631 -67.04   0
       187    386.6142    601.5951 300.1417851 +22.6778786     4443.294     72.57266      1.314     2.20     4.085228     20.51156     610.7372        31     1.120     1.041  49.69   0
       188    729.3277    601.4774 300.2485328 +22.7805714       772.44     72.81343      1.148     2.29     3.909966     20.51156     106.6039        12     0.845     0.775  79.90   0
       189    364.7909    599.9981 300.1355144 +22.6708765     1278.149     72.51699      1.279     2.53       3.9384     20.51156     179.4669        14     1.009     0.809  46.24   0
       190    119.1772    599.4445 300.0593243 +22.5970501     603.5543     72.75794      1.247     2.85     3.947845     20.51156     86.85315         7     0.745     0.611  10.86   0
       191    806.4037    596.9393 300.2740285 +22.8023612      1461.94     72.68388      1.267     2.46     3.882984     20.51156     200.8734        16     0.991     0.826 -52.23   0
       192     53.1594    597.4025 300.0394746 +22.5766575     438.7476     72.70241      1.980     3.51     4.352552     20.51156     39.07439         5     0.991     0.359 -85.68   0
       193    503.2032    589.1373 300.1821172 +22.7092574     198298.2     72.70241      1.271     2.11     4.299708     20.51156     30358.34       191     1.386     1.348 -27.17   0
       194    687.0223    594.0803 300.2377555 +22.7657702      990.724     72.66536      1.311     1.93     3.923146     20.51156     166.2044        14     1.030     0.781 -35.94   0
       195    326.9126    595.5033 300.1251919 +22.6582281     345.6394     72.88735      1.099     2.02     3.898294     20.51156      53.2607         6     0.718     0.499  -4.12   0
       196    779.8920    592.0325 300.2673597 +22.7930089     260.6417     72.64684      1.248     4.03     3.892974     20.51156     29.40862         6     0.971     0.478  53.73   0
       197    890.9863    590.6982 300.3024264 +22.8259060     245.9531     72.59122      1.210     4.22     3.886575     20.51156     34.37004         7     0.784     0.647   6.41   0
       198    189.2739    589.2233 300.0844327 +22.6151459     3470.329     72.73943      1.344     2.35     3.915761     20.51156     424.2911        30     1.146     1.070  52.87   0
       199    755.3550    585.1618 300.2619454 +22.7836839     618.2615     72.75794      1.334     2.73     3.903121     20.51156     76.58088         9     0.911     0.676 -20.37   0
       200    773.8209    582.9326 300.2684247 +22.7885761      151.204     72.68388      0.850     3.30     3.897771     20.51156      34.7227         6     0.747     0.567  51.70   0
       201    393.8077    569.7635 300.1543664 +22.6708999     2798.787     72.70241      1.391     2.56     4.147403     20.51156     356.4749        28     1.437     0.897  87.30   0
       202    237.9763    571.9069 300.1052005 +22.6247856      524.435      72.6283      1.338     4.17       3.9213     20.51156     54.87727        12     1.152     0.687  78.87   0
       203    843.9955    569.4708 300.2946731 +22.8057316     307.7795     72.64684      1.119     2.00     3.902582     20.51156     49.97219         6     0.728     0.498  -2.81   0
       204    624.2596    565.4788 300.2274987 +22.7387485     621.7838     72.73943      2.053     4.80     4.207251     20.51156     53.74152        12     1.172     0.810  64.52   0
       205    805.6867    566.0587 300.2838398 +22.7932756     408.4215     72.79494      1.182     2.05     3.898983     20.51156     70.01527         6     0.690     0.568 -44.37   0
       206    711.1155    557.9246 300.2570104 +22.7626057     462.3409     72.81343      1.257     1.96     3.934213     20.51156     89.93985         8     0.768     0.621  42.90   0
       207    790.7540    555.3950 300.2826502 +22.7857388     1660.649     72.70241      1.199     2.08     3.904525     20.51156     259.3834        19     0.953     0.919 -63.64   0
       208    678.0772    555.5106 300.2475015 +22.7520130     244.1876     72.83192      1.030     3.91     3.968816     20.51156     43.93873         6     0.977     0.495   4.82   0
       209    661.9753    553.2287 300.2432268 +22.7465328     2575.504     72.70241      1.235     2.05     4.046851     20.51156     393.7779        22     0.976     0.922  58.10   0
       210    906.2563    550.4219 300.3202755 +22.8189072     574.4733     72.72092      1.439     2.53     3.902992     20.51156     66.93636         9     0.805     0.749 -74.11   3
       211    905.0594    546.2786 300.3212485 +22.8173582     777.5808     72.73943      1.433     2.62     3.905186     20.51156     122.5341        13     0.995     0.815  82.74   2
       212    566.9291    549.7028 300.2147705 +22.7170369     551.3228     72.83192      1.250     2.29     4.438291     20.51156     94.68369         9     0.892     0.630 -69.04   0
       213    449.1176    549.1807 300.1782653 +22.6815738     645.1271     72.68388      1.230     2.08     4.285254     20.51156     116.0858        10     0.812     0.684  87.06   0
       214    919.3661    547.1526 300.3254261 +22.8218941     1291.665     72.73943      1.322     2.25     3.898981     20.51156      188.016        15     0.914     0.869 -86.84   0
       215    791.0570    545.5381 300.2859472 +22.7829980     2276.808     72.75794      1.473     2.50     3.908315     20.51156     352.7745        29     1.596     0.897  77.99   0
       216    544.3706    543.5308 300.2097518 +22.7085037     554.7109     72.68389      1.205     2.59     4.449719     20.51156     67.58263         9     0.869     0.672  71.17   2
       217    543.5493    539.5530 300.2107884 +22.7071154     389.8815     72.73943      1.110     4.04     4.433283     20.51156     48.47011         6     1.029     0.453 -54.75   2
       218    330.1315    543.5791 300.1430637 +22.6442927     284.9035     72.70241      1.017     1.73     3.966924     20.51156     54.86584         5     0.641     0.469 -20.59   0
       219    829.1656    540.6620 300.2994104 +22.7930127     4229.917     72.72092      1.230     2.07     3.914373     20.51156     677.5628        29     1.042     1.000  79.32   0
       220    382.7719    542.5432 300.1597764 +22.6597785     428.6186     72.70241      1.268     2.08     4.096997     20.51156     55.70903         5     0.678     0.457  23.25   0
       221    489.8249    536.5551 300.1950372 +22.6901518     561.3353     72.72092      1.516     2.58      4.29681     20.51156     58.90485        10     0.911     0.688 -89.82   0
       222    920.9907    531.2320 300.3311054 +22.8178057     764.1252     72.68388      1.375     2.48     3.892621     20.51156     99.63636        11     0.915     0.701  71.55   0
       223     61.2969    531.1899 300.0635141 +22.5601090     916.4154     72.60976      1.413     3.04       4.0627     20.51156     98.09534        14     0.965     0.933 -48.12   0
       224    691.1249    528.0839 300.2604771 +22.7480453     186.8149     72.79494      1.282     3.90     3.990073     20.51156      39.0453         5     0.821     0.532 -39.21   0
       225    722.2698    524.7737 300.2712564 +22.7564257     416.8789     72.70241      1.402     2.91     3.939606     20.51156     52.38402         7     0.829     0.591  65.63   0
       226     54.1382    521.1788 300.0645419 +22.5550900     345.6271     72.66536      1.379     3.69     4.084163     20.51156     55.63855         8     0.948     0.653 -67.15   0
       227    661.2306    514.8873 300.2554511 +22.7352979     493.5175     72.68388      1.269     2.80      4.09308     20.51156     63.73533         8     0.861     0.687  72.22   0
       228    602.7927    511.2435 300.2384330 +22.7167408     583.5816     72.72092      1.099     2.38      4.28207     20.51156     118.1743        10     0.788     0.740  17.77   0
       229   1010.0920    508.7529 300.3662012 +22.8380261       999.64     72.72092      1.378     2.64     3.770825     20.51156     145.5521        17     1.004     0.981 -89.52   0
       230    917.2628    503.5596 300.3389327 +22.8087370     657.2786     72.68388      1.405     2.91     3.882886     20.51156     87.85782        10     1.006     0.697  42.01   0
       231    663.3317    503.4203 300.2598306 +22.7326339     897.0941     72.68389      1.310     2.52     4.095615     20.51156     104.9411        14     0.915     0.858  25.20   0
       232    820.8012    499.5306 300.3101652 +22.7786897      1004.86     72.64684      1.198     2.13     3.909594     20.51156     154.6489        14     0.872     0.856  69.40   0
       233    805.0768    495.9080 300.3064404 +22.7729390     718.6066      72.8504      1.331     2.43     3.908846     20.51156     101.8782        11     0.844     0.787  27.19   0
       234    785.3477    495.9998 300.3002611 +22.7670559     236.9088     72.64684      1.011     2.61     3.911391     20.51156      45.6231         7     0.721     0.649  74.01   0
       235    549.2429    494.0145 300.2273543 +22.6957458     3195.735     72.72092      1.226     2.05     4.241682     20.51156     526.4627        24     1.055     0.903  81.04   0
       236    909.9314    492.7480 300.3401584 +22.8034344     528.2902     72.70241      1.229     3.10     3.882402     20.51156     85.91731        11     0.963     0.848   2.09   0
       237     25.2355    485.8052 300.0670521 +22.5362733     402.5463     72.72092      1.715     3.79     4.184784     20.51156     40.76953         5     0.855     0.482 -43.66   0
       238   1020.6343    481.6866 300.3782827 +22.8334022     446.7736     70.34956      1.205     2.48     3.651783     20.51156     68.73914         8     0.882     0.564 -18.12  16
       239    554.6396    481.8206 300.2329953 +22.6938614     137.3048     72.73943      0.983     3.09      4.18574     20.51156     44.43932         5     0.860     0.522 -37.06   0
       240    388.9497    481.1015 300.1816569 +22.6439941     407.7829     72.77644      1.265     2.35     4.126868     20.51156     63.88608         7     0.786     0.626 -29.27   0
       241    960.6103    473.0128 300.3623749 +22.8129377       1392.3     72.59122      1.300     2.59     3.787851     20.51156     174.5018        18     1.001     0.952 -84.73   0
       242    832.6489    472.2981 300.3227043 +22.7744133     432.3231     72.73943      1.203     2.83     3.914405     20.51156     67.08772        10     0.900     0.757 -89.74   0
       243    918.9158    471.6486 300.3498138 +22.8000610     1017.925     72.68388      1.297     2.46      3.86869     20.51156     132.7438        12     0.893     0.778 -76.88   0
       244    569.0394    470.1752 300.2412615 +22.6948322     212.0709     72.73943      1.090     2.52     4.197847     20.51156     47.93506         5     0.768     0.486 -53.26   0
       245    659.7167    467.9840 300.2702147 +22.7213724     1000.974     72.66536      1.184     2.12     4.115628     20.51156     163.9849        13     0.852     0.760  73.77   0
       246    455.7189    468.5225 300.2065202 +22.6603967     440.3102     72.81343      1.317     3.16      4.35185     20.51156     65.46879         6     0.842     0.553 -60.18   0
       247    163.6684    466.3874 300.1163753 +22.5722244     548.8123     72.72092      1.254     3.11     4.126318     20.51156     82.73168        10     0.987     0.698 -27.18   0
       248      2.7414    465.1673 300.0667671 +22.5236057      28.7625      64.0171      1.289     4.28     4.240435     20.51156      34.2719         6     0.804     0.650   6.06  16
       249    226.1362    462.0009 300.1372198 +22.5896982      3589.01     72.70241      1.270     2.20     4.149852     20.51156     531.9147        23     0.988     0.964  81.87   0
       250    959.1921    460.3155 300.3660567 +22.8088634     4385.804      72.6283      1.252     2.17     3.789429     20.51156     614.1336        26     1.043     0.982 -62.15   0
       251    173.3607    456.7981 300.1225022 +22.5723795      7435.73     72.72092      1.343     2.33     4.180745     20.51156     995.4708        34     1.151     1.049  54.51   0
       252    677.8000    456.5889 300.2795490 +22.7235167     159.4242     72.49842      1.046     3.24     4.096985     20.51156     34.81159         5     0.743     0.438  21.89   0
       253    314.1168    450.9540 300.1681678 +22.6129065     4854.827     72.68388      1.302     2.17      4.16766     20.51156     740.6525        30     1.163     0.949  75.55   0
       254    939.2874    451.2426 300.3627950 +22.8002958     1900.714     72.70241      1.286     2.38      3.83044     20.51156     241.1384        20     0.988     0.970 -37.94   0
       255    558.3505    447.6255 300.2452566 +22.6851532     18279.66     72.72092      1.189     2.05     4.291556     20.51156     2767.811        51     1.148     1.047  87.50   0
       256    401.7957    447.8031 300.1964682 +22.6382855     418.4818     72.51699      2.290     2.96     4.509922     20.51156     38.96332         5     0.730     0.671 -30.26   0
       257    575.9459    447.5032 300.2507753 +22.6903905     957.7205     72.79494      1.839     5.97     4.234816     20.51156     85.89796        15     1.666     0.602 -44.69   0
       258    801.2704    444.0551 300.3220957 +22.7568999     361.2986     72.72092      1.115     4.16     3.954233     20.51156     46.89267         6     1.053     0.469 -61.09   0
       259    755.2745    437.8304 300.3097814 +22.7413351       361.27     72.72092      1.195     2.17     3.933578     20.51156     74.90114         7     0.784     0.577  53.19   0
       260    178.1384    434.8920 300.1311010 +22.5675261     307.5983     72.79494      1.232     3.19     4.313787     20.51156     47.68977         5     0.754     0.519  62.94   0
       261    892.0275    429.9197 300.3549814 +22.7800163     854.0316     72.72092      1.458     2.52     3.887067     20.51156     124.4293        15     1.014     0.964 -80.52   0
       262    428.8118    429.5416 300.2108053 +22.6411399     322.9884     72.66536      1.378     4.09     4.768089     20.51156     39.56146         7     0.981     0.672  49.55   0
       263    602.0232    428.8876 300.2649416 +22.6928571      328.001      72.6283      1.374     2.32     4.161779     20.51156     58.86499         7     0.808     0.614 -63.57   0
       264    113.0784    427.8405 300.1131690 +22.5459923      1983.93     72.68388      1.393     2.55     4.172242     20.51156     243.7855        23     1.079     1.008 -59.07   0
       265    498.9234    417.0715 300.2366767 +22.6585709     6587.911     72.81343      1.256     2.05     4.775324     20.51156     1084.427        32     1.094     0.974  77.26   0
       266    912.6143    417.2673 300.3655100 +22.7825439     1177.048     72.70241      1.191     2.26     3.858442     20.51156      158.004        14     0.956     0.782 -52.84   0
       267    213.8640    416.4056 300.1482101 +22.5729333     649.9312     72.68388      1.345     2.84     4.429183     20.51156     82.66013        13     0.935     0.864   7.42   0
       268     71.1790    410.0803 300.1059156 +22.5283307     459.1635     72.66536      1.333     3.56     4.182542     20.51156     61.75676         8     0.970     0.588 -59.08   0
       269    759.0875    409.1371 300.3202874 +22.7342326     295.8332     72.81343      1.278     2.90     4.002599     20.51156     45.89594         6     0.742     0.547  26.41   0
       270    703.2087    405.9206 300.3039193 +22.7165717     1118.715     72.64684      1.264     2.52     4.077481     20.51156     183.9713        14     0.988     0.720  60.98   0
       271    612.8443    407.2650 300.2753330 +22.6898881      415.333     72.68388      1.168     2.91       4.1624     20.51156     69.07848         7     0.844     0.563  34.89   0
       272    405.5988    403.3530 300.2120853 +22.6266633      6217.19     72.70241      1.226     2.18     4.852387     20.51156     782.5388        31     1.107     0.986  63.31   0
       273    989.9641    404.7080 300.3937146 +22.8020909     299.3332     72.64684      1.235     2.44     3.742402     20.51156     44.78142         5     0.771     0.465  55.90   0
       274    895.0986    397.6890 300.3664052 +22.7716719     727.9925     72.86888      1.528     2.55     3.985533     20.51156     103.4208        11     0.952     0.743  54.97   0
       275    797.5817    397.6073 300.3360289 +22.7424479     1453.067     72.66536      1.323     2.30     4.145001     20.51156     184.3478        17     0.957     0.885  32.65   0
       276    390.0555    391.9960 300.2109362 +22.6187439     480.1763     72.66536      1.387     3.32     4.810777     20.51156     72.17416         9     0.921     0.740 -77.12   0
       277    472.8474    389.9901 300.2373528 +22.6429797     446.7047     72.72092      1.061     1.70     4.915363     20.51156     99.70602         7     0.643     0.622 -28.33   0
       278    750.9794    388.5636 300.3244407 +22.7258924      335.998     72.72092      1.365     2.76     4.131644     20.51156     51.60904         5     0.704     0.623 -85.23   0
       279    453.2757    387.5619 300.2320495 +22.6364174     253.5723     72.66536      1.188     3.55     4.916759     20.51156     41.73359         7     0.925     0.534 -56.41   0
       280    770.3933    385.2788 300.3315577 +22.7307628     432.7874      72.6283      1.104     2.59      4.19805     20.51156     75.16093         7     0.745     0.663 -27.58   0
       281     52.2156    385.1655 300.1081124 +22.5154950      205.364     72.70241      1.300     3.78     4.262664     20.51156     31.98826         5     0.909     0.451  43.57   0
       282    293.1685    382.6265 300.1838380 +22.5870130     2478.225     72.70241      1.288     2.28       4.6118     20.51156     360.9506        25     1.111     0.934  72.09   0
       283     11.6165    379.9341 300.0971981 +22.5018176     969.9658     72.68388      1.379     2.94     4.221992     20.51156     126.3073        16     1.061     0.899  62.49   0
       284    262.4896    372.0933 300.1777165 +22.5747927     29582.53     72.86888      1.308     2.27     4.725842     20.51156     3890.216        72     1.277     1.173  63.58   0
       285    797.1332    369.4251 300.3450394 +22.7342144      1387.81     72.68388      1.159     2.22     4.387599     20.51156     226.7166        15     0.957     0.773  52.36   0
       286    752.7733    367.2567 300.3319175 +22.7203069     273.7695     72.70241      1.136     3.42     4.289948     20.51156     42.00113         6     0.741     0.625  61.25   0
       287    136.7300    358.7804 300.1429405 +22.5332676      399.345     72.72092      1.317     3.05     4.543204     20.51156     60.92934        11     0.915     0.833  40.90   0
       288    712.4475    358.2361 300.3222798 +22.7056376     496.4925     72.72092      1.137     2.17     4.312714     20.51156     83.00378         8     0.775     0.632 -42.50   0
       289    360.8226    357.3820 300.2130782 +22.6000439     443.1347     72.70241      1.124     2.30     4.916457     20.51156     79.83528         8     0.797     0.637 -52.77   0
       290    672.9685    351.6919 300.3121041 +22.6919329     1833.417     72.64684      1.180     1.83     4.342487     20.51156     335.5209        16     1.037     0.791  80.94   0
       291    480.8995    346.3137 300.2540385 +22.6328489     239.5491     72.86888      1.123     3.43     4.953327     20.51156     42.31612         7     0.761     0.632  -6.76   0
       292    887.9678    344.3568 300.3814969 +22.7542066     487.2539     72.73943      1.181     2.04     4.330517     20.51156     107.3959        10     0.834     0.678 -82.55   0
       293    334.6611    336.3507 300.2117664 +22.5861643      2177.27     72.75794      1.440     2.88     4.952825     20.51156     285.3108        24     1.294     0.918  63.88   0
       294    773.8829    329.1045 300.3508819 +22.7156640     473.0131     72.88735      1.103     2.30     4.567034     20.51156     88.03324         9     0.832     0.654 -70.03   0
       295    673.2686    326.4934 300.3203774 +22.6847824     184.7531     72.83192      1.025     3.04     4.419824     20.51156     38.41245         5     0.727     0.471  17.69   0
       296    656.0047    326.6381 300.3149522 +22.6796533     382.2467     72.72092      1.145     2.02     4.401644     20.51156     71.14383         6     0.728     0.481  -0.55   0
       297    410.5242    315.5669 300.2421157 +22.6029310     1114.237     72.70241      1.191     2.34     5.004179     20.51156     177.5241        17     1.073     0.826  61.85   0
       298    218.0686    316.0799 300.1820856 +22.5453972     246.1622     72.81343      1.429     4.65     5.006444     20.51156     32.09898         6     0.908     0.675  45.06   0
       299    655.4984    307.6355 300.3209624 +22.6740415     2110.978     72.70241      1.170     2.13       4.4455     20.51156     301.7211        19     1.011     0.882  67.93   0
       300    793.7471    308.6842 300.3637016 +22.7157428     327.6377     72.73943      1.265     4.65     4.612346     20.51156     43.19909         9     0.908     0.772  73.22   0
       301    916.6472    301.8123 300.4042506 +22.7505609     3157.472     72.70241      1.246     2.18     4.374699     20.51156     477.1154        27     1.083     0.972 -69.10   0
       302    978.0181    296.2034 300.4252133 +22.7673175     390.9256      72.6283      1.395     4.02     4.115767     20.51156     51.00965         7     1.110     0.514  80.98   0
       303    363.7300    291.6743 300.2353100 +22.5820472     566.8294     72.77644      1.083     2.36     5.030614     20.51156     100.3826         9     0.911     0.564 -81.75   0
       304    986.0850    289.7050 300.4298390 +22.7678631     1694.779     72.88735      1.338     2.52       4.0974     20.51156     234.2862        16     1.022     0.844  68.91   0
       305     38.6961    285.6773 300.1362032 +22.4828933       1346.2     72.83192      1.617     3.03     5.167996     20.51156     139.5415        19     1.236     0.957 -38.32   0
       306     69.4445    285.8186 300.1457109 +22.4921536     574.2819     72.72092      1.362     2.55     5.178535     20.51156     87.52956        11     0.898     0.776  42.20   0
       307    932.2109    282.2238 300.4154622 +22.7495873     482.6799     72.70241      1.138     2.42     4.405916     20.51156     68.20479         8     0.751     0.676 -52.71   0
       308    776.1896    279.1168 300.3678253 +22.7019871     461.0534     72.66536      1.641     4.01     4.737981     20.51156     50.72684         7     1.013     0.546  20.42   0
       309    122.4982    277.8962 300.1647685 +22.5057862       437.02     72.88735      1.315     2.66     5.164603     20.51156     73.60762         9     0.838     0.742  13.13   0
       310    917.4312    274.6508 300.4133105 +22.7429860     353.1289     72.73943      1.314     3.06     4.442169     20.51156     57.97192         6     0.854     0.495 -89.20   0
       311    798.6061    270.7799 300.3775180 +22.7063021     461.2231     72.68388      1.294     2.75     4.602825     20.51156     67.07397         5     0.864     0.485  85.28   0
       312    727.0829    268.8984 300.3558375 +22.6843464     683.1982     72.86888      1.276     2.09     4.874673     20.51156      113.478         8     0.754     0.635  51.48   0
       313    317.3973    268.3664 300.2284601 +22.5614693     309.3933     72.66536      0.908     2.31     5.047328     20.51156     60.33207         5     0.664     0.485  81.36   0
       314    817.6879    261.7491 300.3863970 +22.7094188     281.1929     72.72092      1.147     3.25     4.573574     20.51156     50.71413         8     0.951     0.585 -72.94   0
       315    825.2404    257.9742 300.3899764 +22.7105946     2162.254     72.75794      1.264     2.27     4.566047     20.51156     338.1671        20     1.044     0.881  71.09   0
       316    243.7040    255.4184 300.2097423 +22.5356658     2098.704     72.60976      1.307     2.27     5.125854     20.51156      290.705        22     1.093     0.929  83.18   0
       317    321.6370    250.5241 300.2355685 +22.5576162     961.0605     72.66536      1.328     2.91     5.069582     20.51156     124.0568        17     1.135     0.850  -9.07   0
       318     73.4699    250.9873 300.1582639 +22.4833638     368.7609     72.70241      1.073     2.40     5.068089     20.51156     55.24357         6     0.746     0.499 -89.85   0
       319    723.5239    249.4928 300.3610257 +22.6777032     593.8254      72.8504      1.140     2.21     4.846427     20.51156     81.88614        10     0.867     0.664  76.13   0
       320    830.3064    246.3233 300.3953365 +22.7087617     334.0349      72.8504      1.039     1.84     4.546733     20.51156      66.1974         5     0.687     0.428  71.52   0
       321    138.4136    242.7436 300.1811213 +22.5004670     556.3215     72.68388      1.362     2.72     5.176147     20.51156     92.04032        13     0.941     0.839 -66.61   0
       322    256.2196    242.0272 300.2179792 +22.5355718     179.7481     72.70241      1.202     3.89     5.124865     20.51156     33.96275         6     0.955     0.455  53.28   0
       323    676.2760    239.4488 300.3495634 +22.6606687     1805.625     72.70241      1.202     2.10     4.465601     20.51156     263.0532        17     0.999     0.817  75.63   0
       324    741.3339    238.8430 300.3700315 +22.6799746     515.1842     72.68388      1.326     3.27     4.919587     20.51156       72.662        10     0.941     0.754  61.49   0
       325    159.5993    236.0599 300.1898750 +22.5048990     553.4006     72.66536      1.372     2.43     5.177809     20.51156     69.60413         8     0.782     0.661   4.60   0
       326    947.7364    231.6290 300.4367233 +22.7396851     816.6808     72.72092      1.251     2.27     4.325145     20.51156     133.9625        15     1.175     0.751  68.60   0
       327    680.2136    230.8743 300.3535724 +22.6593834     794.3493     72.72092      1.148     2.05      4.48452     20.51156     137.8564        11     0.938     0.660  59.87   0
       328    449.5107    231.8104 300.2814286 +22.5905550     204.8729     72.64684      1.226     3.09     5.081604     20.51156     52.82564         5     0.812     0.561  40.72   0
       329    600.7594    230.1774 300.3290486 +22.6353896     1211.003     72.73943      1.202     2.19     4.437391     20.51156     190.1171        16     0.947     0.813 -84.11   0
       330    421.9515    226.8192 300.2744711 +22.5808649     372.6892     72.72092      1.290     2.42     5.084195     20.51156      59.2763         6     0.738     0.538  38.45   0
       331    527.0187    221.8388 300.3087916 +22.6109079     944.7279     72.72092      1.259     2.38     4.874578     20.51156      145.455        13     0.954     0.788 -79.03   0
       332    796.3253    221.5332 300.3927872 +22.6914622     1398.978     72.77644      1.176     2.20     4.561785     20.51156     217.1261        17     0.970     0.861  81.54   0
       333    808.2304    220.7456 300.3967538 +22.6947996     764.3994     72.72092      1.189     2.12     4.534594     20.51156     131.8679        11     0.790     0.755 -19.95   0
       334    969.1881    211.3721 300.4499874 +22.7402791      1679.12     72.70241      1.362     2.47     4.422155     20.51156     232.2129        21     1.312     1.048 -47.34   0
       335    924.9716    210.8585 300.4363623 +22.7268991     1129.844     72.70241      1.282     2.07     4.398437     20.51156     193.3334        16     0.960     0.902 -79.38   0
       336    158.8452    204.2910 300.1999471 +22.4955525     828.8147     72.68388      1.528     3.98     5.188567     20.51156     87.36932        11     1.141     0.740 -70.00   0
       337     41.4009    203.3002 300.1637707 +22.4600622      257.883     72.53555      1.388     3.49     4.831224     20.51156     32.27135         5     0.764     0.459  73.67   0
       338     20.9951    199.1382 300.1587813 +22.4527498     2189.942     72.68388      1.431     2.62     4.751941     20.51156     248.6501        22     1.155     0.972  34.14   0
       339    843.9404    195.6954 300.4160138 +22.6982865     569.2102     72.77644      1.210     2.38     4.661187     20.51156     116.8583        10     0.885     0.694  46.80   0
       340    178.2951    192.3837 300.2098560 +22.4979633     5666.465      72.6283      1.393     2.53     5.165329     20.51156     592.1845        37     1.246     1.107  63.43   0
       341    160.4823    193.0097 300.2041156 +22.4928042     252.6849     72.64684      1.314     4.73     5.188511     20.51156     39.47303         7     1.035     0.613 -39.10   0
       342    161.6183    183.1076 300.2076808 +22.4903017     546.7347      72.6283      1.270     2.99     5.187393     20.51156     67.25312        10     0.855     0.799 -70.28   0
       343    977.1821    179.5911 300.4627918 +22.7335304     18319.25     72.64684      1.327     2.25     4.659535     20.51156     2849.327        51     1.190     1.131 -75.86   0
       344    926.0811    172.4474 300.4491698 +22.7161845     2871.308     72.70241      1.304     2.02     4.565301     20.51156     438.8936        24     1.099     0.932  75.18   0
       345    822.4816    173.7572 300.4164407 +22.6855555      3523.98     72.66536      1.215     2.13     4.772589     20.51156     552.2417        26     1.073     0.957  64.65   0
       346    371.9653    168.9523 300.2776892 +22.5492672     663.2039     72.73943      1.243     2.34     4.999269     20.51156     101.9797         9     0.743     0.722 -87.26   0
       347    296.0746    160.7283 300.2567481 +22.5241678     590.6265     72.75794      1.223     2.31      5.09223     20.51156     100.7818         7     0.802     0.578 -79.59   0
       348    300.3278    159.3812 300.2585080 +22.5250553     340.1914     72.70241      1.349     3.50     5.088329     20.51156      46.6683         9     0.999     0.771  -6.46   1
       349     62.4670    158.0291 300.1850003 +22.4533825     664.0527     72.70241      1.703     3.36     5.052353     20.51156      70.3964        12     1.137     0.685 -46.75   0
       350    351.2946    156.9598 300.2751479 +22.5396296     594.7427     72.72092      1.456     2.78     5.008628     20.51156     80.20776        10     1.085     0.576  57.29   0
       351    423.2159    156.2486 300.2977575 +22.5609706      1721.32     72.73943      1.323     2.40      4.91051     20.51156     227.5341        19     1.091     0.914  86.09   0
       352    484.7737    155.7435 300.3170812 +22.5792638     427.7797     72.70241      1.211     1.89     4.813699     20.51156     59.80485         6     0.649     0.562  48.17   0
       353    166.6740    151.7241 300.2194317 +22.4828059     468.2466     72.79494      1.326     3.52     5.172321     20.51156     62.24876         9     0.978     0.707 -75.59   0
       354    711.7292    145.5573 300.3910694 +22.6442951     276.8736     72.66536      1.195     2.67     4.778041     20.51156     54.72933         5     0.729     0.438 -23.67   0
       355    857.8452    139.9355 300.4384369 +22.6864139     349.6002     72.72092      1.330     3.11      4.86226     20.51156     46.85688         8     0.832     0.652 -37.11   0
       356    987.7706    136.9847 300.4799157 +22.7244430     3703.532     72.70241      1.378     2.33      4.86709     20.51156     452.7251        32     1.203     1.070 -36.37   2
       357    197.3183    136.1976 300.2339940 +22.4875309     5977.751     72.60976      1.359     2.43     5.090645     20.51156     648.5304        33     1.158     1.077  64.10   0
       358    703.5528    136.1549 300.3915713 +22.6391443     319.3292     72.72092      1.297     2.08     4.763473     20.51156     55.65144         6     0.721     0.496  85.92   0
       359     48.2852    135.9278 300.1877617 +22.4427867     735.3051     72.81343      1.292     2.38     5.027106     20.51156      102.352         9     0.863     0.646 -64.04   0
       360    826.6697    133.3422 300.4308556 +22.6751876     280.0206     72.72092      1.177     2.81     4.864898     20.51156     51.56903         6     0.703     0.640  52.55   0
       361    169.4311    130.1907 300.2272724 +22.4774490      312.624     72.70241      1.368     3.50     5.167579     20.51156     53.79287         6     0.900     0.562 -21.33   0
       362    212.6630    127.1783 300.2416899 +22.4895390     326.6963     72.68388      1.374     3.51     5.046859     20.51156      48.5316         6     0.983     0.397  73.42   0
       363    443.3488    121.4675 300.3153039 +22.5570079     6099.868     72.68389      1.280     2.30     4.886474     20.51156      806.125        31     1.110     1.016  79.85   0
       364    328.9797    121.2108 300.2798000 +22.5226754     696.3681     72.68388      1.296     2.47     5.024768     20.51156     99.67471        12     0.923     0.788  18.38   0
       365    500.1925    115.9709 300.3347805 +22.5724528     311.4984     72.70241      1.196     2.50     4.840709     20.51156     61.56439         7     0.780     0.658 -26.80   0
       366    196.5738    115.5184 300.2404687 +22.4813693     311.8844     72.68389      1.090     3.70     5.090973     20.51156     43.92645         6     0.944     0.418  71.80   0
       367    695.8412    110.9006 300.3973589 +22.6295753     996.5573     72.68388      1.786     3.43     4.798991     20.51156     113.0016        13     1.083     0.853 -52.40   0
       368    788.3593    109.7219 300.4265737 +22.6569294     511.1916     72.68389      1.337     2.58     4.884672     20.51156     66.53394        10     0.835     0.779  85.65   0
       369    998.6676    108.3029 300.4926178 +22.7194520     272.0544     72.81343      1.404     3.83     4.905776     20.51156     32.56926         5     1.026     0.409 -75.64   0
       370    811.7963    105.4543 300.4352635 +22.6627165      184.846     72.66536      1.217     3.73     4.886241     20.51156     28.22964         5     1.021     0.390  84.00   0
       371    136.1832    105.3388 300.2249965 +22.4603490     500.3775     72.64684      1.390     3.07     5.123522     20.51156     71.75541        10     0.932     0.804 -82.56   0
       372    494.5421    104.1402 300.3368580 +22.5673608      438.574     72.77644      1.184     2.57     4.854608     20.51156     77.54533         7     0.818     0.604  12.19   0
       373    571.6888    101.5095 300.3617315 +22.5897060     6208.762     72.86888      1.268     2.24     4.794929     20.51156      881.317        34     1.145     1.004  61.80   0
       374    346.5374    100.5740 300.2919543 +22.5220068     1437.651     72.70241      1.299     2.35     4.937271     20.51156     187.0892        16     0.993     0.860  75.66   0
       375    612.8600     98.9741 300.3753760 +22.6013043      905.364     72.70241      1.327     2.28     4.786931     20.51156      132.953        14     1.032     0.759  64.30   0
       376    682.3686     96.2120 300.3979247 +22.6213193     467.8396     72.70241      1.440     2.34     4.818652     20.51156     48.77913         5     0.686     0.469  76.81   0
       377    628.9171     94.8502 300.3817148 +22.6049262     662.2087     72.72092      1.422     2.60     4.801156     20.51156      79.0826        10     0.866     0.727 -65.58   0
       378     95.6143     93.0669 300.2163672 +22.4446671      715.316     72.68388      1.379     2.86     5.010802     20.51156     92.22535        14     1.052     0.833  80.73   0
       379    898.8884     92.3859 300.4666563 +22.6850201     495.6043     72.64684      1.245     2.97     4.896243     20.51156     68.17712        12     0.975     0.816  11.34   0
       380    667.2625     90.4465 300.3950879 +22.6151397     474.3459     72.72092      1.026     1.80      4.84118     20.51156     76.38729         5     0.627     0.490  12.64   0
       381    615.9145     86.4008 300.3804046 +22.5986045     2746.259     72.59122      1.248     2.19     4.820016     20.51156     393.9768        23     1.056     0.917  73.21   0
       382    256.5038     87.4592 300.2682023 +22.4912672     302.5197     72.77644      1.055     2.81     5.066246     20.51156     53.03503         6     0.851     0.436  19.22   0
       383    630.9472     84.9212 300.3855668 +22.6026797     812.5187     72.73943      1.558     4.32     4.837755     20.51156     83.35734        16     1.429     0.737  47.61   0
       384    702.3801     77.9727 300.4100742 +22.6220656     1565.213     72.70241      1.314     2.31     5.008351     20.51156     213.2697        17     0.993     0.880  75.22   0
       385    780.3953     72.2858 300.4362311 +22.6437805     211.7478      72.6283      1.228     3.54     5.150166     20.51156     47.18761         6     0.725     0.655  30.29   0
       386    640.2414     70.9898 300.3929793 +22.6014570      775.157     72.70241      1.320     3.07     4.908527     20.51156     93.77205        11     1.019     0.729 -86.15   0
       387    458.0303     71.2811 300.3361474 +22.5469837     785.8247     72.70241      0.510     0.80     4.941723     20.51156     648.3934         5     0.450     0.276 -89.45   0
       388    445.9521     70.4524 300.3326568 +22.5431284     1065.786     72.73943      1.292     2.25      4.94716     20.51156     159.9683        13     0.989     0.745  78.83   0
       389     18.8473     70.1669 300.1999393 +22.4150841     574.3887     72.73943      1.917     5.69     4.968554     20.51156      73.2514        12     1.432     0.636  86.28   0
       390    349.8403     68.6559 300.3033313 +22.5138262     857.5661     72.68388      1.351     2.50     4.912457     20.51156     120.1838        13     0.922     0.840  82.29   0
       391    992.8002     65.3760 300.5047076 +22.7053466     2302.235      72.6283      1.329     2.34     4.905131     20.51156     317.8715        23     1.098     0.970 -72.17   0
       392    731.9398     67.2846 300.4227509 +22.6278401       414.83     72.81343      1.311     2.08       5.1942     20.51156     69.73732         7     0.673     0.654 -38.52   0
       393    251.8727     59.0369 300.2759774 +22.4817157     351.2494     72.64684      1.522     4.11      4.95646     20.51156     40.68355         7     0.994     0.609 -89.06   0
       394    121.1519     58.7201 300.2354400 +22.4424576     3875.777     72.72092      1.488     2.63     5.173627     20.51156     436.5459        31     1.268     1.072  43.72   0
       395    689.1735     58.9003 300.4121434 +22.6126287     638.4988     72.64684      1.316     2.39     5.123559     20.51156     92.59983        10     0.858     0.709 -68.24   0
       396    543.5021     55.4348 300.3678941 +22.5680232     400.5119     72.70241      1.060     3.13     4.874348     20.51156     54.07203         8     1.032     0.510  51.50   0
       397    447.3441     56.1419 300.3377298 +22.5394329     425.6188     72.77644      1.387     3.27     4.975996     20.51156     55.09781         5     0.764     0.423  70.17   0
       398    682.4359     50.9925 300.4126081 +22.6083383     836.0321     72.70241      1.211     2.72     5.160203     20.51156      125.652        15     1.029     0.822 -71.02   0
       399    237.1187     50.8785 300.2740343 +22.4749521     1144.969     72.83192      1.363     3.20     4.905689     20.51156     150.4844        14     0.997     0.888 -60.84   0
       400    648.4786     50.0064 300.4023487 +22.5978902     371.8688      72.6283      1.211     2.17      5.03299     20.51156     50.45085         6     0.735     0.494 -81.96   0
       401    720.3092     46.2467 300.4259477 +22.6183096     711.1568     72.68389      1.631     4.00      5.34928     20.51156     80.34435        15     1.303     0.918 -85.73   0
       402    463.4561     47.8475 300.3454339 +22.5418742     198.1637     72.73943      1.153     3.45     4.990858     20.51156     38.03823         5     0.756     0.456 -70.51   0
       403    643.6229     46.0845 300.4021076 +22.5953091      608.939     72.66536      1.438     2.82      5.03586     20.51156     70.01943        12     1.035     0.735 -76.01   0
       404    740.3680     42.3019 300.4334775 +22.6231786     2125.928     72.68389      1.257     2.24     5.456181     20.51156     290.0146        20     1.014     0.937  56.00   0
       405    446.0710     40.7463 300.3423249 +22.5346273     399.7728     72.72092      1.180     3.39     5.007242     20.51156      70.2764        11     0.980     0.833 -70.96   0
       406    787.4136     40.6502 300.4486759 +22.6367828     132.9749     72.73943      1.085     3.41     5.463763     20.51156     29.74858         5     1.036     0.324  20.83   0
       407    123.5965     37.4784 300.2430861 +22.4370901     953.3763     72.60976      1.467     3.76     5.259142     20.51156     114.9875        16     1.235     0.813  68.25   0
       408    688.7698     34.8168 300.4198258 +22.6055830     868.2839     72.68388      1.243     2.33     5.312665     20.51156     146.0512        12     0.922     0.746  64.33   0
       409    395.7033     33.3089 300.3290610 +22.5174063     292.3692     72.88735      1.176     3.32     4.984804     20.51156     41.99683         6     0.859     0.499  45.29   0
       410    915.3065     35.6781 300.4901639 +22.6736197     732.1174     72.83192      1.169     2.25     4.938892     20.51156     117.6038        10     0.841     0.726 -40.97   0
       411    308.1383     28.7441 300.3032978 +22.4898681     200.6738     72.77644      1.351     4.79     4.892358     20.51156     40.77412         5     1.033     0.630  86.96   0
       412    139.2864     27.6319 300.2511547 +22.4389635     258.5572     72.68389      1.144     4.01      5.45931     20.51156     35.34549         6     0.882     0.521  41.34   0
       413    446.5413     27.3592 300.3468112 +22.5309208     357.4594     72.70241      1.412     2.99     5.036292     20.51156      47.3745         5     0.703     0.479 -74.58   0
       414    273.5830     24.5154 300.2939207 +22.4783025     474.7706     72.66536      1.577     2.93     4.856667     20.51156     58.04092         8     0.940     0.591  47.06   0
       415    541.0517     19.7431 300.3787022 +22.5570300     1061.783     72.75794      1.368     2.72     4.933446     20.51156     140.9624        12     0.991     0.781 -83.50   0
       416    275.3743     17.9508 300.2966058 +22.4769531     380.9386     72.72092      1.490     3.32     4.828862     20.51156     59.19515         7     0.966     0.693 -16.57   0
       417    676.2728     17.4785 300.4215530 +22.5968571     226.6291     72.81343      1.115     2.51     5.387206     20.51156       56.142         5     0.713     0.475 -16.84   0
       418    150.7154     16.8533 300.2582012 +22.4392923     556.0363     72.75794      1.479     4.16     5.668451     20.51156     76.62009         8     0.909     0.661  35.57   0
       419    101.7520   1021.2285 299.9167379 +22.7127339     765.2975     68.38936      2.905     3.81     42.61703     20.51156     29.43787         5     1.227     0.339  12.12  17
       420    122.1009   1018.6315 299.9239062 +22.7181001     864.8333     72.68388      4.686     5.19     34.67286     20.51156     33.15236         5     1.013     0.751 -68.93  17
       421    104.9400   1016.4140 299.9192955 +22.7123117     1111.077     72.66536      7.574     8.36     39.70258     20.51156     34.39585        15     1.660     1.178 -52.01  17
       422     93.4393   1010.8133 299.9175451 +22.7072536     1723.897     72.72092     11.581    14.66     42.50866     20.51156     60.43008        32     4.331     1.380   0.37  19
       423     27.9408    997.4733 299.9015394 +22.6837627     2140.885     72.73943      6.769    24.38     63.15348     20.51156     58.91729       129     5.241     3.150  65.85  19
