#   1 NUMBER                 Running object number                                     
#   2 X_IMAGE                Object position along x                                    [pixel]
#   3 Y_IMAGE                Object position along y                                    [pixel]
#   4 ALPHA_J2000            Right ascension of barycenter (J2000)                      [deg]
#   5 DELTA_J2000            Declination of barycenter (J2000)                          [deg]
#   6 FLUX_APER              Flux vector within fixed circular aperture(s)              [count]
#   7 FLUXERR_APER           RMS error vector for aperture flux(es)                     [count]
#   8 FLUX_RADIUS            Fraction-of-light radii                                    [pixel]
#   9 FWHM_IMAGE             FWHM assuming a gaussian core                              [pixel]
#  10 BACKGROUND             Background at centroid position                            [count]
#  11 THRESHOLD              Detection threshold above background                       [count]
#  12 FLUX_MAX               Peak flux above background                                 [count]
#  13 ISOAREA_IMAGE          Isophotal area above Analysis threshold                    [pixel**2]
#  14 A_IMAGE                Profile RMS along major axis                               [pixel]
#  15 B_IMAGE                Profile RMS along minor axis                               [pixel]
#  16 THETA_IMAGE            Position angle (CCW/x)                                     [deg]
#  17 FLAGS                  Extraction flags                                          
         1    213.7172     13.5593 300.2353575 +22.4425078     3790.849     72.46241      1.517     2.52     5.388241     20.45427      514.017        31     1.225     1.142  59.97   0
         2    781.9164     14.1289 300.4120422 +22.6127722     664.9946      72.6285      1.445     3.56     4.760009     20.45427     73.92404        12     1.002     0.865 -81.31   0
         3    635.9728     10.9724 300.3675937 +22.5681922     292.5524      72.4624      1.241     2.27     5.164245     20.45427     53.16481         5     0.618     0.570 -89.25   0
         4    539.6068     11.0553 300.3375583 +22.5393725     252.6756     72.49935      1.072     1.88     5.300633     20.45427     66.12169         6     0.734     0.482  81.88   0
         5    775.0205      6.2304 300.4124513 +22.6084371     977.1799     72.49935      1.361     2.48      4.77273     20.45427     125.7006        13     1.009     0.727  28.35  16
         6    329.8015      5.5995 300.2740348 +22.4749881     1242.121     72.27741      1.459     2.64     4.570039     20.45427     151.2841        19     1.139     0.990  26.86  16
         7    812.9469      1.4062 300.4258347 +22.6183964     458.8996     56.84962      1.294     3.36     4.854452     20.45427     70.60144         7     1.006     0.524  24.47  24
         8    736.4050      1.3669 300.4019928 +22.5954843     372.0113     56.51896      0.967     2.40     4.740455     20.45427     69.28918         6     0.784     0.482   1.01  24
         9    215.8885   1000.5812 299.9157046 +22.7263847     1666.881     72.44393      3.306    11.01     77.54781     20.45427      60.0755        37     2.379     1.418 -34.31   3
        10    337.8701   1022.0793 299.9466393 +22.7691572     838.1727     64.75448      1.683     4.67     13.85963     20.45427     84.14432        20     1.305     1.122  71.29  24
        11    291.8209   1022.1793 299.9322868 +22.7553660     800.1661     64.23553      2.774     8.47     44.17701     20.45427     40.75297        18     1.990     1.008 -77.04  26
        12    288.3065   1023.3463 299.9308145 +22.7546458     406.1751     58.33736      1.732     3.90     47.34274     20.45427     36.85643         5     0.951     0.459 -38.78  27
        13    122.8360    960.2798 299.8998913 +22.6869023     5324.472     72.44393     23.811    86.83     35.72414     20.45427     97.17928      3244    18.955    16.479 -45.96  19
        14    539.2772    985.3043 300.0212657 +22.8190387     294.2805      72.6285      1.720     6.69     3.145154     20.45427     41.42879         7     1.268     0.990  58.02   0
        15     24.1938    982.4020 299.8620556 +22.6636270     1037.258     72.31445      7.781     6.62    -1.688901     20.45427      65.7359        18     1.706     1.511 -81.21   0
        16    968.5630    980.5692 300.1565604 +22.9463885     839.0994     72.53627      2.044     6.07     3.136657     20.45427     52.67913        17     1.184     1.050   5.71   0
        17      3.0942    984.1888 299.8549219 +22.6578035     1345.237     65.39227     16.129    21.40     -16.6163     20.45427      38.2849        56     4.646     2.739  84.17  27
        18    776.1642    997.3339 300.0911302 +22.8935289     694.3992     72.49935      1.910     5.99     3.261063     20.45427     43.82964        15     1.177     1.068 -51.79   0
        19    187.4735    966.3304 299.9180104 +22.7080386     1550.081     72.57317      5.547    13.95     47.64826     20.45427     51.07032        39     3.153     1.717  23.64   2
        20      3.3050    991.2338 299.8526966 +22.6598852     1350.519     66.32736      9.144    12.19    -19.09615     20.45427     45.74333        27     2.393     1.728  49.43  27
        21    145.4078   1022.1921 299.8867718 +22.7114212     3822.158     64.06857      5.889    24.43     91.07362     20.45427     102.5001       188     6.524     2.540   6.15  27
        22    125.4792   1017.6898 299.8820438 +22.7041481      4800.35      72.6285      9.382    41.93     82.48618     20.45427     93.22166       504     7.851     6.215  73.68  27
        23    694.2207    963.7278 300.0765299 +22.8593160     6850.124     72.51781      1.816     3.95     3.418872     20.45427     440.8225        46     1.465     1.373  14.44   0
        24      5.4872   1013.8800 299.8460098 +22.6670285     2794.915     72.66536     13.009    43.07    -25.13131     20.45427     63.77433       382     8.488     6.066  77.58  27
        25    846.1525    957.3624 300.1259416 +22.9030378     415.9825     72.53627      1.605     5.50     3.337133     20.45427     39.29789         8     1.025     0.831  46.02   0
        26    286.4627    958.0341 299.9514806 +22.7353689    -1.751591     72.49935      1.025     3.59     20.91162     20.45427     39.41515         5     0.835     0.667  45.53   0
        27    602.6042    954.2729 300.0510721 +22.8291301     1546.366     72.44393      1.861     4.65     3.232722     20.45427     122.0108        26     1.478     1.116  39.42   0
        28    427.1103    948.8317 299.9982189 +22.7749305     6498.476     72.46241      1.793     3.78     3.696753     20.45427     556.1077        43     1.438     1.354 -29.55   0
        29    496.3676    950.7469 300.0191474 +22.7962555     975.1555     72.51781      1.753     4.66     3.239212     20.45427     77.59682        17     1.194     1.030   0.96   0
        30    661.8888    996.0490 300.0559482 +22.8588947     1122.468     72.48088      0.489     2.39     3.246999     20.45427     751.5386         7     0.441     0.390 -25.39   0
        31    117.7101    927.0676 299.9090967 +22.6758449      4142.13     72.64693     17.343    60.41     10.17236     20.45427     85.34975      1137    14.723     6.878 -32.38   3
        32    459.3975    935.2568 300.0126789 +22.7807228     494.1259     72.46241      1.810     6.75     3.469133     20.45427     45.95358        12     1.346     0.950  22.55   0
        33    528.8751   1010.3626 300.0098782 +22.8231059     347.3586     72.44393      1.706     5.46     3.116471     20.45427     38.78708         6     1.022     0.821  55.36   0
        34    973.4671    927.7410 300.1752693 +22.9326897     2122.956     72.53627      1.882     5.01      3.55552     20.45427     130.2843        33     1.485     1.332 -28.00   0
        35    152.4044    929.0566 299.9192306 +22.6868288      966.168     72.46241      4.088     4.25     14.98401     20.45427     39.25327         5     1.170     0.440  78.49   1
        36    624.5168    925.2294 300.0673389 +22.8273683     433.7972     72.51781      1.890     3.25     3.364919     20.45427     42.30465         5     0.792     0.683  36.18   0
        37    656.5643    922.3773 300.0782466 +22.8361594     235.8708     72.51781      1.378     3.46     3.521475     20.45427     27.29931         5     1.122     0.308  68.88   0
        38    762.1926    916.3307 300.1131177 +22.8660924     788.2619     72.48088      1.896     6.69     3.579586     20.45427       54.638        14     1.234     1.017  70.29   0
        39    797.2654    910.7964 300.1258463 +22.8750173     983.2169     72.51781      1.709     4.33     3.579586     20.45427     83.99181        21     1.242     1.212 -14.85   0
        40     12.4174   1000.2839 299.8525835 +22.6652143     1990.611     72.46241     13.475    20.49    -14.27017     20.45427     52.45051        85     4.429     2.632  59.18  27
        41    819.3383    904.4244 300.1347970 +22.8798043     11504.25     72.49935      1.785     3.99     3.547398     20.45427     728.8134        50     1.441     1.356   4.62   0
        42      7.6602    907.9825 299.8811158 +22.6373390     416.7398     72.42545      1.505     2.75     3.405982     20.45427     42.17015         7     0.730     0.647 -83.07   0
        43    864.9203    904.8247 300.1488748 +22.8935809     425.3215     72.48088      1.804     5.74     3.464771     20.45427     30.64896         8     1.235     0.752  -6.66   0
        44    397.5204   1007.9253 299.9697966 +22.7829987     638.9336     72.61006      2.119     6.28     3.846121     20.45427     48.97339        12     1.214     0.914  51.78   0
        45   1010.2810    904.1847 300.1944109 +22.9369557     427.0047     72.48088      1.986     5.34     3.640275     20.45427     35.76503         7     1.198     0.671 -31.63   0
        46    589.3041   1001.3012 300.0316373 +22.8386326     2184.305     72.68378      1.813     4.53     3.158879     20.45427     151.2294        28     1.367     1.276 -23.48   0
        47    130.7649    896.0727 299.9232288 +22.6708793     1098.215     72.48088      5.506     5.43     8.952923     20.45427     61.52917        19     1.406     1.229 -51.36   0
        48    870.9720    892.1544 300.1548806 +22.8917570     369.3623     72.53627      1.609     5.82     3.467821     20.45427     37.27473         7     1.127     0.847  -7.07   0
        49    524.9689    892.6553 300.0469363 +22.7881696      558.361     72.51781      1.539     4.50     3.406359     20.45427     55.34094        10     1.299     0.564  12.44   0
        50    675.7377    996.6326 300.0600718 +22.8632152     8556.642     72.49935      1.877     4.37     3.256306     20.45427     555.2658        45     1.504     1.404   8.19   3
        51    827.7850    886.6417 300.1432109 +22.8772310      1416.77     72.51781      1.699     3.68     3.533955     20.45427     110.0616        21     1.156     1.109  83.66   0
        52    209.3474    992.0342 299.9164509 +22.7219716     700.9763     72.51781      2.972     6.84      69.8414     20.45427     32.90475         5     1.437     0.914  63.48   3
        53    543.6050    884.8660 300.0552695 +22.7915237     152.8255     72.49935      1.296     5.10     3.466149     20.45427     29.20989         5     0.989     0.744  -6.14   0
        54    679.7979    883.6819 300.0980631 +22.8320208     282.6905     72.40696      1.488     4.42     3.594682     20.45427     37.92663         5     0.763     0.730  25.31   0
        55    865.8057    880.2780 300.1571311 +22.8867988      946.217     72.40696      1.974     6.30     3.473625     20.45427     62.88488        17     1.329     1.180  28.10   0
        56    974.8712    877.1317 300.1921615 +22.9185772     427.6531     72.53627      1.804     5.03       3.5581     20.45427     35.47308         6     1.097     0.653 -13.30   0
        57    914.5011    870.9876 300.1753329 +22.8987238     701.4103     72.40696      1.772     4.98     3.454415     20.45427     52.24385        14     1.048     0.986  37.90   0
        58    765.3941    869.9359 300.1291981 +22.8537349     864.6312     72.46241      1.749     5.06     3.579586     20.45427     70.28812        15     1.282     0.927  54.91   0
        59    368.3303    870.8784 300.0052753 +22.7349400     344.4927     72.61006      1.634     5.02     4.188065     20.45427     40.56755         7     1.140     0.719 -11.62   0
        60    208.9670    985.1757 299.9185629 +22.7198916     1503.223     72.49935      3.932    12.96     63.85155     20.45427     57.69028        28     2.880     1.622  55.51   2
        61    478.3342    866.5471 300.0409087 +22.7666933     4194.559     72.53627      1.606     3.38     3.460736     20.45427      410.967        34     1.304     1.185 -24.09   0
        62    777.1562    867.1440 300.1337708 +22.8564590     539.3804     72.49935      1.587     4.75     3.579586     20.45427      59.3377        12     1.115     0.929 -14.09   0
        63    751.3444    859.5600 300.1281932 +22.8465451     3459.249     72.48088      1.324     5.18     3.604697     20.45427     686.6471        14     1.497     0.508  88.77   0
        64    521.8521    855.0435 300.0581921 +22.7764439     392.5672     72.53627      1.647     5.92      3.62168     20.45427     34.74858         9     1.154     0.854  40.79   0
        65    139.8463    854.6827 299.9395038 +22.6617401      380.247     72.48088      1.862     6.23      6.06094     20.45427     29.58093         8     1.212     0.900 -26.18   0
        66    203.8649    852.1326 299.9602287 +22.6802203     808.2211     72.55473      1.652     3.84     6.767077     20.45427     83.01857        16     1.189     0.944  13.23   0
        67    112.8340    850.5512 299.9324532 +22.6524489     516.8742     72.53627      1.798     2.96     4.888215     20.45427     54.22784         5     0.928     0.362 -84.11   0
        68    180.7804    849.1309 299.9540293 +22.6724326     1490.673     72.49935      1.673     3.65     6.607681     20.45427      135.496        25     1.329     1.139   9.11   0
        69   1006.7769    836.8685 300.2152011 +22.9165722     2137.194     72.51781      1.839     4.37     3.880451     20.45427     122.9207        29     1.416     1.244 -10.52   0
        70    711.8924    836.7163 300.1233268 +22.8281621     510.2474     72.68378      1.675     5.41     3.688086     20.45427     55.13602         8     1.130     0.732 -38.94   0
        71    483.4727    836.3421 300.0523252 +22.7595688     324.7188     72.53627      1.752     5.15     3.735898     20.45427     27.70931         7     1.055     0.712  84.53   0
        72    790.1311    830.6427 300.1496785 +22.8498689     609.3375     72.46241      1.526     3.28     3.685985     20.45427     65.75278        12     1.067     0.818  44.32   0
        73    213.3425    830.4915 299.9702079 +22.6768591     460.3326     72.55473      1.625     3.83     5.609426     20.45427     44.16093         9     1.025     0.611  80.81   0
        74    658.3687    824.6874 300.1105641 +22.8086647     4939.349     72.48088      1.593     3.26     3.601142     20.45427     466.1255        36     1.309     1.186   2.29   0
        75    681.4437    994.4874 300.0625467 +22.8643107     9459.825     72.49935      1.890     4.33     3.271302     20.45427     569.6404        49     1.486     1.468  59.54   3
        76    460.8087    821.9012 300.0499653 +22.7486289      680.007     72.36996      1.538     4.21     3.973666     20.45427      71.9757        12     1.157     0.906 -16.40   0
        77    208.6898    818.3763 299.9726987 +22.6719891     1368.524     72.42545      1.721     3.56     4.977039     20.45427     119.3702        23     1.301     1.068  16.95   0
        78    679.0054    817.3480 300.1193771 +22.8127444     812.4656     72.48088      1.484     3.66     3.638858     20.45427     82.33802        17     1.139     0.980  34.57   0
        79    227.9389    815.8963 299.9794883 +22.6770535     261.4034     72.59162      1.124     2.47     4.848256     20.45427     61.53921         5     0.744     0.507 -37.23   0
        80    834.4437    804.4241 300.1720101 +22.8556207      4228.26     72.53627      1.664     3.36     3.604696     20.45427     347.7698        37     1.317     1.247  51.61   0
        81    596.2521    807.5341 300.0967948 +22.7851194     321.6873     72.53627      1.136     2.49     3.687259     20.45427     45.33526         5     0.715     0.451  22.60   0
        82    243.0119    798.4603 299.9898399 +22.6765756     483.3815     72.46241      1.495     4.97     4.129726     20.45427     52.73029         9     1.205     0.618  45.43   0
        83    551.3445    796.8958 300.0862703 +22.7686023     608.8996     72.57317      1.484     4.48     4.025229     20.45427     48.57194         9     0.922     0.694  16.04   0
        84    197.8258    794.6985 299.9770158 +22.6619399     863.0363     72.44393      1.550     2.95     4.079268     20.45427     106.8248        15     1.023     0.939   9.32   0
        85    612.8857    790.1566 300.1076213 +22.7851187     482.8994     72.48088      1.458     5.27     3.695163     20.45427     55.93222         9     1.009     0.802 -25.56   0
        86    347.4155    786.9010 300.0260612 +22.7045792     53596.34     72.40696      1.576     3.02     4.303576     20.45427     6298.937        89     1.395     1.351  31.19   0
        87    605.1570    786.0464 300.1065502 +22.7816220     1624.934     72.53627      1.471     3.34     3.747079     20.45427     164.7966        21     1.113     1.023  11.25   0
        88   1018.3259    785.3627 300.2355431 +22.9052367     903.5212     72.44393      1.723     4.49     4.393255     20.45427     70.27611        18     1.252     1.000 -16.11  16
        89    276.3932    784.6088 300.0047193 +22.6826175     453.6589     72.35146      1.414     4.61      4.26822     20.45427     55.30938         7     0.906     0.666  58.43   0
        90    634.0857    782.0738 300.1168496 +22.7891540     836.3396      72.6285      1.376     3.60     3.721073     20.45427     95.44831        14     1.100     0.875 -13.33   0
        91     33.7999    781.4744 299.9303472 +22.6089273     865.8867     72.36996      1.985     5.56     4.098687     20.45427     76.12238        14     1.469     0.852  -6.59   0
        92      1.4641    781.6385 299.9202510 +22.5992692      430.255     57.17837      1.049     3.05     4.098687     20.45427     58.12016         6     0.859     0.443 -71.91  24
        93    645.1183    780.7023 300.1207311 +22.7920676     605.0889     72.64693      1.459     4.14     3.711438     20.45427       58.856         9     0.968     0.670  53.89   0
        94    750.6931    776.8201 300.1548804 +22.8225968     428.8087     72.42545      1.414     3.98     3.857353     20.45427     53.03616         9     1.095     0.650 -14.76   0
        95    545.5257    774.2811 300.0918073 +22.7603678     223.9105     72.61006      1.450     4.83     4.072082     20.45427     31.89566         6     0.971     0.680 -26.22   0
        96    397.1445    764.1528 300.0489215 +22.7129681      31495.2     72.53627      1.487     2.89     4.431952     20.45427     3337.157        71     1.323     1.296  43.32   0
        97    411.3750    764.6821 300.0531768 +22.7173877     1971.968     72.48088      1.491     2.72     4.426371     20.45427     257.2259        21     1.098     1.059  58.07   0
        98    920.2692    760.2152 300.2131326 +22.8686396     2816.226     72.51781      1.576     3.39     4.013745     20.45427     224.3555        27     1.240     1.133 -43.00   0
        99    408.5652    758.6238 300.0542709 +22.7148068      550.891     72.51781      1.469     2.95      4.45986     20.45427     73.27026        12     1.096     0.719  38.64   0
       100    678.0629    756.2146 300.1389488 +22.7949130     1135.004     72.46241      1.529     3.26     3.744172     20.45427     102.5023        17     1.062     1.022 -26.81   0
       101    519.9910    755.8138 300.0898589 +22.7474122     81.09019     72.40696      0.988     3.90     4.090106     20.45427     24.87259         5     0.843     0.517  56.87   0
       102    515.0518    756.1595 300.0882092 +22.7460305      371.209     72.51781      1.179     2.89     4.090957     20.45427     53.87519         7     0.852     0.535  44.87   0
       103    279.8430    755.8839 300.0151247 +22.6754135     800.9706     72.46241      1.448     3.49     4.421638     20.45427     94.68309        12     0.980     0.890  13.59   0
       104     84.5150    751.4044 299.9558704 +22.6155264     503.8487     72.42545      1.648     4.38     4.098687     20.45427     53.22179         9     1.177     0.785 -66.57   0
       105    525.3599    751.1667 300.0930399 +22.7476882     817.2565     72.53627      1.466     3.16      4.09111     20.45427     92.37933        11     0.962     0.755  10.31   0
       106    926.2009    747.9280 300.2189746 +22.8668873     631.2101     72.38847      1.632     5.52     4.212452     20.45427     54.81847        13     1.005     0.995  -3.74   0
       107    427.4826    747.4109 300.0637996 +22.7172626     281.7817     72.46241      1.418     2.93     4.459662     20.45427     50.06711         6     0.966     0.563 -58.17   0
       108    788.2520    766.9885 300.1697787 +22.8310295     592.9393     72.49935      1.282     3.52      3.78528     20.45427     87.06976        11     0.981     0.797  32.27   0
       109    679.4408    745.3115 300.1429203 +22.7921960     418.5998     72.49935      1.891     5.28     3.768191     20.45427       33.835         6     1.066     0.738  42.53   0
       110    471.2051    745.9739 300.0778718 +22.7299609     331.7466     72.46241      1.216     3.03     4.164968     20.45427     64.85538         5     0.976     0.401 -27.28   0
       111    112.6119    745.5515 299.9665013 +22.6222792     544.2897     72.51781      1.822     6.10      4.09162     20.45427     45.66008        10     1.128     0.935  12.38   0
       112    904.2109    742.8109 300.2137805 +22.8588299     390.2022     72.38847      1.343     4.61     4.146163     20.45427     43.39128         8     0.940     0.641   3.74   0
       113    277.2440    740.5673 300.0192924 +22.6702406     584.2844     72.53627      1.741     4.27      4.47134     20.45427     53.14028         9     1.051     0.920  57.63   0
       114    600.5148    730.6479 300.1231039 +22.7643294     479.5004     72.48088      1.663     3.84     4.092968     20.45427     59.07261         8     1.217     0.608 -47.89   0
       115    570.2403    729.0024 300.1142122 +22.7547818     673.6429     72.49935      1.416     3.39     4.098688     20.45427      71.1668        12     1.123     0.697  -1.18   0
       116    479.6857    728.2740 300.0862611 +22.7274244     497.4905      72.6285      1.735     3.11     4.104398     20.45427     51.15176         7     0.912     0.533 -28.58   0
       117    986.7675    725.5131 300.2451457 +22.8785905     4444.468     72.48088      1.665     3.47     4.580729     20.45427     379.5183        38     1.335     1.259  -5.89   0
       118    592.1972    726.3978 300.1218948 +22.7606162     1375.361     72.27741      1.399     2.77     4.112224     20.45427     154.4337        19     1.085     0.947  42.89   0
       119    511.8185    725.7797 300.0970724 +22.7363426     413.4685     72.49935      1.452     3.67     4.096629     20.45427      49.1032        11     1.003     0.780  43.71   0
       120    673.3257    721.7121 300.1486825 +22.7835880     136.8733     72.64693      1.399     4.85     3.926112     20.45427     35.43388         7     0.981     0.679  -9.62   0
       121    975.0811    717.0054 300.2442647 +22.8726461     1669.839     72.42545      1.573     3.51     4.559528     20.45427     141.0411        24     1.259     1.101 -19.66   0
       122    743.1626    716.2223 300.1722221 +22.8029407     337.1129     72.51781      2.187     3.76     3.861027     20.45427     31.45765         5     0.932     0.436  46.55   0
       123    338.0511    710.6089 300.0479341 +22.6798844     808.1352     72.49935      1.431     3.12     4.560545     20.45427     92.22157        14     0.990     0.900  54.74   0
       124    204.4984    711.4448 300.0061366 +22.6400661     334.9497     72.49935      1.222     3.30     4.248731     20.45427     42.24978         5     0.907     0.515 -46.34   0
       125    801.3478    708.2091 300.1929566 +22.8180743     2636.683     72.49935      1.570     2.88     3.890151     20.45427     239.6186        27     1.285     1.087   9.84   0
       126   1006.3421    707.1901 300.2572041 +22.8791890     1658.559     72.46241      1.618     3.55     4.639647     20.45427     126.6965        22     1.168     1.115  33.47   0
       127     23.9930    698.4189 299.9542810 +22.5821737     859.0766     72.46241      1.798     4.18      4.38865     20.45427     70.24509        16     1.197     1.030  -7.56   0
       128    186.7542    694.3489 300.0061740 +22.6298399     639.8195     72.51781      1.527     5.75     4.346187     20.45427     65.61487        12     1.290     0.905  62.54   0
       129    884.1068    694.1719 300.2233136 +22.8388364     607.0366     72.40696      1.719     2.86     4.222867     20.45427     49.54217         8     0.818     0.638 -41.05   0
       130    919.9750    685.1376 300.2374317 +22.8469853     149271.3     72.49935      1.507     3.01     4.476571     20.45427     13785.55       156     1.458     1.429 -34.37   0
       131    682.3667    689.0729 300.1621011 +22.7769264     414.9369     72.49935      1.412     2.99     4.198375     20.45427     55.10398         8     0.917     0.651  -7.38   0
       132    772.2648    685.4221 300.1912953 +22.8028163     791.1426     72.48088      1.457     2.86     3.973882     20.45427     97.37225        13     0.982     0.877   1.18   0
       133    952.8739    678.2221 300.2499373 +22.8548525     495.0859     72.49935      1.510     4.68     4.582066     20.45427     48.52348         9     0.876     0.853 -49.26   0
       134    606.1371    673.9940 300.1432575 +22.7497512      1646.36     72.46241      1.362     2.73     4.369942     20.45427     204.4708        21     1.136     0.990 -39.80   0
       135    787.4176    671.2358 300.2006251 +22.8032821     9346.861     72.49935      1.416     2.69     4.030078     20.45427     987.4032        40     1.188     1.153  72.86   0
       136    268.7022    673.3444 300.0384715 +22.6483952     236.1891     72.59162      1.402     3.86     4.554441     20.45427     35.61724         5     1.087     0.393 -15.25   0
       137    288.9160    666.2108 300.0470736 +22.6524111     4924.398     72.46241      1.446     2.90     4.569011     20.45427     508.5807        35     1.252     1.130  71.58   0
       138      2.6900    664.6042 299.9586464 +22.5660861     1411.891     63.52294      1.583     3.94     4.603331     20.45427     151.7761        21     1.257     1.078  80.14  24
       139    370.7874    664.3082 300.0731548 +22.6764166     1138.133     72.44393      1.457     3.16     4.499491     20.45427     121.7288        19     1.244     0.872  20.63   0
       140    246.7168    661.7650 300.0353964 +22.6384795     542.4467     72.46241      1.771     4.76     4.535572     20.45427     60.56728        11     1.165     0.746  38.45   0
       141    579.2078    659.7627 300.1394944 +22.7375943     653.8901     72.51781      1.226     2.53     4.335618     20.45427     100.5941        12     0.910     0.798  49.52   0
       142    705.0793    655.2011 300.1801777 +22.7740065     170.2073     72.38847      1.175     3.83     4.337623     20.45427     30.81709         5     0.809     0.521 -53.35   0
       143    570.9185    651.9933 300.1394368 +22.7328794     3180.998     72.42545      1.324     2.53     4.355175     20.45427     457.6897        23     1.018     0.988  63.63   0
       144    561.2313    645.6755 300.1384725 +22.7281621     1492.777     72.49935      1.325     2.33     4.356714     20.45427     197.2996        16     0.949     0.899   1.09   0
       145    756.5498    645.0059 300.1995250 +22.7865006     153.0967     72.48088      1.299     4.51     4.244011     20.45427     44.23979         6     1.162     0.497  -6.56   0
       146    489.2143    645.1152 300.1162368 +22.7064143     318.0503     72.44393      1.333     2.67     4.333093     20.45427     43.66167         6     0.723     0.572  34.41   0
       147    954.8123    643.9514 300.2616726 +22.8455866     444.8369     72.51781      1.357     2.96       4.5853     20.45427     57.22066         9     0.889     0.733 -14.23   0
       148    224.3225    641.8979 300.0348858 +22.6260636     529.1721      72.6285      1.371     2.91     4.526906     20.45427     87.56431        11     0.898     0.828  69.97   0
       149    238.6748    640.2131 300.0398948 +22.6298848     495.0924     72.51781      1.292     3.21     4.534098     20.45427     85.54566        11     1.027     0.755  31.81   0
       150    124.5734    640.2033 300.0044335 +22.5956573     413.1339     72.46241      1.913     4.57     4.510663     20.45427     35.59708         5     0.986     0.675  -9.42   0
       151    295.1016    637.4595 300.0583338 +22.6460172     419.6115     72.57317      1.721     4.86     4.550752     20.45427     48.43716         7     0.960     0.698 -54.94   0
       152   1007.8708    637.1774 300.2804218 +22.8595294     593.4915     72.53627      1.464     3.05     4.620594     20.45427     60.59423         8     0.825     0.642  33.29   0
       153    486.0189    635.5593 300.1183454 +22.7027135       1790.1     72.51781      1.364     2.47      4.41111     20.45427     211.6565        21     1.025     1.017 -48.70   0
       154    264.2626    636.8339 300.0489476 +22.6365893     568.3884     72.49935      1.448     4.10     4.544599     20.45427     74.97083        12     1.104     0.824  63.25   0
       155    585.3502    636.1069 300.1490892 +22.7326439     440.2315     72.55473      1.572     4.67     4.511656     20.45427     49.22025        10     1.122     0.647   6.27   0
       156    139.8604    630.2873 300.0124037 +22.5973989     19782.19     72.59162      1.572     3.17     4.530304     20.45427     2019.445        62     1.393     1.310  12.59   0
       157     61.0266    632.2990 299.9872565 +22.5743263     575.4827     72.44393      1.328     3.57      4.54269     20.45427      73.1058         9     0.983     0.626 -25.43   0
       158    570.8659    630.6863 300.1463397 +22.7267466      987.742     72.59162      1.341     2.48     4.494896     20.45427     150.8984        15     0.985     0.939 -68.08   0
       159    606.2670    630.3069 300.1574858 +22.7372474     330.6301     72.64693      1.154     2.33     4.621057     20.45427     55.81287         5     0.706     0.447  12.12   0
       160    626.3683    623.0176 300.1661126 +22.7411785      269.864     72.48088      1.331     4.91     4.670832     20.45427     29.15886         6     1.229     0.555 -66.40   0
       161    324.3266    622.4327 300.0723019 +22.6504692     191.6652     72.49935      1.085     3.16     4.529308     20.45427     40.07779         5     0.711     0.483  12.40   0
       162    988.9229    617.2199 300.2809926 +22.8481204     1118.676     72.49935      1.610     3.17     4.593041     20.45427     103.8434        15     1.018     0.934  -8.47   0
       163     85.9279    614.3978 300.0008048 +22.5766630     1617.489     72.44393      1.947     5.25     4.552579     20.45427      120.281        28     1.689     1.092  84.90   0
       164    855.4432    615.0161 300.2400858 +22.8075116     574.5895     72.51781      1.588     4.28     4.266039     20.45427     59.34678        11     1.068     0.773  39.94   0
       165    152.1858    614.7703 300.0212723 +22.5966453     356.4287     72.51781      1.510     2.87     4.559617     20.45427     59.29349         7     0.864     0.553  22.13   0
       166    534.4215    611.3460 300.1412739 +22.7102712     461.3982     72.49935      1.380     3.94     4.565507     20.45427     57.35204         9     1.047     0.795 -54.19   0
       167    929.0103    609.7311 300.2647391 +22.8280269     822.6573     72.48088      1.619     4.47     4.564792     20.45427     77.47742        13     1.217     0.868  36.49   2
       168    924.9520    609.6448 300.2635016 +22.8267867     491.1664     72.51781      2.113     5.07     4.545773     20.45427     40.81085         7     1.084     0.672   6.05   3
       169    392.9191    609.1716 300.0979440 +22.6672297     91.07365     72.51781      1.146     3.99     4.480934     20.45427     33.45169         6     0.791     0.577 -34.98   0
       170    673.4561    607.3194 300.1858757 +22.7507808     288.3941     72.53627      1.161     3.41     4.756977     20.45427     39.90822         5     0.744     0.452  69.21   0
       171    490.9803    603.6620 300.1302469 +22.6950446     896.3581     72.48088      1.453     3.01     4.635514     20.45427     112.3766        12     0.983     0.804 -68.78   0
       172    638.8116    602.3898 300.1766859 +22.7389842     497.5974     72.38847      1.215     2.76     4.774683     20.45427     70.40312        10     0.858     0.764  53.02   0
       173    686.0618    600.8245 300.1919113 +22.7526927     318.4442     72.49935      1.249     2.76     4.748429     20.45427      57.9714         6     0.823     0.565   3.94   0
       174    656.5682    600.2984 300.1828953 +22.7437043     650.7729     72.48088      1.395     3.19     4.781766     20.45427     72.59854        13     1.073     0.841  26.66   0
       175    535.3040    599.7443 300.1453156 +22.7072050     1054.233     72.59162      1.534     3.57      4.59356     20.45427     116.3932        17     1.147     1.009   9.40   0
       176    721.6724    599.4078 300.2034650 +22.7629551     319.5617     72.48088      1.508     3.71     4.671064     20.45427     40.67232         5     0.997     0.397 -74.14   0
       177    968.9393    595.1514 300.2819257 +22.8357946      3363.67     72.55473      1.499     2.93     4.551981     20.45427     315.3076        31     1.240     1.146 -41.46   0
       178    500.6777    594.9864 300.1360820 +22.6954608     1720.424     72.51781      1.339     2.38       4.6298     20.45427     254.6754        20     1.014     0.974  79.58   0
       179    866.0684    592.3354 300.2507627 +22.8041780     309.4616     72.55473      1.245     3.83     4.260839     20.45427     49.36171         6     0.959     0.439  37.80   0
       180    850.7290    591.1421 300.2463683 +22.7992409     296.9005     72.51781      1.196     3.31     4.280243     20.45427      44.2299         6     0.747     0.629  31.95   0
       181    475.8525    590.3075 300.1298746 +22.6866765     269.7163     72.55473      1.161     4.58     4.622696     20.45427     42.66495         6     0.892     0.668  41.61   0
       182     62.6165    588.4212 300.0019962 +22.5622197      5016.59     72.48088      1.649     3.31     4.482793     20.45427     512.6064        38     1.313     1.287  -8.42   0
       183    529.8781    585.8461 300.1481389 +22.7015887     388.8019     72.48088      1.303     2.54     4.618484     20.45427     56.80795         8     0.791     0.667 -27.96   0
       184   1007.6924    585.1458 300.2972622 +22.8445231     279.4348     72.55473      1.397     5.91     4.610962     20.45427     36.60916         7     1.080     0.910 -67.47   0
       185    364.1349    581.6972 300.0979098 +22.6507150     9128.948     72.61006      1.349     2.53     4.457554     20.45427     1183.787        40     1.161     1.139 -24.48   0
       186    486.5563    578.7162 300.1369692 +22.6865574     8953.341     72.46241      1.325     2.35     4.644279     20.45427     1350.539        36     1.113     1.084  55.41   0
       187    732.5954    575.0631 300.2147724 +22.7592353     204.1409     72.46241      1.315     5.22      4.70193     20.45427     48.91768         9     1.236     0.624  15.91   0
       188    898.3067    572.9269 300.2671154 +22.8082567     1982.718      72.6285      1.449     2.70     4.325537     20.45427     233.3103        23     1.097     1.066  85.84   0
       189    982.9512    570.1971 300.2943983 +22.8328190     12853.49     72.49935      1.494     2.97     4.544929     20.45427     1299.621        49     1.294     1.231 -39.95   0
       190    547.1812    568.3797 300.1591960 +22.7017597     11530.26     72.49935      1.291     2.41       4.6514     20.45427     1372.061        42     1.148     1.097  85.90   0
       191    716.4694    564.2606 300.2132553 +22.7513014     349.0562     72.53627      1.127     3.18     4.779233     20.45427     79.41727         8     0.868     0.737   8.95   0
       192    274.6277    563.6682 300.0759252 +22.6187045      1369.22     72.48088      1.373     2.48     4.534744     20.45427     211.4413        16     1.008     0.933  -8.97   0
       193    432.7193    562.9477 300.1253343 +22.6658936     461.7012     72.51781      1.520     4.19     4.291682     20.45427       53.731         7     0.792     0.633 -68.14   0
       194    521.1776    561.3378 300.1533872 +22.6919447     438.5214     72.48088      1.261     3.49     4.652815     20.45427     62.26173         8     0.797     0.676 -21.15   0
       195    581.4516    559.7786 300.1726581 +22.7095599     259.9391     72.49935      1.315     4.88     4.807508     20.45427     34.87855         5     1.012     0.667 -13.20   0
       196    478.8432    556.5302 300.1417711 +22.6778764     4428.186     72.46241      1.286     2.27     4.630527     20.45427     656.3916        27     1.046     1.027 -74.59   0
       197    821.5676    556.7423 300.2484468 +22.7806236     852.8069     72.51781      1.405     2.38     4.325397     20.45427      122.073        11     0.898     0.727  14.18   0
       198    457.2163    554.9431 300.1355557 +22.6709386     1205.787     72.46241      1.322     2.59     4.450346     20.45427     172.2724        13     0.891     0.863  58.97   0
       199    211.7527    553.9956 300.0595169 +22.5970752     750.4753     72.48088      1.544     4.13     4.508382     20.45427     101.8626        18     1.226     1.168  30.71   0
       200    898.7796    552.0828 300.2740300 +22.8024089     1597.299     72.46241      1.451     3.04     4.272346     20.45427      159.858        21     1.260     0.970 -63.08   0
       201    998.8911    550.8439 300.3056535 +22.8320294     130.5869     72.49935      0.998     4.31     4.595025     20.45427     36.45741         5     0.765     0.691 -27.73   0
       202    595.4695    544.0901 300.1821158 +22.7092554     201810.6     72.66536      1.319     2.36     4.913707     20.45427     27476.36       191     1.394     1.345 -12.95   0
       203    779.1124    549.2125 300.2376596 +22.7657440     890.1468     72.44393      1.447     2.90     4.496085     20.45427     93.64629        16     0.996     0.965   5.76   0
       204    418.9206    550.1979 300.1251796 +22.6580976     453.2475     72.40696      1.325     2.71      4.10955     20.45427      57.6542         8     0.795     0.669  44.34   0
       205    873.1110    547.9492 300.2673689 +22.7935342     264.4312     72.51781      1.137     3.69     4.249507     20.45427     38.59578         5     1.177     0.332  24.72   0
       206    983.7249    545.7803 300.3025666 +22.8260332     193.1334     72.49935      1.190     3.43     4.524888     20.45427     35.09882         5     0.964     0.354 -45.07   0
       207    281.5312    544.0183 300.0844504 +22.6151357     3597.842     72.49935      1.430     2.45      4.53444     20.45427      513.969        28     1.159     1.044  31.79   0
       208    461.1888    540.6271 300.1414391 +22.6680195     282.3105     72.49935      1.126     3.61     4.451028     20.45427      40.7535         6     0.931     0.563  65.82   0
       209    847.4641    540.2002 300.2618892 +22.7836269     495.1478     72.48088      1.214     3.04      4.27913     20.45427     58.42649         7     0.787     0.635  32.79   0
       210    627.1008    530.7069 300.1963103 +22.7148897     291.4514     72.68378      1.322     2.21     4.976535     20.45427     58.50897         5     0.724     0.424 -16.37   0
       211    486.0356    524.3416 300.1544581 +22.6707907     2954.373     72.49935      1.380     2.40     4.538432     20.45427     335.7776        25     1.084     0.994  39.75   2
       212    330.3153    526.5444 300.1052936 +22.6247469     422.3542     72.59162      1.309     4.24     4.460605     20.45427     69.05407         8     1.154     0.687  71.92   0
       213    803.1717    513.0660 300.2568911 +22.7625654     418.4182     72.48088      1.251     2.88     4.359718     20.45427     60.67868         9     0.871     0.769  85.11   0
       214    883.0842    510.6431 300.2825881 +22.7858007      1703.77     72.46241      1.341     2.42     4.256093     20.45427     248.8732        22     1.095     0.992 -54.79   0
       215     13.0925    509.1554 300.0123412 +22.5246291     784.4166     72.49935      1.663     3.55     4.682359     20.45427     83.84731        13     1.118     0.820   4.22   0
       216    754.2563    508.2981 300.2431948 +22.7465449     2715.156     72.59162      1.286     2.38     4.635968     20.45427     333.6744        22     1.039     0.950  25.11   0
       217    113.7269    508.1999 300.0439147 +22.5545390     314.3929     72.36996      1.330     3.72     3.948397     20.45427     41.66256         8     0.934     0.727  12.85   0
       218    998.4830    505.5399 300.3202324 +22.8188855     490.5876     72.59162      1.621     4.61     4.539262     20.45427     55.22683        12     1.123     0.884   6.81   2
       219    997.3807    501.4321 300.3212219 +22.8173747     679.7466     72.49935      1.414     2.87     4.528746     20.45427     76.67405        13     0.948     0.876  73.54   3
       220    963.5381    505.1234 300.3094679 +22.8083039      338.067     72.55473      1.225     3.40     4.401854     20.45427     50.09759         5     0.763     0.437 -67.50   0
       221    659.2056    505.0028 300.2146524 +22.7171256     424.8752     72.31445      1.265     2.55     4.976535     20.45427     61.90388         8     0.765     0.681  35.13   0
       222    541.3342    504.1326 300.1782304 +22.6815596     894.6019     72.55473      1.277     2.41     4.776983     20.45427     120.2523        13     0.981     0.753  47.05   0
       223   1011.5551    502.3335 300.3253509 +22.8218772     1281.283     72.49935      1.445     2.67     4.589225     20.45427     162.1135        18     1.103     0.917  46.75   0
       224    883.4825    500.6573 300.2859535 +22.7830504     2180.515     72.57317      1.622     3.41     4.257982     20.45427     246.0899        29     1.546     1.043  86.75   0
       225    636.5921    498.9738 300.2095660 +22.7086192     579.0786     72.49935      1.235     2.43     4.976535     20.45427     87.05293         9     0.827     0.688 -25.31   2
       226    636.5930    494.8485 300.2109052 +22.7074347     515.7609     72.49935      2.053     4.33     4.976535     20.45427     47.73161         7     1.011     0.599 -73.29   3
       227    422.7372    498.4411 300.1431662 +22.6443837     325.9692     72.48088      1.132     3.00      4.22441     20.45427     47.13727         7     0.887     0.546 -58.50   0
       228    921.4551    495.7974 300.2993709 +22.7930237     4357.583     72.44393      1.400     2.58     4.261268     20.45427     526.4854        31     1.156     1.085 -61.64   0
       229    474.9747    497.6520 300.1596780 +22.6598129     359.4781     72.51781      1.229     3.33     4.350768     20.45427     58.87063         6     0.946     0.444 -11.86   0
       230    658.9979    492.2168 300.2187375 +22.7133908     239.9492     72.40696      1.066     2.97     4.976535     20.45427     42.23945         5     0.790     0.487 -56.58   0
       231    581.9359    491.5113 300.1949676 +22.6901007     278.7187      72.6285      1.154     3.19     4.917181     20.45427     44.16062         8     0.859     0.668 -55.82   0
       232    153.6587    485.9882 300.0635321 +22.5601414     1084.917     72.46241      1.524     2.55     3.945352     20.45427     140.2431        17     1.051     0.900 -66.53   0
       233   1013.3766    486.0886 300.3311916 +22.8177527     647.1673     72.42545      1.321     3.66     4.567501     20.45427     75.46864        14     1.134     0.847  11.16   0
       234    953.0465    484.3969 300.3129229 +22.7992055     183.6753     72.48088      1.091     4.01     4.348198     20.45427     33.02029         5     1.032     0.445 -63.08   0
       235    814.4620    479.5949 300.2712734 +22.7563294     295.9418     72.48088      1.394     4.33     4.336795     20.45427     53.52849         6     1.200     0.445  62.09   0
       236    419.5143    479.6287 300.1482685 +22.6380169     180.4102     72.49935      1.066     4.12     4.265761     20.45427      32.9786         6     1.076     0.450 -35.72   0
       237    146.3337    476.3457 300.0643846 +22.5551782     515.9728     72.55473      1.507     2.71     3.898788     20.45427     75.22408         8     0.873     0.693 -43.41   0
       238   1009.3802    475.3481 300.3334308 +22.8134688     305.5909     72.48088      1.269     3.43     4.550818     20.45427     51.63314         9     0.897     0.762  10.16   0
       239    753.7487    470.5981 300.2552721 +22.7355616     369.8544     72.48088      1.182     3.92     4.570153     20.45427     63.99335         7     1.094     0.474  38.61   0
       240    642.8375    468.1237 300.2215230 +22.7016290      363.167     72.46241      1.364     2.82     4.955056     20.45427     46.25469         8     0.814     0.649  38.35   0
       241    695.0131    466.0684 300.2384421 +22.7166679     817.1287     72.51781      1.306     2.81     4.861957     20.45427     110.4382        13     0.963     0.830  81.52   0
       242    673.7742    464.5975 300.2323033 +22.7098834     105.8325     72.44393      1.031     3.43      4.97125     20.45427     30.48163         5     0.724     0.470  14.68   0
       243    483.2342    464.5423 300.1729934 +22.6527811     257.8558     72.51781      1.045     2.91     4.281605     20.45427     39.97913         5     0.721     0.452 -21.87   0
       244     52.3408    461.1359 300.0401149 +22.5226268     248.7192     72.53627      1.473     4.82     4.321647     20.45427     26.84942         6     1.196     0.551 -22.47   0
       245   1009.5043    458.9844 300.3387800 +22.8088018     578.2362     72.42545      1.326     2.68     4.570335     20.45427     90.62012        12     0.978     0.772  19.57   0
       246    755.7752    458.4642 300.2598412 +22.7326822     818.5652     72.48088      1.251     2.23     4.489494     20.45427     148.4324        12     0.825     0.817   4.36   0
       247    912.9120    454.7122 300.3100406 +22.7786575     1035.121     72.66536      1.346     2.48     4.166151     20.45427     151.2469        15     1.070     0.881  80.20   0
       248    897.2046    451.0259 300.3063390 +22.7728952     638.3881     72.46241      1.346     3.22     4.151442     20.45427     92.62934        13     1.020     0.879   5.40   0
       249    877.8013    451.4047 300.3001665 +22.7671946     272.1096     72.31445      1.175     2.97     4.151442     20.45427     47.75681         5     0.725     0.454 -19.19   0
       250    641.5159    448.9851 300.2273219 +22.6957356     3229.527     72.46241      1.239     2.24       4.9219     20.45427     493.8327        25     1.042     0.965  73.14   0
       251   1002.0067    448.0151 300.3400008 +22.8034040     497.5997     72.40696      1.416     3.23     4.537557     20.45427     60.59258        10     0.989     0.779  29.78   0
       252    788.2633    448.8017 300.2731009 +22.7396353     167.5033     72.48088      1.188     3.66     4.242686     20.45427     32.34571         5     1.174     0.328  11.61   0
       253    117.9824    440.6422 300.0671588 +22.5364322      355.884     72.51781      1.469     3.06      3.93873     20.45427     44.85143         7     0.829     0.596  27.13   0
       254    481.4746    436.0518 300.1816903 +22.6440726     230.4156     72.51781      1.008     2.64     4.263661     20.45427     66.71848         6     0.739     0.637  75.65   0
       255   1011.1501    426.8904 300.3497078 +22.8000676     1000.233     72.49935      1.404     2.76     4.608239     20.45427     131.1661        16     1.080     0.926 -17.26   0
       256    924.8874    427.9921 300.3224453 +22.7745623     593.7891     72.40696      1.297     2.79     4.066865     20.45427     85.62929        12     0.957     0.830  -3.00   0
       257    547.8608    423.7722 300.2063393 +22.6604366     360.0694     72.49935      1.046     1.89     4.764185     20.45427     71.76579         6     0.680     0.545  44.25   0
       258    752.2608    422.8303 300.2703086 +22.7213909     990.1833     72.53627      1.320     2.33     4.330363     20.45427     190.5791        16     0.952     0.919  53.02   0
       259    255.8387    421.2121 300.1163134 +22.5721875     756.8016     72.49935      1.411     3.34     4.460764     20.45427     106.0632        12     1.002     0.949  18.49   0
       260     96.5754    419.1456 300.0674812 +22.5238449     275.1915     72.51781      1.280     3.39     3.924784     20.45427     31.53191         5     0.765     0.434 -68.02   0
       261    318.4419    416.7957 300.1372141 +22.5896850     3681.803     72.51781      1.381     2.29     4.476833     20.45427     584.4636        29     1.118     1.090 -88.35   0
       262    265.6268    411.5380 300.1224954 +22.5723448     7682.243     72.49935      1.384     2.44     4.475083     20.45427     1154.463        38     1.200     1.117  62.97   0
       263    406.4196    405.7713 300.1681583 +22.6128867      4967.44     72.49935      1.305     2.30     4.389144     20.45427     768.9544        32     1.143     1.027  68.16   0
       264    650.6322    402.5648 300.2452225 +22.6851308     18713.88     72.53627      1.256     2.19     4.808304     20.45427     3046.361        54     1.195     1.142  44.51   0
       265    497.8105    404.3348 300.1970651 +22.6398588     400.2631     72.44393      1.342     2.61     4.387127     20.45427     40.29086         5     0.731     0.440 -17.06   0
       266    668.3380    402.6631 300.2507057 +22.6904622     841.4577     72.53627      2.034     5.66     4.854638     20.45427     61.16838        15     1.634     0.792 -34.53   0
       267    277.7270    401.1551 300.1296262 +22.5729914     326.0536     72.48088      1.364     2.86     4.477532     20.45427     41.48166         6     0.872     0.585  18.99   0
       268    847.6446    393.0255 300.3097067 +22.7413866     313.3857     72.51781      1.436     3.00      4.14389     20.45427     48.25639         9     0.970     0.591  36.13   0
       269    270.9562    389.9549 300.1311541 +22.5677467     344.8894     72.53627      1.401     2.73       4.4389     20.45427     41.48886         5     0.619     0.593 -86.39   0
       270    984.2673    385.3238 300.3548081 +22.7800706     736.6829     72.59162      1.401     3.56     4.456097     20.45427      87.5953        14     1.090     0.905 -23.71   0
       271    205.4876    382.5212 300.1132106 +22.5459882     2032.082     72.64693      1.441     2.25     4.309736     20.45427     330.7052        22     1.130     1.020 -13.41   0
       272    591.3049    372.0159 300.2366564 +22.6585843     6694.697     72.42545      1.259     2.16     4.567365     20.45427     970.2527        33     1.138     0.984  87.77   0
       273   1004.8560    372.6279 300.3653491 +22.7825823      1156.38     72.49935      1.335     2.47     4.515675     20.45427     165.7646        16     0.958     0.900  20.35   0
       274    306.2565    371.2258 300.1482069 +22.5729503      755.939     72.49935      1.451     2.77     4.405952     20.45427     77.81457        12     0.906     0.832  88.34   0
       275    163.8991    364.5424 300.1061149 +22.5283605     462.2423     72.59162      1.304     2.69     4.270312     20.45427     66.68347         9     0.857     0.713 -32.85   0
       276    851.3437    364.1379 300.3202310 +22.7341908     354.5098     72.55473      1.314     2.03     4.325592     20.45427      54.9287         5     0.686     0.451  73.37   0
       277     11.0461    362.2621 300.0593624 +22.4818760      1359.69     72.51781      1.443     3.10     4.847129     20.45427     163.9946        20     1.127     0.987  24.96   0
       278    795.5291    361.0468 300.3038361 +22.7165919     1199.089     72.48088      1.484     2.80     4.044599     20.45427     127.5107        16     1.060     0.846  85.76   0
       279    705.0188    362.3131 300.2752218 +22.6898539      332.253     72.44393      1.147     2.70     4.454132     20.45427     78.25279         8     0.877     0.659  22.14   0
       280    497.9744    358.2407 300.2120684 +22.6266691      6220.88     72.55473      1.246     2.17     4.366005     20.45427     883.6633        27     1.032     0.989  74.98   0
       281    889.9591    352.8369 300.3359359 +22.7425021     1434.582     72.59162      1.243     2.01     4.491075     20.45427     239.7842        19     1.008     0.894  -9.14   0
       282    987.4755    353.1541 300.3662445 +22.7717812     728.4508     72.49935      1.486     2.60     4.488594     20.45427     92.75937        10     0.962     0.684  -3.05   0
       283    482.7737    346.9559 300.2109973 +22.6188739     461.9291     72.51781      1.235     2.53     4.333194     20.45427      72.3158         8     0.798     0.701 -14.51   0
       284    565.5200    344.9620 300.2374029 +22.6430888     510.4623     72.46241      1.250     1.92     4.489853     20.45427     85.36955         8     0.757     0.602  -6.64   0
       285    843.0854    344.1434 300.3241422 +22.7259711     272.4801     72.61006      1.112     2.82     4.335325     20.45427     55.70103         8     0.821     0.646 -39.26   0
       286      9.3997    343.6474 300.0648881 +22.4760414     1028.441     72.49935      1.623     3.51     4.895123     20.45427     126.5843        18     1.172     1.083  -2.49   0
       287    545.7565    342.9402 300.2319054 +22.6365880     310.6743     72.49935      1.327     2.60     4.489853     20.45427     43.73609         5     0.763     0.485 -36.78   0
       288    862.6264    340.4074 300.3314458 +22.7307469     532.8147     72.49935      1.321     3.69      4.47848     20.45427     71.67773        11     1.028     0.799  72.99   0
       289    495.1229    341.4977 300.2166113 +22.6210058     249.3711      72.6285      1.511     4.25     4.371373     20.45427     32.32861         5     0.921     0.558 -44.98   0
       290    144.5746    339.8419 300.1081200 +22.5154780     226.7133     72.55473      1.584     4.29     4.328127     20.45427     26.89655         5     0.925     0.566 -43.49   0
       291    385.5475    337.4303 300.1838322 +22.5870079     2682.553     72.51781      1.289     2.29      4.38243     20.45427     378.3476        23     1.038     1.012 -84.73   0
       292    104.0299    334.8876 300.0971272 +22.5019010     990.0405     72.49935      1.391     2.72     4.386751     20.45427     131.5998        14     1.073     0.820  88.39   0
       293    733.4148    332.1300 300.2938589 +22.6896831      313.302     72.51781      1.239     2.07     4.358053     20.45427     44.26448         5     0.680     0.462  69.94   0
       294    354.8479    326.8788 300.1777038 +22.5747790     30057.96     72.49935      1.359     2.36      4.34156     20.45427     4687.095        70     1.277     1.159  53.45   0
       295    889.5452    324.5941 300.3449673 +22.7342588     1331.565     72.49935      1.283     2.47      4.50233     20.45427     186.1684        18     1.019     0.946 -75.45   0
       296    845.1283    322.4724 300.3318078 +22.7203531     303.2689     72.55473      1.308     3.75     4.356146     20.45427     37.75784         6     0.810     0.499   0.73   0
       297     51.1722    314.6849 300.0872560 +22.4802557     5086.661     72.49935      1.571     2.79     4.775703     20.45427     696.3595        36     1.322     1.208  53.38   0
       298    229.2179    312.8885 300.1431716 +22.5331127     499.1916     72.42545      1.434     4.12     4.313563     20.45427     69.36845        10     1.184     0.667 -58.95   0
       299    804.7919    313.2180 300.3222359 +22.7056177     542.6014     72.44393      1.327     2.96     4.091106     20.45427      86.7085         9     0.903     0.732  54.89   0
       300    453.2698    312.2181 300.2130810 +22.6000574     533.1511     72.51781      1.233     2.70     4.494271     20.45427     76.09563        11     0.868     0.804 -17.48   0
       301    765.2820    306.6183 300.3120628 +22.6918922     1913.917     72.46241      1.340     2.39     4.227306     20.45427       268.92        19     1.086     0.920 -68.69   0
       302    980.5336    299.6422 300.3814349 +22.7543163     482.5523     72.48088      1.181     3.08     4.544599     20.45427     83.11742         9     1.093     0.560 -27.32   0
       303    427.2148    291.2587 300.2117696 +22.5862316     2176.579     72.48088      1.380     3.00      4.73541     20.45427     275.2465        21     1.207     0.874  67.03   0
       304    639.3757    289.9902 300.2782297 +22.6494140     227.0796     72.49935      1.126     2.05     4.489792     20.45427     57.92172         7     0.683     0.648 -61.61   0
       305    866.1793    284.4389 300.3507046 +22.7157203     569.7301     72.53627      1.255     2.88     4.493556     20.45427     83.89532         9     0.806     0.784 -78.92   0
       306    765.6252    282.0478 300.3201375 +22.6849325     341.4346     72.49935      1.220     2.71     4.258606     20.45427     47.33342         6     0.842     0.533   2.42   0
       307    748.6107    282.0713 300.3148279 +22.6798454     313.0471     72.49935      1.235     1.90     4.320429     20.45427     61.92696         5     0.673     0.447 -67.26   0
       308    716.6302    280.9586 300.3052240 +22.6699508       363.16     72.53627      1.183     3.36     4.404794     20.45427     41.83785         5     0.757     0.431  69.58   0
       309    391.8222    272.4957 300.2068411 +22.5702393     1095.781     72.40696      0.780     1.98     4.574749     20.45427     433.0187         6     0.687     0.385 -34.12   0
       310    502.9088    270.6064 300.2420238 +22.6029738     1177.474     72.40696      1.295     2.30     4.445393     20.45427     189.8944        13     0.882     0.815  86.97   0
       311    309.7006    271.2691 300.1816934 +22.5452818     349.9841     72.59162      1.518     5.03     4.400162     20.45427     44.44254         7     1.094     0.655  -7.54   0
       312    587.6672    267.6978 300.2693548 +22.6275233     252.3793     72.59162      1.835     3.73     4.489853     20.45427     36.39964         5     1.044     0.384  73.63   0
       313   1014.6372    266.9288 300.4026815 +22.7551132     306.7255     72.48088      1.205     2.35     4.556841     20.45427     63.33459         5     0.773     0.457  26.92   0
       314    886.1164    264.1532 300.3634984 +22.7158550     230.4659     72.48088      1.148     3.28      4.50502     20.45427     49.43215         6     0.908     0.449  33.86   0
       315    747.7900    262.5591 300.3208989 +22.6739912     2199.797     72.49935      1.273     2.33     4.377143     20.45427     375.4521        20     1.062     0.910  49.06   0
       316   1009.1325    256.9708 300.4041931 +22.7506021     3151.618     72.48088      1.410     2.81     4.554292     20.45427     384.4933        28     1.163     1.053 -83.91   0
       317    555.5448    255.7531 300.2632258 +22.6144711      250.816     72.53627      1.302     3.47     4.489853     20.45427     29.37951         5     0.773     0.450  70.13   0
       318    456.1377    246.3093 300.2353441 +22.5819842     629.1103     72.59162      1.155     2.74     4.469763     20.45427       95.221        10     0.932     0.676 -80.18   0
       319    161.6673    240.7187 300.1455724 +22.4921478     643.1262     72.61006      1.381     3.41     4.468863     20.45427     83.09296        10     0.931     0.851 -34.76   0
       320    130.9544    240.3321 300.1361524 +22.4828315     1487.199     72.48088      1.695     3.59     4.431564     20.45427     153.7593        20     1.184     1.172  43.31   0
       321    868.6198    234.4968 300.3676586 +22.7020912     354.8371     72.40696      1.093     3.27     4.493209     20.45427     52.55233         6     0.883     0.478  83.66   0
       322    214.8351    232.8557 300.1646486 +22.5058242     418.1801     72.51781      1.316     2.90     4.353298     20.45427      61.3065         8     0.860     0.568 -50.52   0
       323   1009.7723    230.0385 300.4131248 +22.7430472     361.7242     72.51781      1.368     2.68     4.552539     20.45427     47.18881         6     0.857     0.463  52.50   0
       324     70.4091    229.4963 300.1208517 +22.4615731     353.4583     72.40696      1.346     4.12      4.57418     20.45427     50.25293         6     1.081     0.449  12.90   0
       325    890.9020    226.3542 300.3772457 +22.7064183     283.5462     72.53627      1.230     3.06     4.493058     20.45427      47.1785         7     0.853     0.532  32.03   0
       326    819.5986    223.9397 300.3557994 +22.6843840     652.6292     72.46241      1.303     2.50     4.491004     20.45427     103.2145        12     0.880     0.832 -89.99   0
       327    410.0088    223.3910 300.2284194 +22.5615828     409.5803     72.38847      1.341     3.09     4.423732     20.45427     55.54022         9     0.891     0.656 -55.16   0
       328    955.2314    217.4328 300.4001988 +22.7231027     220.4205     72.51781      1.184     3.44     4.516107     20.45427     32.40031         5     0.803     0.426  21.82   0
       329    910.1963    217.4268 300.3861562 +22.7096250      208.444     72.46241      0.943     1.95     4.496754     20.45427     50.12741         5     0.669     0.462  21.32   0
       330    917.5488    213.0117 300.3898802 +22.7105555     2149.686     72.51781      1.337     2.49     4.499927     20.45427     257.4946        20     1.079     0.923  63.91   0
       331    336.1491    210.2451 300.2097029 +22.5356806     2065.391     72.51781      1.293     2.32     4.460395     20.45427     269.1184        23     1.099     0.942  63.05   0
       332    413.9945    205.3916 300.2354942 +22.5576061     1144.543     72.35146      1.528     3.02     4.542495     20.45427     132.1743        17     1.143     1.018  78.37   0
       333    816.0629    204.7984 300.3609025 +22.6778223     501.7713     72.48088      1.221     2.32     4.472934     20.45427     95.40907         9     0.785     0.727 -84.20   0
       334    922.9594    201.9920 300.3951397 +22.7090054     293.3635     72.51781      1.307     2.03     4.507933     20.45427     58.55482         5     0.633     0.523  -0.15   0
       335    230.8975    197.6045 300.1810689 +22.5005153     877.1715     72.40696      1.532     2.51     4.595236     20.45427     114.0347        12     0.932     0.773  25.96   0
       336    348.9659    196.8050 300.2180461 +22.5356599     331.2363     72.48088      1.471     3.55     4.531734     20.45427     43.42791         7     1.017     0.690  64.13   0
       337    768.7444    194.4303 300.3495156 +22.6606785     1706.611     72.51781      1.281     2.08       4.4721     20.45427     289.3857        20     1.072     0.987  50.19   0
       338    833.8611    194.1270 300.3699096 +22.6800807     545.9412     72.53627      1.203     2.72     4.473416     20.45427      96.7477        11     0.922     0.783  32.81   0
       339    252.3750    190.7027 300.1899838 +22.5049687      473.157     72.42545      1.162     2.86     4.681686     20.45427     78.17669         9     0.845     0.767  34.07   0
       340    772.8185    185.9798 300.3535244 +22.6594684     689.3427     72.49935      1.229     2.89     4.465283     20.45427     117.8614        11     1.022     0.735 -77.22   0
       341    541.9555    186.9430 300.2813011 +22.5906292     394.1118     72.51781      1.389     3.50     4.500396     20.45427     59.92395        10     1.053     0.695  -4.37   0
       342    693.2437    185.2274 300.3289735 +22.6354326     1289.645     72.51781      1.250     2.11     4.508211     20.45427     191.7925        17     1.060     0.817  55.08   0
       343    514.7853    181.6334 300.2745637 +22.5809672     381.9076     72.48088      1.195     2.70     4.466537     20.45427     47.94526         7     0.795     0.614  81.66   0
       344    888.6830    176.6572 300.3926636 +22.6914628     1421.629     72.59162      1.273     2.30     4.505354     20.45427     222.2391        17     1.025     0.860  45.64   0
       345    619.4597    176.9831 300.3086629 +22.6109735      963.963     72.46241      1.134     1.89     4.547219     20.45427      155.539        10     0.777     0.709  82.74   0
       346    900.7094    176.0768 300.3966017 +22.6948945     714.3683     72.64693      1.156     2.29     4.512527     20.45427     119.7544        11     0.828     0.739  50.88   0
       347    947.1543    174.9404 300.4114538 +22.7084645     193.5467     72.53627      1.106     2.45        4.536     20.45427     47.89917         5     0.612     0.579  14.21   0
       348   1017.4478    166.0947 300.4362473 +22.7269499       1132.5     72.51781      1.481     2.98     4.562548     20.45427     112.7264        15     1.016     0.905  35.41  16
       349     41.5614    162.8560 300.1334883 +22.4337969     528.7028     72.49935      1.430     3.12     5.029385     20.45427      65.3238         8     0.924     0.639 -53.21   0
       350    251.5055    159.1061 300.1999536 +22.4956340     554.3232     72.66536      1.369     3.28      4.93971     20.45427     97.14483        10     1.004     0.803  30.05   0
       351    113.3443    153.7032 300.1587576 +22.4526831     2281.805     72.59162      1.533     2.57     5.008911     20.45427     323.6468        27     1.220     1.080  61.61   0
       352    936.4571    151.0283 300.4158678 +22.6983861     782.7827     72.49935      1.395     2.95     4.601475     20.45427     95.02534        11     0.988     0.716  44.12   0
       353     63.4842    150.4960 300.1443044 +22.4368194     559.1155     72.68378      1.729     2.84     5.011928     20.45427     63.29058         8     0.803     0.752  41.56   0
       354    270.7314    147.0601 300.2098357 +22.4979343     5734.806     72.51781      1.402     2.66      4.94206     20.45427     696.2625        34     1.239     1.082  57.22   0
       355     54.8498    141.4892 300.1445405 +22.4316459     1298.236     72.49935      1.626     3.39     4.997608     20.45427     135.3467        20     1.184     1.050  37.95   0
       356    254.4657    137.9058 300.2077442 +22.4904320     483.1926      72.6285      1.389     2.58     4.949358     20.45427     82.23785         8     0.882     0.601 -74.40   0
       357    914.9783    128.7621 300.4163855 +22.6855554     3549.717     72.51781      1.421     2.76     4.699362     20.45427     498.7137        29     1.214     1.052 -81.71   0
       358   1018.6575    127.6587 300.4490815 +22.7162541     2837.533     72.57318      1.428     2.42     4.820158     20.45427     373.4946        27     1.138     1.095  45.89  16
       359    464.2697    124.0425 300.2775038 +22.5492907     613.0991     72.46241      1.223     2.91     4.757695     20.45427     94.66434        12     0.978     0.806  77.29   0
       360    217.4654    124.5172 300.2005784 +22.4755014     293.4656     72.61006      1.025     2.35     4.977809     20.45427      70.0349         6     0.748     0.552 -44.27   0
       361    578.9116    121.7855 300.3139240 +22.5829685     252.0233     72.44393      1.217     2.19      4.91717     20.45427     58.78099         5     0.730     0.480 -57.39   0
       362    388.3858    115.8731 300.2565375 +22.5242178     576.0096     72.49935      1.539     2.67     4.554066     20.45427     88.20682         9     0.937     0.682 -67.37   2
       363    392.3528    114.3050 300.2582798 +22.5249554     353.7502     72.51781      1.251     3.59     4.542532     20.45427     47.44434         7     0.933     0.666  49.86   2
       364    154.6539    112.8026 300.1848489 +22.4533177     662.5174     72.46241      1.558     2.93     5.050727     20.45427     91.97172        11     1.092     0.675  64.93   0
       365    515.7103    111.2144 300.2976721 +22.5610076     1684.454     72.44393      1.239     2.33     5.013742     20.45427     234.8388        20     1.007     0.943  64.51   0
       366    443.8523    111.6430 300.2751673 +22.5396135     572.9305     72.53627      1.387     2.57     4.703934     20.45427     86.19416         9     0.904     0.667  36.55   0
       367    577.7232    110.6453 300.3171637 +22.5794107      470.188     72.48088      1.411     3.29     5.023282     20.45427     58.97328         7     0.921     0.597 -46.74   0
       368     53.1165    111.6704 300.1536637 +22.4225655     175.1062      72.6285      1.054     2.09     4.947535     20.45427     51.41718         5     0.732     0.409 -22.38   0
       369    259.2357    106.7630 300.2193183 +22.4829159     289.3367     72.57317      1.092     2.38     4.960114     20.45427     58.59608         7     0.830     0.541  25.10   0
       370    803.7931    100.6523 300.3908307 +22.6442026     470.7785     72.48088      1.244     3.28     4.504444     20.45427     52.01823         7     0.945     0.469  -5.70   0
       371    949.8151     95.6490 300.4379798 +22.6864521     422.8604     72.53627      1.611     4.36     4.951888     20.45427     37.13416         7     0.837     0.648 -26.05   0
       372    289.7927     91.0211 300.2339210 +22.4875476     6104.398     72.48088      1.389     2.54     4.921607     20.45427     831.5507        33     1.191     1.084  68.47   0
       373    796.3082     91.9884 300.3913050 +22.6394713     344.5151     72.44393      1.386     1.98     4.528752     20.45427     72.02991         5     0.729     0.514  -1.72   0
       374    140.7949     90.8036 300.1876689 +22.4428476     808.9188     72.31445      1.686     3.16     5.088944     20.45427     104.8816        13     1.015     0.977  -4.62   0
       375    918.9961     88.4642 300.4306963 +22.6751657     327.8712     72.48088      1.126     3.08     4.918822     20.45427     58.45057         7     0.866     0.554 -34.98   0
       376    261.9517     84.8351 300.2272672 +22.4774309     310.2504     72.53627      1.184     3.91     4.974844     20.45427     47.80285         8     1.031     0.695  52.52   0
       377     51.4534     81.5730 300.1628979 +22.4134258     441.1295     72.51781      1.541     4.30     4.892048     20.45427     64.84014         8     1.154     0.464  -9.37   0
       378    535.8981     76.3712 300.3152459 +22.5570375     6162.405     72.42545      1.319     2.38     5.225946     20.45427     953.3667        28     1.147     0.971  80.46   0
       379    421.3073     76.0580 300.2796809 +22.5226367     748.6482     72.55473      1.308     2.51     4.487864     20.45427     97.88572        11     0.838     0.801  54.75   0
       380   1013.7201     73.1779 300.4651943 +22.6991022       215.82     72.46241      2.137     4.09     5.102482     20.45427     34.52219         5     0.766     0.686  30.29   0
       381    788.0404     67.3325 300.3967164 +22.6299065     1022.258     72.46241      2.072     6.29     4.617227     20.45427     85.67686        21     1.879     0.847 -69.38   0
       382    592.5421     71.0933 300.3345929 +22.5724776      263.893     72.55473      1.083     2.73     5.172198     20.45427     49.01817         6     0.763     0.498 -89.34   0
       383    729.6641     68.2063 300.3782414 +22.6126889     305.2563     72.46241      1.266     2.18     4.697359     20.45427     48.53714         5     0.717     0.433 -70.78   0
       384    880.9561     64.9146 300.4264645 +22.6570112     462.8665     72.48088      1.413     3.06     4.871912     20.45427     75.55178         9     0.930     0.707 -60.80   0
       385    948.6826     62.7935 300.4482715 +22.6766612     227.6464     72.42545      1.247     4.37     5.073161     20.45427     34.51772         6     0.952     0.571  26.36   0
       386    228.6638     60.0436 300.2249481 +22.4603379     455.5201     72.49935      1.176     3.10     5.152581     20.45427     70.92877         9     1.072     0.609 -79.81   0
       387    587.0731     58.8407 300.3368592 +22.5673182     434.7665     72.48088      1.387     2.40     5.200244     20.45427     70.57321         6     0.777     0.599  11.72   0
       388    664.1641     56.4344 300.3616488 +22.5897012         6214     72.57317      1.320     2.37     4.886946     20.45427     995.3262        36     1.289     1.023  75.60   0
       389    439.1176     55.3918 300.2919180 +22.5220310     1512.264     72.44393      1.323     2.42     4.696674     20.45427     208.4861        19     1.035     0.952  59.71   0
       390    705.2269     53.7213 300.3753200 +22.6012105      797.364     72.49935      1.330     2.74     4.772267     20.45427     129.1563        16     0.992     0.934  21.21   0
       391    775.0064     51.4759 300.3977911 +22.6214461     411.8157     72.42545      1.487     3.30     4.671116     20.45427     55.55356         6     0.897     0.606  53.99   0
       392    721.2381     49.9644 300.3815256 +22.6049217     540.9165     72.57317      1.084     2.06     4.740789     20.45427     92.12347         8     0.767     0.623  40.19   0
       393    990.9775     47.7403 300.4663406 +22.6849808     367.5078     72.48088      1.285     3.34     5.145145     20.45427     55.22987         8     0.937     0.614  60.95   0
       394    188.1664     48.1208 300.2162201 +22.4447816     582.3914     72.44393      1.322     2.15     5.238547     20.45427     85.97157         8     0.759     0.625 -31.34   0
       395    759.8942     45.4445 300.3950353 +22.6151895     363.4259     72.51781      1.122     2.34     4.691897     20.45427     69.48181         7     0.719     0.617 -10.05   0
       396    708.4833     41.4153 300.3803210 +22.5986463      2753.54     72.46241      1.289     2.34     4.795446     20.45427     381.5554        23     1.112     0.967  70.46   0
       397    723.7376     40.2294 300.3854580 +22.6028702     965.0474     72.51781      1.808     4.36     4.747496     20.45427     123.9242        20     1.755     0.813  42.25   0
       398    349.7035     42.0814 300.2684095 +22.4914309     369.6284     72.64693      1.139     2.40     4.463556     20.45427     58.88162         7     0.721     0.628 -82.82   0
       399      2.1913     35.4761 300.1625268 +22.3854279     700.6457     61.13877      1.415     3.78     4.311814     20.45427      84.7598        13     1.165     0.790 -73.80  24
       400    794.9663     32.8597 300.4100424 +22.6220641     1472.291     72.53627      1.370     2.88     4.711761     20.45427     189.2962        22     1.143     1.060  60.01   0
       401    873.0946     27.2941 300.4362004 +22.6438373     278.1828     72.66536      1.428     4.30     4.967419     20.45427     32.10986         6     0.803     0.656 -56.34   0
       402    733.1628     26.2507 300.3929228 +22.6016707     743.1638     72.51781      1.388     3.46     4.732538     20.45427     100.6607        12     1.174     0.754 -32.03   0
       403    538.4360     25.5582 300.3324963 +22.5431911     1017.306     72.57318      1.310     2.39     5.283106     20.45427     141.8217        15     0.950     0.875 -39.72   0
       404    111.3652     25.5198 300.1996700 +22.4152815     433.3049     72.44393      1.199     2.90     5.326187     20.45427     66.86559         8     0.780     0.771  44.68   0
       405    442.5704     23.7465 300.3032431 +22.5139701      727.472     72.49935      1.215     2.35     4.766325     20.45427     113.3206        12     0.963     0.751  -6.96   0
       406    824.5740     22.1305 300.4227465 +22.6278363     508.8071     72.49935      1.541     4.24     4.823247     20.45427     65.36793         7     0.900     0.568 -62.60   0
       407    245.1610   1013.2545 299.9206825 +22.7388035     2622.805     72.49935      6.549    30.14     73.66149     20.45427     80.76333       218     5.857     4.304 -12.49  19
       408    273.9335   1010.0375 299.9306740 +22.7465171     2879.378     72.48088      7.381    25.12     51.55838     20.45427     85.73915       167     5.740     3.051  -2.71  19
       409      6.4507     13.6686 300.1709128 +22.3804427     461.7291     72.48088      1.825     3.60     4.212773     20.45427     47.57341         6     0.903     0.471  -0.86   0
       410    242.8902    996.1035 299.9255544 +22.7332057      4269.62     72.68378      7.484    27.53     62.64735     20.45427     101.4367       311     5.410     5.110   9.87  19
       411    261.8964    994.7151 299.9319146 +22.7385121      5940.43     72.68378      9.017    23.45     50.83759     20.45427     112.4734       423     6.177     5.047  89.51  19
       412    281.2974    984.3539 299.9413161 +22.7413644     8558.147     72.53627      9.412    35.02     34.63794     20.45427     176.7655       874    11.812     5.342  63.59  19
       413    172.8744   1017.8170 299.8967302 +22.7184129     1253.953     72.49935      2.745     8.98     92.00626     20.45427     54.84963        27     1.957     1.664 -64.17  16
       414    214.5798   1007.7102 299.9129793 +22.7280352     2830.512     72.44393      5.144    19.15     83.54079     20.45427     62.70326       115     4.140     2.461  30.84  19
