#   1 NUMBER                 Running object number                                     
#   2 X_IMAGE                Object position along x                                    [pixel]
#   3 Y_IMAGE                Object position along y                                    [pixel]
#   4 ALPHA_J2000            Right ascension of barycenter (J2000)                      [deg]
#   5 DELTA_J2000            Declination of barycenter (J2000)                          [deg]
#   6 FLUX_APER              Flux vector within fixed circular aperture(s)              [count]
#   7 FLUXERR_APER           RMS error vector for aperture flux(es)                     [count]
#   8 FLUX_RADIUS            Fraction-of-light radii                                    [pixel]
#   9 FWHM_IMAGE             FWHM assuming a gaussian core                              [pixel]
#  10 BACKGROUND             Background at centroid position                            [count]
#  11 THRESHOLD              Detection threshold above background                       [count]
#  12 FLUX_MAX               Peak flux above background                                 [count]
#  13 ISOAREA_IMAGE          Isophotal area above Analysis threshold                    [pixel**2]
#  14 A_IMAGE                Profile RMS along major axis                               [pixel]
#  15 B_IMAGE                Profile RMS along minor axis                               [pixel]
#  16 THETA_IMAGE            Position angle (CCW/x)                                     [deg]
#  17 FLAGS                  Extraction flags                                          
         1    807.8074     15.9255 300.4227606 +22.6278508     546.0911     72.40162      1.531     4.54     4.739653     20.44232     58.55939         9     1.158     0.686  81.91   0
         2    764.7110      8.0039 300.4118936 +22.6126806     763.0674     72.36467      1.693     2.82      4.88306     20.44232       86.423         9     0.938     0.693  41.42   0
         3    196.8891      7.1503 300.2354105 +22.4424863      3560.76     72.45701      1.485     2.86     5.528231     20.44232     389.1427        29     1.235     1.091  36.05  16
         4    522.7301      4.7124 300.3375795 +22.5393327     476.2908     71.22852      1.248     3.01     5.603783     20.44232     49.59391         5     0.814     0.454  45.49  16
         5    619.5198      4.4160 300.3678175 +22.5682112     324.9561     70.32159      1.168     4.13     5.484124     20.44232     41.47387         6     1.031     0.473 -35.65  16
         6    158.2773   1010.9191 299.8975519 +22.7190261     1420.101     72.56766      3.003    10.76     93.76855     20.44232     49.79641        24     2.116     1.524  80.43  19
         7    812.8348   1023.3667 300.0972281 +22.9189188     234.3776     58.14251      1.680     5.35     3.527178     20.44232     47.35883         5     1.092     0.739   4.09  24
         8    274.2734   1017.9749 299.9313166 +22.7558584     2927.646     72.49391      6.556    32.51     32.93781     20.44232     70.39836       210     6.421     4.568  86.95  27
         9    226.6412    989.6415 299.9257237 +22.7334411     4416.661     72.54923      9.319    42.45      64.1739     20.44232      82.4197       497    10.119     4.942  86.87  19
        10    245.7461    988.4805 299.9320412 +22.7388408     6058.429     72.49391     11.310    49.59     47.14743     20.44232     117.1014       669    10.197     6.691  82.24  19
        11    263.8215    977.8112 299.9411318 +22.7412046      9020.12     72.43855     12.665    41.19     28.61735     20.44232     179.7064      1125    13.814     5.754  68.82  19
        12    115.3043   1013.7444 299.8832783 +22.7069383     3195.923     72.53079     12.732    64.03     90.10938     20.44232     141.2726      1117    14.020     8.113  33.59  27
        13    101.9793    944.7992 299.9015632 +22.6831737     5512.767     72.38315     26.580   109.91     25.98667     20.44232     1275.754      4075    22.137    15.142 -82.86  18
        14    951.8430    974.1225 300.1565903 +22.9464358     856.2484     72.42009      2.072     7.85     3.639862     20.44232     48.63825        19     1.532     1.125 -40.56   0
        15    197.8399   1000.5178 299.9132324 +22.7279170     2851.026     72.42009      6.052    24.82     79.89111     20.44232     72.98381       127     5.164     3.312  60.71  18
        16      5.9852    977.6999 299.8610418 +22.6637921     2064.228     72.36467     11.102    18.22    -14.07293     20.44232      48.8688        82     3.667     2.516 -51.54  27
        17      6.4472   1009.4518 299.8508572 +22.6730312     2973.362     72.49391     14.074    44.84    -24.73978     20.44232     63.78539       537    11.116     5.020  87.95  26
        18    171.3959    960.2997 299.9180944 +22.7084498     1539.737     72.34619      3.693     8.16     50.71999     20.44232     54.68235        20     1.857     1.410  81.24   2
        19    380.4435   1001.9018 299.9695671 +22.7831020     382.3472     72.45701      1.568     4.94     3.703647     20.44232     46.97161         7     1.347     0.513  10.52   0
        20    150.9443    956.1173 299.9130983 +22.7011133     1551.206     72.51235      6.230     7.30      47.1861     20.44232     54.17733        12     2.488     0.599  34.82   3
        21    644.1817    997.1838 300.0531984 +22.8608444     323.1223     72.43855      1.845     3.51     3.876566     20.44232     29.03212         5     1.044     0.340 -44.14   0
        22    677.2384    957.2607 300.0764821 +22.8592958     6843.426     72.47546      1.869     4.38     3.893831     20.44232     414.0653        44     1.444     1.402  29.48   0
        23    557.0700    951.5117 300.0409283 +22.8216178     445.1512     72.62292      1.375     3.78      3.83314     20.44232     40.11655         6     1.206     0.340  49.38   0
        24    268.9110    951.0572 299.9514162 +22.7350589     547.1939     72.49391      1.587     5.72     16.00479     20.44232     52.23219        11     1.292     0.872  31.02   2
        25    829.5851    950.7988 300.1260572 +22.9031033     349.2366     72.30921      1.601     4.23     3.727505     20.44232     36.24737         6     0.734     0.694 -23.84   0
        26    572.5093    994.9054 300.0316200 +22.8387001     2398.756     72.64133      1.911     4.78     3.722907     20.44232     143.4641        30     1.390     1.349 -26.71   0
        27    585.8199    947.8829 300.0510603 +22.8291967     1556.088     72.40162      1.784     4.23     3.885802     20.44232     125.6926        25     1.325     1.205  -2.76   0
        28    479.4649    944.4867 300.0190554 +22.7963306     1098.038     72.54923      1.846     5.33     3.893705     20.44232     74.61484        20     1.259     1.136 -29.62   0
        29    410.1994    942.4449 299.9981646 +22.7749714     6744.427     72.45701      1.869     3.91     3.895334     20.44232     527.5636        42     1.443     1.392   7.82   0
        30    759.1107    990.9814 300.0910212 +22.8935181     775.4568     72.38315      2.135     7.04     3.614005     20.44232     39.14869        17     1.241     1.120  36.01   0
        31    659.0531    990.4575 300.0600187 +22.8633726     8689.446     72.51235      1.966     7.06     3.881964     20.44232     559.7398        45     1.657     1.456   0.72   3
        32    443.3828    929.6510 300.0126511 +22.7812529      465.304     72.45701      1.518     3.65     3.966071     20.44232     54.92302         8     0.897     0.699  16.85   0
        33    956.4583    921.3365 300.1751998 +22.9326568     2187.372     72.49391      1.965     5.06     3.907883     20.44232     127.7307        34     1.469     1.427  81.72   0
        34    664.5212    987.7499 300.0626028 +22.8642348      9227.88     72.45701      1.950     4.95     3.883506     20.44232     514.3658        48     1.560     1.447  16.04   3
        35     18.8217    997.0208 299.8587443 +22.6731833     1442.345     72.45701      8.249    11.84    -7.369307     20.44232     52.08731        32     2.386     1.637 -29.75   3
        36    454.1157    918.5737 300.0195936 +22.7812933     286.3281     72.43855      1.867     5.15     3.983896     20.44232     52.48295         6     1.572     0.478 -47.65   0
        37    607.4222    918.1169 300.0674682 +22.8271299     306.6185     72.42009      1.621     3.94     3.942787     20.44232     35.03985         5     0.901     0.494 -89.93   0
        38    745.5544    909.9954 300.1131391 +22.8662036     758.9215     72.45701      1.996     6.30     3.790783     20.44232     54.34731        16     1.497     0.986  63.89   0
        39    780.5001    904.4753 300.1258244 +22.8750916     958.6087     72.58608      1.751     5.93     3.818514     20.44232      69.8292        19     1.409     0.988 -15.18   0
        40    235.0493    903.8142 299.9562512 +22.7113503     634.4254     72.47546      4.326     3.79     9.729358     20.44232     30.86474         5     1.858     0.222  38.74   0
        41    802.4404    898.0646 300.1347473 +22.8798256     11302.34     72.42009      1.814     4.01      3.83342     20.44232     745.0877        52     1.445     1.396   9.58   0
        42    992.9878    898.0844 300.1941563 +22.9369201      512.927     72.40162      1.889     6.91     4.022634     20.44232     37.37732        11     1.581     0.847  11.11   0
        43    847.7830    897.8651 300.1489462 +22.8933552      465.568     72.43855      1.745     5.81     3.810213     20.44232     36.99295        10     1.202     0.790  14.56   0
        44    113.7011    889.6318 299.9231448 +22.6708737     1030.892     72.43855      5.488     8.44      9.47307     20.44232     49.60678        21     1.463     1.360  33.30   0
        45    507.6882    886.2762 300.0467704 +22.7880894     572.9432     72.58608      1.684     4.68     3.999371     20.44232     54.39624        11     1.049     0.837  28.75   0
        46    855.6794    885.8065 300.1553293 +22.8922579      539.968     72.38315      2.045     3.97       3.8236     20.44232     36.10097         6     1.088     0.415 -77.78   0
        47    810.8846    880.1969 300.1431897 +22.8772247     1410.622     72.38315      1.689     3.76     3.845678     20.44232     113.0195        22     1.198     1.136 -27.58   0
        48    994.0794    879.5136 300.2005359 +22.9319118       457.39     72.62292      1.843     6.64      4.09395     20.44232     34.84739        12     1.462     0.847   8.82   0
        49    193.9617    984.3354 299.9172907 +22.7221132     1086.414     72.43855      2.902    11.59     66.26185     20.44232     51.70679        24     2.702     1.385 -44.10   3
        50    663.4312    877.3882 300.0981571 +22.8322277     623.1833     72.45701      1.758     3.60     4.077889     20.44232      51.7943         9     0.969     0.814  41.63   0
        51    849.3575    873.8254 300.1572544 +22.8869226     772.4039     72.49391      1.975     4.68     3.842617     20.44232     58.52782        16     1.245     1.036 -48.62   0
        52    187.7219    873.5803 299.9513688 +22.6884801     431.1282     72.45701      1.677     4.44     9.860328     20.44232     28.85806         5     1.206     0.466   8.43   0
        53    748.7865    864.1435 300.1290565 +22.8540063     645.1002     72.43855      1.630     5.01     3.868271     20.44232     63.75705        16     1.257     1.176   4.94   0
        54    897.4552    864.8026 300.1751843 +22.8987411     575.6173     72.40162      1.844     5.99     4.003016     20.44232     35.64907        13     1.093     0.924  -3.72   0
        55    461.4193    860.1011 300.0408800 +22.7667041     4351.163     72.38315      1.715     3.56     4.021316     20.44232     395.5002        36     1.337     1.277  22.14   0
        56    760.0639    861.0093 300.1335898 +22.8564857     608.7783     72.43855      1.512     4.39     3.887719     20.44232     53.46484        14     1.194     0.886  -2.50   0
        57    240.3083    848.5038 299.9758696 +22.6970632     371.1917     72.64133      1.686     4.25     5.835426     20.44232     40.71665         6     1.097     0.470 -54.06   0
        58    505.3480    848.1807 300.0584283 +22.7764541     376.1066     72.43855      1.534     3.22     4.044332     20.44232     49.15003         5     0.882     0.469 -83.48   0
        59    104.6041    847.8340 299.9339070 +22.6561583     275.5079     72.45701      1.777     3.38     5.289028     20.44232     32.80597         5     0.810     0.409  67.43   0
        60    186.8776    845.9916 299.9600756 +22.6803142     717.7276     72.42009      1.620     6.14     7.040857     20.44232     65.05972        11     1.240     0.856 -46.50   0
        61    163.9484    842.6957 299.9540201 +22.6724899     1453.354     72.53079      1.703     3.79      7.47804     20.44232      153.259        22     1.268     1.107   8.82   0
        62    193.0000    978.1254 299.9190117 +22.7200440     1225.745     72.32771      4.388     7.77     61.40214     20.44232     58.39155        17     1.725     0.979  81.15   3
        63    190.2309    976.9755 299.9185250 +22.7188834     1054.462     72.45701      4.140    10.86     61.12445     20.44232     53.86394        15     2.769     1.186  81.35   3
        64    989.8762    830.5887 300.2151328 +22.9165960     2093.634     72.47546      1.854     4.49     4.186188     20.44232     123.7486        30     1.424     1.275  15.23   0
        65    466.3576    830.3956 300.0520743 +22.7596595     326.9463     72.47546      1.568     4.25     4.053832     20.44232     30.52695         5     1.018     0.506 -42.15   0
        66    773.3382    824.4424 300.1496153 +22.8499620     581.8958     72.43855      1.458     3.67     4.104006     20.44232     66.40183        11     0.972     0.887 -51.93   0
        67    641.4487    818.3456 300.1105060 +22.8086873     4789.005     72.49391      1.609     3.32     4.336143     20.44232     453.9795        33     1.262     1.182  17.98   0
        68    523.6456    979.0278 300.0215723 +22.8194910     341.8498     72.49391      1.604     4.25     3.675752     20.44232     31.31236         6     1.316     0.392  77.39   0
        69    443.6616    815.3013 300.0499178 +22.7485225     637.1824     72.53079      1.643     4.34     4.144606     20.44232     62.13408        12     1.149     0.856 -29.38   0
        70    191.4133    812.0920 299.9725052 +22.6719513     1342.016     72.40162      1.824     4.04     5.269443     20.44232     131.7822        26     1.349     1.227  19.55   0
        71    662.2183    811.0863 300.1193352 +22.8128277     635.6441     72.40162      1.525     4.10     4.412715     20.44232     64.78043        14     1.157     0.905  34.29   0
        72    210.5311    808.7577 299.9795321 +22.6767297     437.5344     72.43855      1.728     6.59     5.024954     20.44232     44.44905        10     1.321     0.921  30.18   0
        73    578.8073    801.4196 300.0964999 +22.7850525     233.7961     72.42009      1.379     4.60     4.337569     20.44232     32.31098         7     0.951     0.632 -81.37   0
        74    849.2628    800.2028 300.1811610 +22.8657469     314.1596     72.45701      1.879     5.51     4.219736     20.44232     25.26061         5     1.192     0.717   8.75   0
        75    817.5825    798.2050 300.1719347 +22.8556822     4340.726     72.42009      1.638     3.39     4.176522     20.44232     380.6998        32     1.294     1.173  43.88   0
        76    226.0197    791.8951 299.9898282 +22.6765382     432.8588     72.36467      1.809     5.03     4.736972     20.44232     51.98804         7     1.232     0.581  51.19   0
        77    534.6552    790.5189 300.0862962 +22.7686885     606.3087     72.49391      1.509     3.66     4.264071     20.44232     67.29472        12     1.159     0.743 -11.16   0
        78    180.7395    788.2580 299.9769340 +22.6619127     1142.059     72.53079      1.825     3.93     4.731973     20.44232     110.1724        21     1.426     1.073  35.89   0
        79    596.3649    783.9033 300.1076609 +22.7852860     521.6484     72.45701      1.679     5.36      4.39133     20.44232     39.54673        11     1.094     0.742 -13.96   0
        80    330.5009    780.4937 300.0260248 +22.7046020      54220.7     72.64133      1.668     3.35     4.844094     20.44232     5647.325        91     1.436     1.395  31.05   0
        81    588.3756    779.6478 300.1065561 +22.7816696     1639.107     72.47546      1.547     3.40     4.386136     20.44232     172.1813        21     1.144     1.045 -51.96   0
        82   1001.3348    779.2761 300.2353883 +22.9052829     832.1031     72.54923      1.596     3.91     4.322896     20.44232     67.46138        16     1.083     0.982 -21.98   0
        83    259.3647    778.5963 300.0045183 +22.6827240     501.8694     72.45701      1.891     3.84      4.91042     20.44232     54.95525         8     1.063     0.760 -45.78   0
        84    617.5672    775.8141 300.1168930 +22.7893179     792.6827     72.45701      1.431     3.00     4.436682     20.44232      100.649        12     0.930     0.840   6.68   0
        85     16.9183    775.3016 299.9302408 +22.6090482     792.1851     72.60451      1.639     5.76     4.628224     20.44232     70.00014        10     1.329     0.704 -31.26   0
        86    628.2424    774.2145 300.1207376 +22.7920579     706.5339     72.47546      1.757     3.59     4.450211     20.44232     68.68436        11     0.996     0.898  -5.18   0
        87    948.4000    772.0012 300.2212412 +22.8873394     252.9324      72.2352      1.226     2.89     4.432647     20.44232      39.8177         5     0.764     0.557   0.15   0
        88    733.2729    770.6277 300.1546231 +22.8225013     486.9343     72.45701      1.512     4.25     4.391904     20.44232      51.9322         8     1.107     0.748 -32.76   0
        89    528.3644    767.4836 300.0918247 +22.7601898      360.461     72.43855      1.651     4.27     4.267999     20.44232     35.02609         5     1.082     0.480  88.32   0
        90    771.4368    760.4853 300.1698123 +22.8310224     827.8547     72.43855      1.797     4.75     4.341491     20.44232     76.91581        17     1.270     1.027  45.43   0
        91    380.2622    757.7382 300.0489000 +22.7129928     31259.49     72.49391      1.586     3.04     4.708427     20.44232     3729.737        68     1.353     1.294  37.64   0
        92    394.5423    758.3156 300.0531553 +22.7174401     1908.741     72.56766      1.530     3.07     4.608749     20.44232     197.3515        23     1.152     1.082  20.80   0
        93    269.3165    756.8104 300.0146930 +22.6794578     150.9656     72.42009      1.327     3.56     4.981458     20.44232     39.21009         5     0.728     0.697  16.73   0
        94    903.4680    753.8728 300.2131208 +22.8686732     2753.362     72.53079      1.647     3.81     4.577296     20.44232     208.6654        29     1.255     1.195 -27.29   0
        95    391.1332    752.0430 300.0541331 +22.7146177     797.8928     72.43855      2.446     5.10     4.667153     20.44232     50.91317        16     1.214     1.044   0.05   0
        96    497.7378    750.0793 300.0879470 +22.7460129     561.2654     72.54923      1.579     3.41     4.178114     20.44232     60.14511        11     1.078     0.783 -44.56   0
        97    661.3416    749.8816 300.1389556 +22.7949894     883.2525     72.51235      1.453     2.72     4.497646     20.44232     110.6264        14     1.029     0.823   8.84   0
        98    262.7560    749.2563 300.0151078 +22.6753229     914.5367     72.45701      1.907     4.00     4.953264     20.44232     80.73235        16     1.168     1.040  56.23   0
        99    508.4110    744.6064 300.0930480 +22.7476411      922.845     72.32771      1.531     3.54     4.223388     20.44232     95.35086        18     1.152     1.011 -29.87   0
       100     67.8136    745.3311 299.9557908 +22.6157233     477.2405     72.47546      1.618     4.74     4.649531     20.44232     39.53956         8     0.987     0.645 -18.09   0
       101    909.5489    741.8212 300.2189338 +22.8670316     632.8448     72.45701      1.632     5.60     4.669347     20.44232     61.72905        13     1.226     0.995 -12.40   0
       102    454.6383    739.8315 300.0778626 +22.7301513      445.646     72.45701      1.691     3.33     4.294847     20.44232     66.70193         7     1.047     0.579 -47.53   0
       103    366.4965    740.2440 300.0503025 +22.7038446     306.0846     72.47546      1.416     3.01     4.920421     20.44232     44.06852         5     0.730     0.460  69.73   0
       104     95.8914    739.2543 299.9664894 +22.6224037     563.6591     72.51235      1.760     5.20     4.690434     20.44232     63.84889        10     1.310     0.747 -30.04   0
       105    663.2797    738.9164 300.1431228 +22.7924212     334.2862     72.60451      1.575     4.32     4.504369     20.44232     28.74087         7     0.755     0.703 -75.66   0
       106    887.0781    736.7506 300.2135748 +22.8588446     457.8655     72.45701      1.540     4.70      4.68427     20.44232     53.15036         9     1.091     0.810  20.69   0
       107    260.7703    733.9888 300.0194515 +22.6703466     511.3018     72.45701      1.409     3.03     4.960132     20.44232      72.6793         9     0.946     0.742 -24.24   0
       108    583.4861    724.7255 300.1228827 +22.7644343     518.6613     72.56766      1.529     5.05      4.45832     20.44232     49.75249         9     1.006     0.729 -34.28   0
       109    553.2480    723.0289 300.1140186 +22.7548848     731.9818     72.47546      1.727     3.73     4.406607     20.44232     85.08276        10     1.156     0.860 -68.11   0
       110    462.6907    722.1732 300.0861068 +22.7274961     337.4737     72.42009      1.308     3.50     4.261322     20.44232     41.49368         5     0.950     0.373   4.04   0
       111    969.8366    719.0728 300.2451292 +22.8785491     4475.292     72.40162      1.697     3.53     4.747971     20.44232     346.3433        36     1.325     1.298  12.09   0
       112    575.2670    719.9853 300.1218636 +22.7606099     1271.661     72.43855      1.469     3.10     4.447887     20.44232     166.0922        21     1.095     1.073 -53.55   0
       113    495.3226    719.6608 300.0970800 +22.7365562     293.8692     72.51235      1.302     2.89     4.226076     20.44232     57.16485         5     0.722     0.461 -11.02   0
       114    958.4042    710.6263 300.2443080 +22.8726983     1673.859     72.42009      1.626     3.67     4.794049     20.44232     151.1694        23     1.216     1.117  -9.07   0
       115    188.1439    705.7028 300.0060624 +22.6404499     281.1388     72.54923      0.926     3.43     4.954056     20.44232     42.49245         5     1.376     0.248  79.42   0
       116    320.9570    704.2201 300.0478420 +22.6798515     846.1909     72.49391      1.515     4.23      5.06352     20.44232     91.41804        14     1.127     0.951   2.82   0
       117    784.7957    701.7467 300.1930641 +22.8181508      2597.61     72.43855      1.600     3.22      4.40678     20.44232      265.665        27     1.422     1.058  19.39   0
       118    989.6080    700.6833 300.2572723 +22.8791841     1712.414     72.38315      1.753     4.14     4.926753     20.44232     128.1179        25     1.307     1.255 -51.39   0
       119      7.2439    691.4432 299.9544834 +22.5820962      922.909     72.53079      1.956     4.19     4.566824     20.44232     105.7925        19     1.383     1.105  51.42  16
       120    169.6904    688.0134 300.0060732 +22.6298401     717.2933     72.40162      1.626     4.17     5.070022     20.44232     67.73946        15     1.137     1.021  78.91   0
       121    866.8604    687.7742 300.2231859 +22.8387165      578.463     72.45701      1.621     4.89     4.647757     20.44232     49.42973         9     0.998     0.793  40.11   0
       122    903.1046    678.7500 300.2374192 +22.8469776     149178.1     72.53079      1.594     3.33     4.743923     20.44232     13286.65       148     1.460     1.436 -58.24   0
       123    665.7831    682.5628 300.1622140 +22.7769860     304.5598     72.45701      1.379     3.41     4.505463     20.44232     36.17666         5     0.753     0.447  20.85   0
       124    755.2675    678.9440 300.1912705 +22.8027546     880.0484     72.49391      1.620     4.27     4.455045     20.44232     84.91881        17     1.302     1.029  17.22   0
       125    936.0392    672.1643 300.2498298 +22.8549473     570.6752     72.53079      2.008     4.96     4.872663     20.44232     44.01508         8     1.070     0.651  20.80   0
       126    589.3008    667.5266 300.1432780 +22.7497510     1613.519     72.60451      1.374     2.53     4.552366     20.44232     223.2706        19     1.056     0.961  17.23   0
       127    770.5438    664.8551 300.2006086 +22.8032829     9482.154     72.51235      1.484     2.95     4.487115     20.44232     1027.345        37     1.220     1.147  53.05   0
       128    271.9275    659.7811 300.0470306 +22.6523970     5007.672     72.45701      1.504     3.19     5.163842     20.44232     606.3949        34     1.244     1.174  48.66   0
       129    354.0701    657.9677 300.0731685 +22.6765037     1089.398     72.45701      1.431     3.15     4.963834     20.44232     141.6714        18     1.103     0.995 -30.74   0
       130    230.1328    656.0308 300.0352530 +22.6387887     357.2601     72.45701      1.377     2.96     5.219215     20.44232     55.13944         7     0.859     0.613 -71.33   0
       131    562.4505    653.5128 300.1394697 +22.7376806     903.1765     72.45701      1.706     2.74      4.70469     20.44232     111.4919        14     1.036     0.837  28.30   0
       132    554.0068    645.5674 300.1394216 +22.7328686     3211.868     72.45701      1.429     2.74     4.797175     20.44232     382.9317        25     1.139     1.049  33.82   0
       133    544.2697    639.4507 300.1383769 +22.7281943     1396.539     72.45701      1.335     2.46     4.875511     20.44232      166.066        18     1.115     0.846 -37.72   0
       134    473.0339    638.6157 300.1164725 +22.7066065     399.2794     72.43855      1.508     3.38     4.683042     20.44232     43.28107         7     0.856     0.663  65.98   0
       135    937.6717    637.7177 300.2615298 +22.8455356     584.9852     72.58608      1.679     6.27     4.998328     20.44232     49.75336        12     1.270     0.870 -23.86   0
       136    455.4286    636.2450 300.1117631 +22.7006494     288.6831     72.49391      1.291     3.43     4.707181     20.44232     37.76753         5     0.785     0.433  68.54   0
       137    207.7510    635.3096 300.0350251 +22.6261310     682.3827     72.45701      1.487     3.32     5.218823     20.44232     89.44376        16     1.205     0.849 -60.31   0
       138    222.1504    634.1065 300.0398926 +22.6301034     474.7035     72.51235      1.286     3.05     5.224226     20.44232     79.44174         9     0.996     0.644 -44.57   0
       139    991.1595    630.5433 300.2805443 +22.8594875     455.4199     72.43855      1.584     5.84     5.219327     20.44232     38.42626        11     1.076     0.891 -42.62   0
       140    279.0049    631.0653 300.0585591 +22.6462773     340.1935     72.45701      1.420     2.19     5.188084     20.44232     49.06647         5     0.594     0.589 -87.29   0
       141    247.4208    630.8449 300.0488092 +22.6367444     558.9708     72.51235      1.511     2.49     5.210155     20.44232     82.31882         8     0.934     0.590 -21.00   0
       142    468.9944    628.9789 300.1183454 +22.7026287     1799.826     72.43855      1.413     3.14     4.795084     20.44232     201.4056        20     1.058     0.961 -60.89   0
       143    567.8919    629.2737 300.1490377 +22.7323499     413.7339     72.60451      1.361     4.71     5.002968     20.44232     55.41898         8     1.059     0.593  31.34   0
       144    122.9955    623.8706 300.0123958 +22.5974322     20000.77     72.40162      1.628     3.29     4.944366     20.44232     2319.459        56     1.422     1.324  38.80   0
       145     43.5282    625.6732 299.9871184 +22.5741152     903.1366     72.51235      2.209     5.71     4.500457     20.44232     66.23424        15     1.261     1.164   2.31   0
       146    553.9261    624.4083 300.1462695 +22.7267678     1049.948     72.42009      1.377     2.80     5.060284     20.44232     111.8912        16     0.962     0.939  66.28   0
       147    589.3495    623.4540 300.1576099 +22.7371078     389.7721     72.49391      1.121     3.00     5.076586     20.44232     53.77256         7     0.883     0.544  62.06   0
       148    926.1235    620.1419 300.2636375 +22.8370261     395.6728     72.49391      1.575     3.94     5.019555     20.44232     29.05616         6     1.326     0.335   4.34   0
       149    308.4460    616.1699 300.0725535 +22.6508282     241.6367     72.49391      1.611     3.52     5.133467     20.44232     38.56079         5     0.991     0.361   6.39   0
       150    637.3525    612.2785 300.1761899 +22.7482796     233.3596     72.45701      1.054     2.68     5.110511     20.44232     45.32211         6     0.824     0.492 -43.14   0
       151    971.9515    610.7280 300.2809891 +22.8480408     956.2278     72.43855      1.512     3.62     5.173893     20.44232     93.45926        17     1.117     1.010 -18.20   0
       152     69.0765    607.8909 300.0008310 +22.5766764     1602.751     72.60451      2.040     4.79     4.634598     20.44232      108.601        32     1.686     1.210  83.79   0
       153    838.8057    608.9825 300.2400358 +22.8076726     463.9659     72.42009      1.370     3.34     4.816628     20.44232     57.24575         9     0.969     0.639  53.34   0
       154    135.1800    608.5289 300.0211651 +22.5966841     435.0593     72.47546      1.541     4.33     5.059686     20.44232     50.09697         7     0.947     0.637 -51.32   0
       155    517.2171    605.1183 300.1411061 +22.7102281     449.9211     72.43855      1.241     2.24     5.152638     20.44232     83.19812         8     0.784     0.652 -33.37   0
       156    912.2313    603.6103 300.2646749 +22.8281148     824.8251     72.45701      1.656     3.21     4.996212     20.44232     73.11776        13     1.022     0.801  -4.35   0
       157    310.0671    603.9341 300.0770316 +22.6478019     399.6579     72.51235      1.640     4.38     5.104162     20.44232     57.16097         7     1.027     0.553  30.10   0
       158    656.9203    601.6774 300.1857283 +22.7510964     368.0791     72.56766      1.613     4.44     5.056976     20.44232      41.8474         6     0.829     0.675  25.05   0
       159    474.2641    597.2429 300.1302933 +22.6950949     644.4229     72.45701      1.330     3.54     5.023921     20.44232     74.26126        13     1.190     0.742  23.74   0
       160    622.0686    595.9883 300.1767204 +22.7390213     438.9052     72.47546      1.149     2.22     5.187344     20.44232     77.83219         9     0.763     0.721   5.69   0
       161    669.2665    594.4844 300.1919104 +22.7527284     537.7435     72.56766      1.401     3.01      4.99375     20.44232     53.98687         8     0.863     0.634 -49.28   0
       162    639.8277    594.1506 300.1828486 +22.7438137     612.2406     72.47546      1.299     2.58     5.112615     20.44232     77.26868        10     0.866     0.702 -36.37   0
       163    518.2210    593.3372 300.1452448 +22.7071455     936.1799     72.42009      1.466     2.87     5.163316     20.44232     110.1205        13     1.062     0.730   2.88   0
       164    704.8817    592.5452 300.2036359 +22.7628396     339.2507     72.49391      1.266     4.99     4.911511     20.44232     60.78286         8     1.134     0.621  35.08   0
       165    952.0753    588.8528 300.2818944 +22.8358019     3308.877     72.47546      1.497     3.13      5.07203     20.44232       327.07        25     1.141     1.106 -72.73   0
       166    483.7475    588.5239 300.1360767 +22.6954330     1799.896     72.45701      1.404     2.72      5.04582     20.44232     222.1251        19     1.135     0.912  43.21   0
       167    459.7806    583.7670 300.1301618 +22.6868848     301.0457     72.45701      1.268     3.36     4.987016     20.44232     44.71824         5     0.866     0.435  45.38   0
       168     45.7156    581.9804 300.0019873 +22.5622362     5128.322     72.38315      1.743     3.57     4.594125     20.44232      453.616        39     1.418     1.312  26.77   0
       169    991.5793    578.8569 300.2974635 +22.8447542     210.9388     72.45701      1.239     4.51     5.152149     20.44232     36.27626         7     1.029     0.563  11.92   0
       170    513.3604    579.2347 300.1483116 +22.7016388     336.5285     72.49391      1.318     3.33      5.15349     20.44232      39.8933         5     0.724     0.465  77.39   0
       171    347.2298    575.2233 300.0979152 +22.6506994     9204.577     72.45701      1.427     2.69      4.71429     20.44232     1033.867        39     1.213     1.137  54.98   0
       172    469.7146    572.2951 300.1369791 +22.6865673     9067.513     72.64133      1.377     2.52     5.003074     20.44232     1144.245        36     1.154     1.107 -80.98   0
       173    716.2448    568.6619 300.2149328 +22.7593808     190.9726     72.47546      1.077     2.51     4.856455     20.44232     42.67968         5     0.732     0.434 -18.70   0
       174    966.0808    563.8937 300.2943689 +22.8328194     12644.28     72.60451      1.528     3.13     5.041561     20.44232     1181.408        48     1.280     1.268 -80.57   0
       175    881.3630    566.4327 300.2671237 +22.8081863     2052.197     72.47546      1.523     2.99     4.854401     20.44232     214.1616        20     1.124     0.996  41.06   0
       176    530.2687    561.9412 300.1591914 +22.7017382     11690.92     72.47546      1.360     2.60     5.230226     20.44232     1435.171        37     1.151     1.083  56.75   0
       177    699.8029    557.7315 300.2133594 +22.7513156     532.9288     72.43855      1.336     3.33     4.860533     20.44232     71.84574         9     0.902     0.697  72.18   0
       178    257.7129    557.3510 300.0758769 +22.6187353     1353.721     72.45701      1.503     3.03     4.859825     20.44232     152.3941        21     1.129     1.050 -20.26   0
       179    415.7357    556.5756 300.1252847 +22.6658772     290.7996     72.43855      1.217     4.85     4.793605     20.44232     45.50962         8     1.139     0.688  33.23   0
       180    504.7741    555.3024 300.1534102 +22.6921926     384.4445     72.42009      1.459     2.18     5.133546     20.44232      52.4062         5     0.715     0.433 -15.63   0
       181    804.8637    550.2247 300.2485377 +22.7806220     730.5891     72.43855      1.371     3.13     4.802467     20.44232     99.00429        12     0.957     0.920 -15.92   0
       182    462.0092    550.1204 300.1417815 +22.6778902     4409.749     72.40162      1.347     2.63     4.957824     20.44232     550.8751        26     1.087     1.008  44.08   0
       183    440.3727    548.5448 300.1355592 +22.6709541      1246.72     72.45701      1.304     2.45     4.866047     20.44232     175.7504        16     1.002     0.874  50.02   0
       184    194.7578    547.7294 300.0594271 +22.5971000     699.1473     72.42009      1.671     4.04     4.635292     20.44232     86.46225        12     1.228     0.701  55.18   0
       185    881.9534    545.7182 300.2740345 +22.8024088     1510.362     72.43855      1.547     3.27     4.839958     20.44232     155.2071        19     1.243     0.895 -23.17   0
       186    578.5938    537.6858 300.1821141 +22.7092490     204081.4     72.38315      1.377     2.42     5.284262     20.44232     30568.81       193     1.411     1.351  -8.70   0
       187    402.4167    543.7642 300.1253002 +22.6582069     416.1015     72.45701      1.604     2.86     4.682283     20.44232     56.38222         7     0.917     0.479  81.43   0
       188    762.2026    542.6646 300.2376961 +22.7656741     881.9008     72.45701      1.441     3.14     4.802721     20.44232     117.9296        15     1.052     0.862  74.39   0
       189    856.0449    541.5696 300.2673035 +22.7934593     238.1139     72.49391      1.256     3.78     4.823959     20.44232     37.09202         6     0.830     0.494  -2.55   0
       190    264.7141    537.6033 300.0844659 +22.6151652     3345.114     72.38315      1.439     2.50       4.8209     20.44232     502.0551        30     1.201     1.084 -55.03   0
       191    830.6637    534.1010 300.2618158 +22.7837131     579.5179     72.54923      1.369     2.87     4.816723     20.44232     63.42494        10     0.899     0.724  -1.92   0
       192    848.9329    532.3679 300.2680741 +22.7886850     301.2451     72.45701      1.370     3.37     4.827253     20.44232     37.32854         5     0.754     0.436 -19.59   0
       193    609.9259    524.2148 300.1962455 +22.7147649     270.4032     72.45701      1.298     3.97     5.298153     20.44232     41.93579         6     0.926     0.486  39.39   0
       194    469.3020    517.8881 300.1545167 +22.6708183     2829.838     72.62292      1.465     2.73     5.004361     20.44232     316.7498        25     1.146     1.047  63.97   2
       195    313.6914    520.7639 300.1051654 +22.6250114     452.6557     72.42009      1.442     3.81     4.802332     20.44232     52.62924         8     1.026     0.567 -33.54   0
       196    919.5133    518.4658 300.2945961 +22.8058189     184.9782     72.54923      1.271     4.75     4.873189     20.44232     40.53998         6     0.990     0.646 -20.32   0
       197    626.0214    515.7808 300.2039968 +22.7171630     345.3253     72.45701      1.547     3.82     5.210518     20.44232      24.9929         5     0.833     0.503 -53.30   0
       198    880.8909    514.7321 300.2837645 +22.7931833     366.4759     72.58608      1.433     2.85     4.856657     20.44232     42.86453         7     0.727     0.658  -8.05   0
       199    700.1078    513.7819 300.2277249 +22.7387782     281.8699     72.38315      1.410     4.28     4.849264     20.44232     42.63555         8     0.895     0.770 -84.10   0
       200    786.6772    506.8028 300.2569680 +22.7626963     358.9819     72.36467      1.237     2.42      4.80292     20.44232      65.5071         8     0.897     0.548  -6.71   0
       201    866.2516    504.3472 300.2825716 +22.7858153     1638.124     72.49391      1.292     2.40     4.858986     20.44232     238.6094        18     1.019     0.933  61.47   0
       202    737.3403    501.8523 300.2431993 +22.7465000     2747.879     72.51235      1.431     2.75     4.803957     20.44232     311.5451        25     1.167     1.000  52.90   0
       203     97.2808    502.0776 300.0439511 +22.5547717     237.7235     72.56766      1.437     5.82     4.668127     20.44232     38.51584         9     1.105     0.864  60.13   0
       204    981.7552    499.3699 300.3202098 +22.8189593     463.7056     72.49391      1.467     4.68     5.039665     20.44232     59.79916        10     1.035     0.775 -39.54   0
       205    947.2034    499.2838 300.3094601 +22.8085927     203.4562     72.38315      1.047     2.44     4.932527     20.44232     50.88841         5     0.736     0.425  14.45   0
       206    642.4510    498.3127 300.2147854 +22.7170650      431.591     72.45701      1.339     3.43       5.1313     20.44232     63.20881        11     0.986     0.857 -63.89   0
       207    524.6072    497.8835 300.1782271 +22.6816420     762.4089     72.38315      1.284     2.31      5.23706     20.44232     126.0632        12     0.875     0.806   1.17   0
       208    994.7862    495.9348 300.3253901 +22.8218717     1236.691     72.42009      1.494     3.19     5.079459     20.44232     127.7879        19     1.162     0.994  55.35   0
       209    980.3470    495.0760 300.3211646 +22.8173031      829.274     72.47546      1.537     3.41     5.033543     20.44232     83.10456        13     1.038     0.864  45.16   0
       210    866.6433    494.2665 300.2859665 +22.7830347     2278.376     72.43855      1.714     3.80     4.867169     20.44232     231.4855        26     1.555     1.049  84.01   0
       211    619.6090    491.4538 300.2098974 +22.7082527     884.7582     72.45701      1.976     6.02     5.319554     20.44232     93.46262        18     1.672     1.067  87.47   0
       212    405.3659    492.2067 300.1429564 +22.6442847     299.6325     72.45701      1.350     4.42     4.895823     20.44232       42.934         7     0.863     0.644 -62.96   0
       213    904.6895    489.5370 300.2993655 +22.7930644     4150.606     72.54923      1.387     2.45     4.874678     20.44232     521.9374        29     1.121     1.094 -61.03   0
       214    458.1847    491.0145 300.1597808 +22.6597687      404.981     72.40162      1.297     3.09     5.000988     20.44232     69.12251         8     0.875     0.682  25.70   0
       215    545.6442    488.8584 300.1877067 +22.6853514     331.6225     72.47546      1.216     4.66     5.326121     20.44232     34.24566         6     1.006     0.614  31.22   0
       216    642.2078    485.9767 300.2187144 +22.7134475     283.9124     72.45701      1.402     5.08      5.15326     20.44232     37.42895         8     1.215     0.601  46.65   0
       217    565.2479    485.3977 300.1949342 +22.6902296     328.8488     72.45701      1.088     2.58     5.357165     20.44232      47.8708         6     0.683     0.626 -53.31   0
       218    996.4674    479.9652 300.3310991 +22.8177826     752.0705     72.45701      1.515     3.61     5.078938     20.44232     78.21638        13     1.018     0.930  28.98   0
       219    136.5818    479.5079 300.0634910 +22.5600772     1006.223     72.38315      1.660     3.50     4.772533     20.44232     108.6693        17     1.162     0.979  -5.38   0
       220    157.6115    471.6052 300.0725925 +22.5641133     134.7199     72.32771      0.957     3.47     4.772533     20.44232     25.46568         5     1.051     0.330 -21.19   0
       221    129.5444    469.7518 300.0644705 +22.5551671     487.0359     72.49391      1.874     3.09     4.772533     20.44232     63.55314         8     1.071     0.531 -20.91   0
       222    992.6396    469.2045 300.3333983 +22.8135425     200.3468     72.47546      1.136     3.17     5.027992     20.44232     46.80797         7     0.940     0.561 -15.99   0
       223    736.9010    464.1321 300.2553075 +22.7355275     324.4424     72.54923      1.119     3.15     4.824657     20.44232     54.85511         8     0.806     0.678  32.09   0
       224    625.6376    461.8506 300.2213847 +22.7015522     247.8588     72.45701      1.184     3.66     5.278999     20.44232     38.76692         7     0.866     0.596   6.66   0
       225    678.1194    459.7822 300.2384044 +22.7166752     788.2001     72.45701      1.313     2.82      4.92456     20.44232     100.8437        12     0.906     0.835 -87.62   0
       226    992.3693    452.1288 300.3388569 +22.8085510     476.4774     72.45701      1.417     4.84     4.958784     20.44232     68.44965        12     1.311     0.755  66.06   0
       227    738.9664    452.1710 300.2598337 +22.7327081     923.1677     72.47546      1.309     2.97     4.839268     20.44232      121.187        12     0.988     0.806  33.61   0
       228    896.2417    448.3710 300.3100944 +22.7786998     1012.009     72.47546      1.424     2.80     4.613776     20.44232     115.5077        16     1.041     0.968 -83.58   0
       229    880.5282    444.9105 300.3063178 +22.7730014     629.6478     72.62292      1.304     3.28     4.589808     20.44232     83.19171        11     0.971     0.832 -24.83   0
       230    860.5723    444.7420 300.3001502 +22.7669794     243.7473     72.45701      1.033     4.38     4.605932     20.44232     48.49376         8     0.973     0.751  61.97   0
       231    624.7006    442.6394 300.2273285 +22.6957512     3296.676     72.45701      1.332     2.35     5.268316     20.44232     471.4919        24     1.049     1.018 -36.28   0
       232     85.3318    444.5822 300.0588999 +22.5346876     277.6461     72.45701      1.498     3.46      4.80483     20.44232      33.7353         5     0.767     0.451 -18.70   0
       233    985.1693    441.7253 300.3399877 +22.8034044     472.7572     72.47546      1.354     3.79      4.88095     20.44232     67.05243         9     1.059     0.638  34.34   0
       234    552.9837    434.8447 300.2075244 +22.6720318     162.7108     72.47546      1.092     3.92     5.290062     20.44232     27.45852         5     0.849     0.518  59.06   0
       235    100.5516    434.2542 300.0669811 +22.5362862     355.4839     72.49391      1.279     4.62     4.772533     20.44232     43.66951         7     0.932     0.650 -17.31   0
       236    396.7559    429.8388 300.1605208 +22.6237924     301.9633     72.53079      1.407     4.47      4.90773     20.44232     42.13378         7     1.084     0.525 -65.14   0
       237   1011.3568    429.0061 300.3522859 +22.8075831      301.799     72.47546      1.791     4.41     4.993524     20.44232     34.23639         5     1.001     0.554 -16.11   0
       238    464.6740    429.6251 300.1817266 +22.6440790     364.2484     72.47546      1.322     3.93     5.018502     20.44232     53.29309         7     0.990     0.450 -11.69   0
       239    908.1468    421.2733 300.3226021 +22.7744715     589.1836     72.47546      1.563     3.69     4.398061     20.44232     80.68953        14     1.197     0.935   3.11   0
       240    994.5078    420.4445 300.3498081 +22.8000787     932.8059     72.45701      1.550     3.20     4.856983     20.44232     109.5863        16     1.043     0.955  66.15   0
       241    735.4988    416.6731 300.2702745 +22.7214664     1099.887     72.60451      1.290     2.53      4.88535     20.44232     155.2355        16     1.043     0.885 -16.37   0
       242    530.9203    417.1895 300.2063846 +22.6603505     458.9807     72.43855      1.242     3.06       5.2168     20.44232      71.4751         8     0.906     0.661  22.84   0
       243    239.0701    414.7361 300.1163736 +22.5722033     586.4805     72.49391      1.313     3.66     4.869616     20.44232     84.46338        10     0.969     0.703  54.47   0
       244    301.5848    410.3897 300.1372253 +22.5896897     3775.767     72.36467      1.410     2.62     4.956456     20.44232     461.1206        28     1.204     1.036  69.09   0
       245     79.0667    413.0035 300.0672010 +22.5237454     204.1891     72.43855      1.143     3.65     4.828079     20.44232     32.97615         5     1.029     0.373 -33.97   0
       246    248.8120    405.1364 300.1225179 +22.5723664     7655.039     72.40162      1.438     2.77     4.925409     20.44232     898.4924        39     1.222     1.150  53.37   0
       247    753.7954    405.4351 300.2796233 +22.7237139     327.1725     72.45701      1.250     2.75     4.885005     20.44232     45.85645         5     0.708     0.485 -11.27   0
       248    627.5327    404.8706 300.2404682 +22.6857456     392.0673     72.49391      1.248     3.74     5.234074     20.44232     45.04592         7     0.870     0.600   9.52   0
       249   1014.7794    400.2638 300.3626820 +22.8003403     1872.754     72.42009      1.503     2.68     4.953521     20.44232     214.4405        24     1.141     1.099 -16.02   0
       250    389.5837    399.4552 300.1681492 +22.6129164     4807.363     72.42009      1.327     2.34     5.008224     20.44232     680.7142        28     1.105     1.052  57.83   0
       251    633.8214    396.1653 300.2452520 +22.6851270     18719.98     72.47546      1.312     2.40     5.202023     20.44232     2552.157        54     1.245     1.090  66.48   0
       252    651.5985    396.2863 300.2507502 +22.6904851       866.47     72.38315      1.888     5.99     5.091888     20.44232     72.29876        14     1.483     0.682 -44.47   0
       253    480.6364    397.7691 300.1970331 +22.6397090     427.4207     72.47546      1.630     4.58     5.116749     20.44232     56.32742         9     1.318     0.771 -86.15   0
       254    877.7220    392.3605 300.3224978 +22.7570515     202.6675     72.43855      1.154     3.83     4.552198     20.44232     42.34467         5     0.963     0.436 -46.16   0
       255    967.3914    378.9511 300.3548148 +22.7800304     790.8409     72.47546      1.485     3.37     4.742701     20.44232     73.08306        15     1.088     0.918  10.73   0
       256    188.4592    376.2277 300.1131333 +22.5459781     2065.621     72.45701      1.529     2.96     4.904962     20.44232     247.1164        24     1.169     1.054  87.52   0
       257    201.9928    371.3249 300.1189315 +22.5486263     223.8397     72.40162      1.348     3.64     4.933054     20.44232     44.53724         5     1.194     0.319  64.93   0
       258    574.4825    365.5806 300.2366956 +22.6585677      6673.04     72.43855      1.312     2.29     5.322172     20.44232     944.2921        35     1.140     1.048  72.28   0
       259    988.2855    366.0947 300.3655045 +22.7825847     1355.134     72.64133      1.629     2.94     4.821018     20.44232     138.8873        17     1.113     0.937  83.12   0
       260    289.2007    364.8648 300.1481453 +22.5729045     574.3853     72.47546      1.280     2.74     5.339469     20.44232     83.51775        11     0.934     0.752 -81.33   0
       261    146.8986    358.1249 300.1060875 +22.5283241     575.0869     72.58608      1.377     3.68      4.91827     20.44232     74.10619        10     0.957     0.832 -16.97   0
       262    834.7431    357.4484 300.3204262 +22.7341488     286.5697     72.51235      1.229     3.49     4.854455     20.44232     47.94089         6     0.704     0.666 -87.94   0
       263    778.6765    354.7110 300.3038374 +22.7165797     1192.019     72.60451      1.332     2.49     4.891308     20.44232     176.9989        16     1.012     0.975  46.56   0
       264    688.1976    355.6685 300.2753317 +22.6897686     503.3492     72.42009      1.502     3.45     4.906208     20.44232     68.60978        11     1.026     0.921 -73.13   0
       265    481.1044    351.8089 300.2120914 +22.6266442     6193.311     72.36467      1.340     2.55     5.261985     20.44232     849.4991        35     1.155     1.059  72.43   0
       266    970.4052    346.9447 300.3661403 +22.7717263     521.7456     72.43855      1.174     2.04      4.81531     20.44232     94.77348         9     0.818     0.619  14.24   0
       267    873.0726    346.3865 300.3359658 +22.7424394     1499.748     72.47546      1.427     2.47      4.84921     20.44232      186.358        19     1.025     0.943  -6.91   0
       268    465.8046    340.6006 300.2109654 +22.6188412     336.2859     72.27222      1.190     2.78      5.26311     20.44232     60.42336         8     0.878     0.612  11.94   0
       269    548.1139    338.2985 300.2373362 +22.6428308      373.122     72.62292      1.244     4.32     5.233352     20.44232     51.96984         8     0.997     0.699  19.48   0
       270    826.9402    337.3819 300.3245042 +22.7260432     229.6189     72.42009      1.344     4.39     4.890335     20.44232      33.5954         6     0.846     0.648 -35.18   0
       271    528.8671    336.5336 300.2319161 +22.6365597     295.5976     72.51235      1.209     3.45     5.234769     20.44232     39.34908         5     0.763     0.452  20.13   0
       272    846.1346    334.1564 300.3315347 +22.7308604     618.6531     72.43855      1.485     3.01     4.875772     20.44232     81.61739        11     1.007     0.776  34.79   0
       273    127.4812    333.1563 300.1081524 +22.5153356     263.3578     72.43855      1.384     4.17     5.059232     20.44232     35.28616         5     0.884     0.562  43.88   0
       274    368.7289    331.0601 300.1838513 +22.5870217     2562.766     72.49391      1.377     2.63     5.308958     20.44232     348.3195        21     1.091     0.960  60.97   0
       275     87.1168    328.4869 300.0971230 +22.5018967     1042.489     72.56766      1.489     2.79     5.003203     20.44232     136.8846        17     1.150     0.947   9.42   0
       276    337.9974    320.4333 300.1777378 +22.5747625     30103.02     72.42009      1.392     2.65      5.37613     20.44232     3932.212        65     1.299     1.173  64.27   0
       277    872.6749    318.1059 300.3450169 +22.7341873     1536.934     72.60451      1.409     2.57     4.852221     20.44232     193.8293        19     1.034     0.972  77.59   0
       278    828.5345    315.7651 300.3320142 +22.7203042     301.0365     72.45701      1.056     2.50     4.908549     20.44232     41.32357         5     0.704     0.453  67.18   0
       279     34.3690    308.2151 300.0873094 +22.4802662     5230.599     72.45701      1.658     2.97     5.137146     20.44232     613.2587        38     1.359     1.261  44.09   0
       280    913.0428    306.0428 300.3615184 +22.7427975      346.491     72.56766      1.456     2.96     4.828358     20.44232     43.76752         4     0.972     0.290  39.35   2
       281    788.0026    307.0111 300.3222192 +22.7056560     603.7466     72.27222      1.251     2.18     4.963629     20.44232     101.2176         9     0.756     0.726 -15.30   0
       282    212.0505    306.7652 300.1430019 +22.5331011     489.7069     72.47546      1.446     4.00     5.340052     20.44232     67.44319         8     0.875     0.790 -53.87   0
       283    436.5149    305.7494 300.2131549 +22.6000547     482.3851     72.43855      1.370     3.00     5.274908     20.44232     73.49786        10     0.948     0.753  55.52   0
       284    748.4967    300.2642 300.3120950 +22.6918913       2072.1     72.56766      1.390     2.40     4.976868     20.44232     263.6162        20     1.088     0.937  72.29   0
       285    556.7976    294.8623 300.2541305 +22.6329478     408.9132     72.45701      1.210     2.70     5.133082     20.44232     71.64742         8     0.884     0.625 -55.92   0
       286    963.8047    292.9381 300.3816020 +22.7542163     565.5858     72.43855      1.444     3.86      4.83009     20.44232      75.1852        11     1.167     0.823 -81.46   0
       287    410.2068    284.7477 300.2117798 +22.5861406     2041.701     72.43855      1.468     3.22     5.292605     20.44232     231.4373        21     1.355     0.857  61.39   0
       288    622.5684    284.0105 300.2781333 +22.6495211     411.9536     72.45701      1.487     2.77     5.019911     20.44232     68.38702         7     0.923     0.561 -32.82   0
       289    849.3654    278.0100 300.3507555 +22.7156802     693.9599     72.42009      1.293     2.44     4.886398     20.44232     91.96698         9     0.840     0.667  25.50   0
       290    731.5986    275.3386 300.3149140 +22.6796665     570.2601     72.42009      1.395     3.70     4.927973     20.44232     78.92918        10     1.052     0.731  64.77   0
       291    749.2011    275.3834 300.3203850 +22.6849480     252.9704     72.34619      1.409     3.42     4.945707     20.44232     29.04589         5     0.746     0.454  17.01   0
       292    699.8048    274.8047 300.3051803 +22.6699963     391.4808     72.30921      1.343     3.89     4.840699     20.44232     48.60003         6     0.755     0.573  25.49   0
       293    486.0591    264.1582 300.2420657 +22.6029409     1036.153     72.43855      1.257     3.02     5.249387     20.44232     161.4993        14     0.984     0.823  62.16   0
       294    997.4243    260.4018 300.4026434 +22.7549136      451.091     72.40162      1.665     4.43     4.880977     20.44232      57.2665         9     1.160     0.878  64.11   0
       295    892.1887    257.2511 300.3708412 +22.7225233     207.7659     72.47546      1.216     3.91     4.852616     20.44232     28.50596         5     0.964     0.453  46.38   0
       296    731.0576    256.2034 300.3209516 +22.6740024     2224.788     72.42009      1.316     2.47      4.86182     20.44232     302.2231        21     1.031     0.945  85.61   0
       297    992.3470    250.5940 300.4042403 +22.7505730     3214.736     72.42009      1.520     2.80     4.892721     20.44232      392.027        27     1.187     1.108 -82.14   0
       298    439.4042    239.9565 300.2353926 +22.5820143     649.2294     72.47546      1.365     2.65     5.285519     20.44232     86.17446        10     0.927     0.688 -48.99   0
       299    144.9932    234.1772 300.1456968 +22.4921611     692.5526     72.43855      1.394     3.42     5.415721     20.44232     90.07556        13     1.110     0.873 -85.52   0
       300    114.2100    234.1558 300.1361361 +22.4829308     1314.201     72.47546      1.710     3.53     5.379524     20.44232     126.0307        20     1.317     0.941 -20.74   0
       301   1007.8805    231.2941 300.4153457 +22.7496664     525.0466     72.58608      1.382     2.71     4.942581     20.44232     59.81277         8     0.758     0.681  17.10   0
       302    862.1535    231.5778 300.3698018 +22.7061516     251.7157     72.49391      1.292     3.15     4.858783     20.44232     32.98653         5     0.739     0.444 -21.48   0
       303    851.3832    227.7434 300.3676871 +22.7018261     259.1293     72.42009      1.303     4.76      4.85955     20.44232     39.68283         7     1.350     0.475  43.50   0
       304    198.1759    226.2836 300.1647889 +22.5058288     469.4367     72.42009      1.356     3.22     5.426474     20.44232     56.37284         9     0.917     0.670  15.55   0
       305    993.5325    223.7843 300.4133047 +22.7432138     366.1561     72.45701      1.343     2.67      4.94382     20.44232     65.54059         7     0.858     0.734 -43.13   0
       306    874.6390    220.2066 300.3773824 +22.7066164     301.6671     72.49391      1.139     3.00     4.894725     20.44232     61.17854         8     0.931     0.574   4.53   0
       307    802.7620    217.6346 300.3558074 +22.6843698     709.4902     72.51235      1.363     2.92     4.909225     20.44232     99.64388        13     0.973     0.904  38.62   0
       308    393.1113    217.0729 300.2284068 +22.5615746     431.5105     72.62292      1.371     3.01     5.300634     20.44232     68.23302         7     0.920     0.533  76.97   0
       309    938.8307    210.2657 300.4006248 +22.7229609     208.3562     72.45701      1.200     5.32     4.987484     20.44232     27.65833         6     1.061     0.752 -12.59   0
       310    900.8242    206.7142 300.3899230 +22.7105691     1982.815     72.40162      1.418     2.57     4.996015     20.44232     280.6495        23     1.187     0.982  56.41   0
       311    319.2962    203.8051 300.2097437 +22.5356544     2123.202     72.36467      1.419     2.71     5.389102     20.44232     284.7237        22     1.144     0.971  66.17   0
       312    397.0866    198.9746 300.2355119 +22.5575642     1088.519     72.40162      1.474     3.17     5.287027     20.44232     124.2877        18     1.123     1.014  -9.16   0
       313    148.8866    199.6334 300.1581073 +22.4834066     336.2402     72.42009      1.518     4.21     5.448312     20.44232     33.04472         6     0.770     0.656 -56.55   0
       314    799.1922    198.4048 300.3609301 +22.6777707     596.2137     72.30921      1.234     2.91     5.048725     20.44232     79.30468        10     0.897     0.744 -19.77   0
       315    906.3307    195.5648 300.3952554 +22.7090089     353.7101     72.45701      1.333     2.50     5.082152     20.44232     74.49514         7     0.819     0.654  68.40   0
       316    214.3461    191.2131 300.1811873 +22.5005993     804.1999     72.47546      1.489     3.94      5.47889     20.44232     83.45105        14     1.134     0.977 -56.75   0
       317    751.9158    188.1423 300.3495222 +22.6606721     1744.227     72.56766      1.317     2.54     4.992707     20.44232     216.5228        20     0.995     0.958 -65.21   0
       318    817.0382    188.0324 300.3698562 +22.6801271     637.3491     72.49391      1.296     2.20     5.125589     20.44232     85.41006         9     0.748     0.719 -13.43   0
       319    235.2742    184.4771 300.1898784 +22.5049336      526.827     72.56766      1.374     4.30     5.481763     20.44232     68.45788        12     1.187     0.971 -79.32   0
       320   1023.1354    180.8764 300.4364540 +22.7397211     679.2475       59.484      1.242     3.12     5.246273     20.44232     113.6008        11     0.979     0.738  82.15  24
       321    525.8682    180.4549 300.2816008 +22.5908019     450.4496     72.49391      1.374     3.05     5.131096     20.44232     48.05985         8     0.804     0.678 -81.50   0
       322    756.0053    179.5217 300.3535917 +22.6594165       712.21     72.36467      1.366     2.51     5.050059     20.44232     127.6652        12     1.019     0.789  72.13   0
       323    676.4177    178.7142 300.3290537 +22.6353664     1194.279     72.40162      1.291     2.50     4.997523     20.44232     187.5222        19     1.125     0.916  83.19   0
       324    497.7934    175.0468 300.2746137 +22.5808420     348.1851     72.47546      1.296     3.99     5.211121     20.44232     48.27825         8     0.875     0.614 -46.21   0
       325    871.9465    170.3397 300.3927117 +22.6914653     1498.828     72.51235      1.391     2.59     5.260148     20.44232      191.838        20     1.057     0.972  54.90   0
       326    602.6559    170.5995 300.3087076 +22.6109554     1131.259     72.38315      1.469     2.29     5.142326     20.44232     153.6157        14     0.967     0.788  52.02   0
       327    883.9355    169.6561 300.3966718 +22.6948553     741.3776     72.51235      1.288     2.49      5.26826     20.44232      120.246        11     0.878     0.783  71.84   0
       328    930.1890    169.0029 300.4113084 +22.7085038     308.8793     72.27222      1.206     2.44     5.306848     20.44232     57.91697         5     0.668     0.509  -0.17   0
       329   1000.6072    159.8348 300.4362471 +22.7269280     1026.566     72.45701      1.380     2.76     5.371551     20.44232     129.3774        15     0.971     0.907 -50.98   0
       330     24.5064    156.5073 300.1334365 +22.4337518     515.5834     72.62292      1.326     2.98     6.239656     20.44232     58.66203         8     0.997     0.527 -36.92   0
       331    234.8184    152.8310 300.1999956 +22.4957054     731.4568     72.43855      1.385     2.24     5.504467     20.44232     108.4565        10     0.866     0.690 -33.29   0
       332     96.5355    147.2566 300.1588158 +22.4526778     2223.046     72.51235      1.554     3.19     5.529358     20.44232     278.3976        25     1.298     1.058  62.57   0
       333    919.6761    144.6274 300.4159319 +22.6983455     675.6847     72.43855      1.495     2.92      5.37407     20.44232       105.18        14     1.008     0.908  38.33   0
       334     46.2204    144.1466 300.1441893 +22.4367088     640.3345     72.43855      1.878     3.94     5.930084     20.44232     48.37765        12     1.136     0.824  16.65   0
       335    254.0605    140.6242 300.2099360 +22.4979618      5661.98     72.43855      1.491     2.92     5.477315     20.44232     677.8649        37     1.259     1.188  83.13   0
       336     38.0829    134.9289 300.1446487 +22.4316232     1249.242     72.58608      1.620     3.49      5.91128     20.44232     124.8491        24     1.368     1.185  68.54   0
       337    237.2148    131.8471 300.2075425 +22.4903944     545.8826     72.47546      1.277     2.84     5.500948     20.44232     74.51558         8     0.945     0.532 -49.10   0
       338    898.0969    122.4429 300.4163933 +22.6855074     3628.899     72.45701      1.419     2.60      5.36155     20.44232     527.8749        29     1.242     1.051  79.46   0
       339   1001.7961    121.2283 300.4491331 +22.7161729     2780.244     72.42009      1.509     2.75     5.400912     20.44232     346.9186        29     1.251     1.149 -88.83   0
       340    200.6507    118.3148 300.2005595 +22.4755544     323.7803     72.43855      1.542     5.34     5.520425     20.44232     43.05431         7     1.038     0.798  25.01   0
       341    447.5087    117.4001 300.2776478 +22.5492163     674.3107     72.32771      1.351     3.56     5.306569     20.44232     87.06619        13     1.170     0.861 -80.56   0
       342    561.8875    115.4440 300.3138904 +22.5828938     338.4943     72.43855      1.299     2.90     5.268453     20.44232     47.84634         5     0.733     0.458 -19.75   0
       343    371.6024    109.2546 300.2566663 +22.5241480     649.4068     72.40162      1.511     2.80      5.37148     20.44232     74.43968        11     0.922     0.805  13.66   2
       344    375.6801    107.7353 300.2584275 +22.5249322     474.4668     72.56766      1.358     4.60     5.360459     20.44232     65.20316         8     1.276     0.517  38.87   2
       345    906.4077    107.0644 300.4239698 +22.6835682     265.7836     72.43855      1.371     4.46     5.378749     20.44232     32.11866         6     0.855     0.663  59.69   0
       346    137.9895    106.4876 300.1849132 +22.4533864     761.4706     72.40162      1.865     3.54     5.538161     20.44232     75.52708        13     1.146     0.843 -10.21   0
       347    498.8424    104.9076 300.2976758 +22.5609928     1672.836     72.45701      1.373     2.48     5.384032     20.44232     237.2485        21     1.094     0.968  78.30   0
       348    426.8525    105.4915 300.2750786 +22.5396088     469.0895     72.51235      1.506     3.04     5.263916     20.44232     69.95125         7     0.887     0.621   7.26   0
       349     36.5130    105.2100 300.1537928 +22.4226177     357.6252     72.40162      1.945     4.23     5.641612     20.44232     36.95709         5     1.102     0.464 -30.97   0
       350    560.9081    104.2965 300.3171984 +22.5793953     405.4907     72.64133      1.320     2.58     5.282284     20.44232      60.8283         6     0.762     0.607 -35.99   0
       351    242.2558    100.5003 300.2192697 +22.4828974     571.9851     72.54923      1.783     3.20     5.491986     20.44232     71.85746         7     0.897     0.591 -47.64   0
       352    787.2584     94.4704 300.3909028 +22.6443026     278.5421     72.47546      1.022     2.20     5.129888     20.44232     61.85379         6     0.667     0.614 -65.23   0
       353    933.0848     89.2280 300.4380709 +22.6864143     299.4552     72.45701      1.346     2.96     5.430541     20.44232     42.25459         6     0.850     0.492  33.57   0
       354    273.0069     84.5380 300.2340059 +22.4875201     6171.125     72.43855      1.502     2.85      5.44331     20.44232     745.0617        37     1.340     1.135  69.02   0
       355    779.7040     85.3624 300.3915000 +22.6394223     426.3406     72.43855      1.361     2.79     5.109116     20.44232     42.41527         5     0.710     0.464 -13.50   0
       356    124.2181     84.1906 300.1878587 +22.4428557     722.5466     72.40162      1.482     3.66     5.550471     20.44232     89.97852        10     1.132     0.596 -28.18   0
       357    901.9121     81.9904 300.4306944 +22.6750082     572.4504     72.38315      1.662     5.27     5.362397     20.44232     47.06876        10     1.235     0.635  52.26   0
       358    244.7853     78.8045 300.2270872 +22.4774208     417.8172     72.30921      1.415     3.85     5.488562     20.44232     42.80405         7     0.869     0.580 -57.32   0
       359    749.1085     76.3739 300.3848771 +22.6276831     113.9871     72.40162      0.860     3.26     5.169832     20.44232     37.73119         5     0.756     0.427  21.35   0
       360    288.6915     75.9971 300.2416518 +22.4897626     319.1631     72.34619      1.286     3.19     5.417742     20.44232     48.14301         6     1.001     0.465   8.43   0
       361     35.2142     75.0185 300.1631730 +22.4135571     319.1765     72.42009      1.186     2.88     5.568017     20.44232      46.5024         6     0.871     0.465 -51.18   0
       362    519.0973     70.0089 300.3152917 +22.5570218     6293.624     72.34619      1.381     2.71      5.43328     20.44232     800.1534        32     1.204     1.058  70.04   0
       363    404.3606     70.0026 300.2795802 +22.5226734     677.1097     72.47546      1.454     2.52     5.442095     20.44232     88.46439        10     0.880     0.706  -7.89   0
       364    576.0295     64.8410 300.3346940 +22.5725754     233.4984     72.47546      1.318     2.44     5.371293     20.44232     45.83564         5     0.765     0.485  57.85   0
       365    771.3101     59.5774 300.3972398 +22.6294930     865.2314     72.38315      1.454     4.12     5.040429     20.44232     107.8059        12     1.200     0.729  59.66   0
       366    864.0504     58.5277 300.4264914 +22.6569322     405.7293     72.45701      1.221     3.27     5.192409     20.44232      75.1282        10     1.028     0.727   6.04   0
       367    212.3050     53.6937 300.2251242 +22.4604777     329.2275     72.62292      1.218     3.65     5.524363     20.44232     57.31908         5     0.820     0.492 -45.04   0
       368    570.5362     52.7874 300.3368892 +22.5674651     556.6561     72.42009      1.489     2.71     5.401371     20.44232     66.75299         8     0.934     0.554 -17.63   0
       369    647.4297     50.1182 300.3617038 +22.5897079     6379.573     72.47546      1.357     2.51     5.338944     20.44232     787.7036        35     1.204     1.077  74.15   0
       370    422.4923     49.0158 300.2920232 +22.5220684     1394.123     72.38315      1.374     2.63     5.562649     20.44232     171.5484        18     1.054     0.938 -82.22   0
       371    688.6252     47.4451 300.3754042 +22.6012653     956.8929     72.47546      1.281     2.76     5.254127     20.44232     132.8199        13     0.972     0.874 -83.61   0
       372    704.5155     43.7414 300.3815555 +22.6049541     551.7292     72.56766      1.269     2.84     5.213832     20.44232     84.07388        12     0.968     0.786 -12.69   0
       373    974.1956     41.7645 300.4662759 +22.6850479     424.6322     72.45701      1.116     2.03     5.950072     20.44232     69.91975         7     0.694     0.613   8.80   0
       374    171.1545     41.6609 300.2162292 +22.4446957     721.8695     72.47546      1.561     2.58     5.526253     20.44232     82.99448         9     0.906     0.625 -49.59   0
       375     18.3661     41.9916 300.1686399 +22.3990231     350.5232     72.45701      1.300     2.96     5.568017     20.44232     45.46397         6     0.852     0.555   0.42   0
       376    743.0861     39.5689 300.3949268 +22.6152932     429.3968     72.43855      1.279     2.08     5.099079     20.44232     75.41173         9     0.839     0.609  68.86   0
       377    691.6976     35.0351 300.3803826 +22.5986146     2805.715     72.45701      1.393     2.70     5.239272     20.44232     357.3564        27     1.217     1.024 -85.74   0
       378    332.1399     35.9819 300.2681329 +22.4912717     342.9623     72.42009      1.305     3.17     5.578089     20.44232     49.91052         7     0.886     0.507 -43.68   0
       379    707.8630     36.0000 300.3851069 +22.6037287     556.4675     72.43855      1.428     3.69     5.196856     20.44232     56.39591         5     0.862     0.476 -26.05   2
       380    706.2535     33.6036 300.3853819 +22.6025578     834.6921     72.43855      1.689     2.54     5.199947     20.44232     75.77397         9     0.805     0.775  49.84   2
       381    778.1761     26.6669 300.4100438 +22.6220782     1675.989     72.43855      1.511     2.62      4.87955     20.44232     212.3158        20     1.088     0.958 -82.14   0
       382    938.1974     25.5028 300.4603161 +22.6696029     346.3875     72.36467      1.583     3.66     5.592669     20.44232     35.43863         5     0.832     0.579 -46.97   0
       383    259.8098     22.6282 300.2499616 +22.4657762      263.028     72.45701      1.239     2.79     5.467549     20.44232     39.50732         5     0.731     0.444  19.16   0
       384    716.0255     19.8423 300.3928856 +22.6015224     636.1804     72.49391      1.264     2.38     5.151403     20.44232       120.25        10     0.919     0.746   8.22   0
       385    521.7247     19.1377 300.3325930 +22.5431802     952.7247     72.51235      1.280     2.62     5.568135     20.44232     130.0173        13     0.940     0.834  -8.28   0
       386     94.4534     18.8023 300.1997945 +22.4151546     571.4586     72.42009      1.847     5.16     5.568017     20.44232     57.10147        10     1.302     0.960  48.69   0
       387    425.6181     17.1563 300.3033185 +22.5138447     738.9315     72.47546      1.270     2.61     5.766898     20.44232     107.3266        13     0.971     0.829 -12.65   0
       388    758.5837   1016.8740 300.0824331 +22.9007932     471.6678     72.45701      1.912     5.91     3.547593     20.44232     36.23811         9     1.465     0.726  55.11  16
       389    320.9576   1015.9630 299.9464891 +22.7692888     1434.927     72.53079      2.569     4.97     9.501347     20.44232       98.765        24     1.390     1.282  15.03  16
       390    353.4080   1010.7021 299.9582940 +22.7775156     3117.594     72.32771      0.866     2.53      3.78286     20.44232     935.8843         9     0.845     0.431 -19.67   0
       391    155.9603   1012.2929 299.8963848 +22.7187245     1260.661     72.45701      2.356     8.66     94.29588     20.44232      44.5133        16     2.175     0.964  50.23  19
