#   1 NUMBER                 Running object number                                     
#   2 X_IMAGE                Object position along x                                    [pixel]
#   3 Y_IMAGE                Object position along y                                    [pixel]
#   4 ALPHA_J2000            Right ascension of barycenter (J2000)                      [deg]
#   5 DELTA_J2000            Declination of barycenter (J2000)                          [deg]
#   6 FLUX_APER              Flux vector within fixed circular aperture(s)              [count]
#   7 FLUXERR_APER           RMS error vector for aperture flux(es)                     [count]
#   8 FLUX_RADIUS            Fraction-of-light radii                                    [pixel]
#   9 FWHM_IMAGE             FWHM assuming a gaussian core                              [pixel]
#  10 BACKGROUND             Background at centroid position                            [count]
#  11 THRESHOLD              Detection threshold above background                       [count]
#  12 FLUX_MAX               Peak flux above background                                 [count]
#  13 ISOAREA_IMAGE          Isophotal area above Analysis threshold                    [pixel**2]
#  14 A_IMAGE                Profile RMS along major axis                               [pixel]
#  15 B_IMAGE                Profile RMS along minor axis                               [pixel]
#  16 THETA_IMAGE            Position angle (CCW/x)                                     [deg]
#  17 FLAGS                  Extraction flags                                          
         1    519.0049     17.7051 300.3325882 +22.5431166     1125.707     72.39116      1.542     3.60     6.209452     20.44981     135.8946        14     1.179     0.826  64.58   0
         2    719.3947     12.1439 300.3968244 +22.6014914     314.6716     72.44659      1.701     4.66     6.057141     20.44981     33.82763         6     1.030     0.599  26.54   0
         3    194.2656      5.7505 300.2353985 +22.4424396     3837.574     72.48353      1.677     2.88     6.571388     20.44981     416.7822        36     1.458     1.212  51.50  24
         4    762.3862      6.7555 300.4119719 +22.6128048     689.8353     72.50199      1.447     2.79      6.04393     20.44981      77.4155        11     0.967     0.745  22.03  16
         5    616.9786      3.4044 300.3677396 +22.5683292     341.6239     66.73534      1.090     3.71     6.020546     20.44981      42.5193         6     0.806     0.490  -2.00  16
         6    520.2891      3.3230 300.3376474 +22.5393655     430.4053     66.51439      1.280     3.22     6.155619     20.44981     54.42871         5     0.787     0.499  46.02  16
         7    311.6657   1007.6292 299.9466828 +22.7652296     390.7104     72.50199      2.619     4.81     10.77683     20.44981       32.065         5     1.392     0.472  43.96   0
         8    271.5434   1016.4232 299.9313415 +22.7557101     2799.016     72.50199      7.320    36.90     35.33526     20.44981     67.67414       249     8.023     4.712  70.80  27
         9    223.3332    988.3113 299.9254927 +22.7331805     4372.677     72.59422      8.838    35.91      67.0188     20.44981     86.92274       378     7.660     4.676 -87.23  19
        10    243.6596    986.8715 299.9322822 +22.7388682     5978.263     72.52045     12.143    48.79     49.97285     20.44981     111.5727       768    10.387     7.683 -71.92  19
        11    261.2052    976.3304 299.9411677 +22.7411113     9190.976     72.44659     12.678    39.87     30.91866     20.44981     177.8768      1045    13.453     5.470  66.70  19
        12    949.3486    973.4494 300.1564573 +22.9466572        760.3     72.52045      2.172     5.51     5.031543     20.44981     49.13838        16     1.294     1.263   8.48   0
        13    111.1717   1011.5645 299.8830588 +22.7061783     3436.309     72.50199     13.523    72.29     90.41222     20.44981     146.7734      1390    15.616     9.285  40.52  27
        14    569.7862    993.7068 300.0315561 +22.8386758       2306.3     72.40964      1.929     5.44     4.619427     20.44981     148.4567        32     1.485     1.421  60.19   0
        15    186.2164    968.2618 299.9204726 +22.7162917     801.7585     72.42812      2.263     7.59       55.316     20.44981      40.2634        11     1.940     0.831 -10.41   0
        16      4.3361    975.5845 299.8615637 +22.6637900      1862.27      70.0423      9.420    13.39    -13.18993     20.44981     61.61553        55     2.721     1.905  59.89  27
        17    757.3876    990.1237 300.0911732 +22.8939042     543.1298     72.50199      1.786     3.90     4.906443     20.44981     39.73476         6     1.040     0.419 -74.89   0
        18    156.6878    959.6968 299.9140779 +22.7049731     1223.848     72.66792      4.507     4.04     52.37372     20.44981     34.81948         5     1.373     0.340  16.34   3
        19    155.7704    961.7448 299.9131266 +22.7052849     1390.372     72.48353      5.068     8.05     53.82877     20.44981     34.74803        14     2.433     0.745  27.63   3
        20    148.3169    953.2007 299.9135882 +22.7005981     1360.682     72.37267     11.591    12.75     44.73122     20.44981     47.34487        29     2.865     1.579  82.79   3
        21      6.5696    963.6632 299.8661347 +22.6610441     896.5548     72.50199      4.561     5.04    -6.995053     20.44981     28.78221         5     1.408     0.511 -42.79  17
        22    168.4408    957.4036 299.9184775 +22.7078433     1600.333     72.50199      5.478    11.94     49.36802     20.44981       48.588        34     2.551     1.556  21.21   2
        23    674.6713    955.9427 300.0765136 +22.8592923     6821.562     72.50199      1.955     4.45     5.114079     20.44981     387.0864        47     1.524     1.472  45.02   0
        24    554.2875    950.3892 300.0408193 +22.8215979     462.1484     72.42812      1.838     4.66     4.757339     20.44981     35.05913         7     0.891     0.692 -70.12   0
        25     99.6636    943.3135 299.9016805 +22.6831594     5625.923     72.57578     26.993   109.77     25.48265     20.44981     1274.832      4234    21.138    16.221 -83.36  18
        26    827.1990    948.9617 300.1263263 +22.9030153     401.7413     72.50199      1.988     5.92     4.878485     20.44981     30.46338         7     1.179     0.835  73.89   0
        27    656.3553    988.7792 300.0601257 +22.8632242     8958.673     72.53889      2.047     4.88     5.236776     20.44981     480.6388        48     1.596     1.474  21.46   3
        28    583.2186    946.7850 300.0510020 +22.8292402     1516.288     72.46507      1.888     4.48     4.841148     20.44981      103.803        24     1.282     1.245 -74.72   0
        29    760.4091    943.9958 300.1071194 +22.8815683     227.5786     72.31718      1.275     5.45     4.908517     20.44981     31.82623         7     1.325     0.633  69.15   0
        30    662.0029    986.6633 300.0625736 +22.8643105     9184.073     72.48353      1.970     4.79     5.263979     20.44981     558.5745        51     1.580     1.474  36.16   3
        31    407.5751    941.0685 299.9981753 +22.7749165     6706.734     72.48353      1.897     4.23     4.870464     20.44981      434.151        44     1.468     1.425 -18.21   0
        32    477.1485    943.0799 300.0191775 +22.7963640     1144.002     72.48353      1.942     5.02     4.690277     20.44981     92.20991        21     1.392     1.130  53.81   0
        33    730.7677    987.6486 300.0836814 +22.8852125     492.8636     72.52045      0.669     0.57     4.970199     20.44981     319.2074         5     0.659     0.363  49.71   0
        34    439.9079    928.1520 300.0124395 +22.7809104     529.0167     72.50199      1.762     6.28     4.838355     20.44981     42.50698         9     1.187     0.933  24.23   0
        35    953.9125    919.9896 300.1752696 +22.9326712     2174.104     72.42812      2.106     5.59      5.11073     20.44981     102.5241        30     1.478     1.379   8.05   0
        36    604.3141    917.3856 300.0671342 +22.8271291     325.7955     72.42812      1.432     4.15     4.887098     20.44981     34.98821         6     1.074     0.457 -85.23   0
        37    452.2505    915.3826 300.0204340 +22.7809491     359.8999     72.48353      1.678     4.64     4.834493     20.44981      35.7296         5     0.821     0.745 -64.47   0
        38    742.5117    908.9556 300.1129368 +22.8661434     826.9147     72.48353      2.154     8.11     4.894666     20.44981     57.07273        17     1.488     1.236  70.53   0
        39    197.9188    984.9831 299.9186726 +22.7245983      671.472     72.48353      3.221     5.52     68.03573     20.44981     42.57372         8     1.286     0.667 -67.73   1
        40    777.5126    903.1790 300.1257255 +22.8749768     1069.943     72.40964      1.887     5.26     4.951107     20.44981     63.63511        21     1.306     1.229 -75.20   0
        41    554.9564    903.9164 300.0561411 +22.8084625      359.702     72.44659      1.705     4.41     4.914932     20.44981     39.80715         8     1.315     0.421 -30.08   0
        42      6.4300   1008.1293 299.8516287 +22.6737454     2833.513     72.48353     14.088    47.92    -22.77383     20.44981     80.92848       603    11.671     5.459 -88.65  26
        43    799.7898    896.7311 300.1347672 +22.8798028     11464.41     72.46507      1.845     4.09     4.993675     20.44981     684.5167        58     1.501     1.478  42.52   0
        44    845.0945    897.4139 300.1486710 +22.8935775     451.3533     72.40964      2.118     5.20     4.995387     20.44981     31.11069         8     1.555     0.490   1.78   0
        45    233.5983    895.7424 299.9587892 +22.7097168     885.3981     72.42812      4.932     4.84     9.811763     20.44981     32.10275         5     1.069     0.620  29.19   0
        46    111.3323    888.3889 299.9231668 +22.6709155     1073.794     72.50199      5.710     7.78     10.10898     20.44981     52.89842        19     1.435     1.179 -56.47   0
        47    167.3751    886.1961 299.9413013 +22.6871064     562.7727     72.44659      4.001     4.35     14.66525     20.44981     28.82762         5     1.162     0.464  82.47   0
        48    505.0393    884.7413 300.0468322 +22.7879899     455.7342     72.48353      1.811     4.60     4.882148     20.44981     48.73838        10     1.223     0.862 -10.20   0
        49    102.2150    879.7211 299.9231511 +22.6656938     743.6313     72.50199      2.896     3.73     8.315357     20.44981     45.71119         5     1.222     0.327 -64.78   2
        50    808.4830    878.9997 300.1432433 +22.8773168     1371.902     72.35417      1.816     4.39     5.018373     20.44981      98.0312        25     1.362     1.159   0.81   0
        51    991.5171    878.7265 300.2004210 +22.9320859      443.174     72.61265      1.829     6.94     5.149784     20.44981     40.85963        10     1.854     0.728 -22.60   0
        52    660.5388    875.9708 300.0981173 +22.8320997     595.4839     72.50199      1.947     5.80     4.892818     20.44981      42.7871        11     1.335     0.878  -0.62   0
        53    846.1367    872.3033 300.1571612 +22.8866787     847.1622     72.57578      2.118     4.85     5.027312     20.44981     52.64236        16     1.256     0.996  28.63   0
        54     17.3084   1022.7249 299.8502606 +22.6811945     1174.873     61.71371      4.143     9.39     -12.5904     20.44981     41.41168        27     2.158     1.139  -9.02  27
        55    894.7572    863.6439 300.1751398 +22.8987617        707.9     72.57578      1.824     7.07     5.060976     20.44981     45.93224        17     1.534     0.914   9.90   0
        56    746.2722    862.4473 300.1292319 +22.8539176      724.735     72.46507      1.803     7.22      4.90608     20.44981     45.09992        17     1.314     1.109  55.74   0
        57    758.0418    859.4619 300.1338712 +22.8565882      701.811     72.46507      1.798     5.87     4.932103     20.44981     48.07874        15     1.274     0.984 -43.04   0
        58    458.7946    858.8484 300.0408533 +22.7666906     4043.584     72.46507      1.704     3.65     4.907334     20.44981     329.3385        34     1.346     1.239  21.94   0
        59    120.1460    847.9268 299.9390607 +22.6619590     433.1519     72.46507      1.702     5.16     6.931321     20.44981     39.98773         8     1.568     0.480 -20.16   0
        60    502.8526    847.1400 300.0583765 +22.7765435     404.0613     72.53889      1.678     4.51     4.907408     20.44981     37.24071         8     0.793     0.730  52.34   0
        61    183.9600    844.7209 299.9599414 +22.6801895     843.6985     72.46507      1.798     4.71     7.588374     20.44981     72.80611        16     1.375     0.963 -30.18   0
        62    160.9980    841.3198 299.9539079 +22.6723238      1613.04     72.39116      1.926     4.58     7.627171     20.44981     132.8389        27     1.424     1.364  42.95   0
        63    189.0652    980.8062 299.9172784 +22.7207433     1631.401     72.46507      4.065    12.54     65.94994     20.44981     48.80867        39     2.646     1.653  83.67   3
        64    189.8653    976.0000 299.9190904 +22.7196055     1224.952     72.46507      2.713     3.75     61.49486     20.44981     45.33088         5     1.075     0.376  -1.08   3
        65    987.0538    829.1385 300.2151513 +22.9165029     2232.884     72.53889      1.890     4.81     5.133299     20.44981      138.083        29     1.406     1.300  61.39   0
        66    692.8006    829.6870 300.1232178 +22.8284834     536.9814     72.37267      2.202     5.00     4.884282     20.44981     33.73893         9     1.209     0.586 -21.41   0
        67    463.5562    827.5657 300.0525054 +22.7591416     336.2294     72.53889      1.996     4.59     4.898244     20.44981     26.44279         5     1.393     0.430  45.29   0
        68    770.8199    822.9355 300.1497294 +22.8499294     640.4884     72.46507      1.666     3.74     4.934459     20.44981      57.6683        12     0.981     0.879  68.24   0
        69    638.7896    816.9205 300.1105388 +22.8086274     4901.046     72.46507      1.649     3.57     4.885831     20.44981     374.9616        42     1.366     1.341  42.94   0
        70    129.4718    818.1645 299.9516339 +22.6562230     366.3681     72.48353      1.304     2.23     5.971519     20.44981     56.83086         5     0.725     0.464 -70.77   0
        71    441.1269    814.1569 300.0498820 +22.7485672     594.4215     72.46507      1.633     4.71     4.911607     20.44981     60.49981        12     1.066     0.998  22.66   0
        72    188.9204    810.6273 299.9725659 +22.6718999      1336.73     72.50199      1.797     4.39     5.856094     20.44981     123.8607        25     1.388     1.181  19.10   0
        73    659.6255    809.5963 300.1194114 +22.8127706     798.2992     72.44659      1.778     4.30     4.885831     20.44981     69.50098        16     1.153     1.082 -23.22   0
        74    208.8681    807.7811 299.9796937 +22.6770686     393.9121     72.48353      1.598     5.78     5.709564     20.44981     43.69733         7     1.241     0.758  84.81   0
        75    814.8713    796.7767 300.1719663 +22.8556181     4298.485     72.52045      1.696     3.75     4.980752     20.44981     295.4283        35     1.366     1.247  37.24   0
        76    223.1776    790.9711 299.9896071 +22.6765400      525.871     72.48353      1.855     5.30     5.388074     20.44981     48.11414        10     1.233     0.933 -24.00   0
        77    531.9744    789.0916 300.0863139 +22.7686151     652.6504     72.42812      1.734     4.51     4.892499     20.44981     58.99462        14     1.227     0.861 -50.34   0
        78    178.2707    786.9848 299.9769388 +22.6619235      996.031     72.48353      1.807     4.01     5.272511     20.44981     101.4954        22     1.301     1.158 -12.90   0
        79    593.6819    782.6451 300.1076278 +22.7852648     546.0395     72.46507      1.610     5.69     4.887443     20.44981     46.99936        11     0.990     0.921  -7.59   0
        80    327.9194    779.1936 300.0260153 +22.7045815     53588.47     72.40964      1.693     3.44     5.196674     20.44981     4462.492        95     1.527     1.417  32.15   0
        81    585.6780    778.5182 300.1064760 +22.7816806      1637.82     72.59422      1.700     3.52     4.889274     20.44981     137.5299        23     1.275     1.104 -10.43   0
        82    999.1379    777.7621 300.2356229 +22.9053612     921.5828     72.50199      1.910     7.40     5.128651     20.44981     68.04454        19     1.517     1.014  -0.38   0
        83    255.9209    777.1391 300.0042858 +22.6823951     502.9504     72.55734      1.655     5.02     5.309647     20.44981     44.06462         9     0.961     0.741 -65.93   0
        84    614.6232    774.4362 300.1168191 +22.7891858     941.0909     72.50199      1.723     4.28     4.886352     20.44981     70.54444        19     1.177     1.144 -18.53   0
        85     14.3435    773.6869 299.9303101 +22.6089186     864.3137     72.57578      1.955     3.96     5.285684     20.44981     84.92509        16     1.256     1.054  15.31   0
        86    625.5956    772.7604 300.1207820 +22.7919938     716.8601     72.50199      1.822     5.63     4.888983     20.44981     56.01128        13     1.109     0.876 -26.72   0
        87    731.2389    769.2404 300.1548452 +22.8226471     548.4944     72.55734      1.669     4.80     4.879146     20.44981     44.15338        12     1.089     0.865 -26.97   0
        88    768.5728    759.2307 300.1697355 +22.8309605     771.6979     72.48353      1.608     4.34     4.984966     20.44981     76.31366        17     1.269     0.943 -86.56   0
        89    377.6146    756.4377 300.0488738 +22.7129564     31547.14     72.48353      1.667     3.36     5.042758     20.44981     2879.777        71     1.415     1.356  25.87   0
        90    900.8672    752.4634 300.2131871 +22.8686548     2835.437     72.53889      1.691     3.60     5.165865     20.44981      229.224        31     1.329     1.231 -43.16   0
        91    388.8022    750.8750 300.0541631 +22.7147152      631.699     72.39116      1.691     4.29     5.013349     20.44981     63.57613        11     1.005     0.815  35.57   0
        92    658.6955    748.5551 300.1389610 +22.7949651     885.9908     72.50199      1.569     3.67     4.906239     20.44981     76.36012        17     1.119     0.978   5.94   0
        93    260.2192    748.1023 300.0150588 +22.6753541     737.9749     72.40964      1.657     3.69     5.156488     20.44981     70.79549        15     1.149     1.006 -24.11   0
        94     64.6567    744.2281 299.9555167 +22.6155701     495.3331     72.48353      1.994     6.18     5.284857     20.44981     44.36241         9     1.543     0.696 -26.12   0
        95    505.7002    743.2296 300.0930371 +22.7475729     994.2184     72.42812      1.651     3.32     4.930803     20.44981     83.59085        18     1.191     0.924  45.19   0
        96    907.0804    740.5055 300.2190112 +22.8670806     463.0264     72.61265      1.719     6.48     5.185173     20.44981     33.22955        13     1.201     0.982 -59.47   0
        97    408.3550    739.5512 300.0639282 +22.7173289     305.8551     72.52045      1.334     4.19     4.967037     20.44981     46.41295         9     1.020     0.643 -89.83   0
        98    391.9204    757.0852 300.0531155 +22.7174325     2102.457     72.63107      1.619     3.20     5.005446     20.44981     188.7674        25     1.207     1.151 -45.68   0
        99    495.2131    748.4205 300.0880849 +22.7459187     502.6322     72.44659      1.655     4.32     4.930835     20.44981     46.46732        11     1.128     0.857 -75.98   0
       100    451.5599    738.0425 300.0778668 +22.7298511     408.3081     72.57578      1.536     5.01     4.945701     20.44981     45.28167        10     1.095     0.650  24.21   0
       101     93.7185    737.5048 299.9667334 +22.6223624     591.2794      72.6495      2.014     4.95     5.281617     20.44981     46.03588         8     1.098     0.814 -74.58   0
       102    884.4822    734.6868 300.2138537 +22.8586390     463.3391     72.61265      1.796     4.40     5.226542     20.44981     36.64707         7     1.233     0.447 -49.24   0
       103    257.8218    732.5301 300.0193731 +22.6701673     540.6602     72.48353      1.613     3.56     5.084616     20.44981     57.71586        11     0.971     0.890  42.39   0
       104    581.1765    723.1658 300.1230620 +22.7644394     430.7406     72.50198      1.649     6.06     4.907636     20.44981     35.44303        10     1.123     0.919 -76.81   0
       105    550.6694    721.2705 300.1141762 +22.7547504     680.1854     72.52045      1.583     3.66     4.926414     20.44981     59.26381        12     1.096     0.738 -25.69   0
       106    460.1495    720.7736 300.0861521 +22.7274698     367.7292     72.50199      1.400     3.55     4.934052     20.44981     47.49337         7     0.874     0.574  39.23   0
       107    967.2029    717.9404 300.2451001 +22.8786060     4455.878     72.46507      1.718     3.57     5.187955     20.44981     325.7891        36     1.336     1.279  -0.78   0
       108    572.7631    718.7458 300.1218776 +22.7606484     1431.585     72.50199      1.506     3.00     4.914822     20.44981     162.5486        19     1.098     1.020   7.01   0
       109    492.3136    718.8283 300.0967980 +22.7365548     415.4248     72.48353      1.736     4.53     4.943815     20.44981     41.76065         7     1.068     0.546 -20.09   0
       110    363.9297    718.5983 300.0569109 +22.6979934     285.3437     72.40964      1.497     4.84     4.994717     20.44981     32.33294         6     0.969     0.684  75.39   0
       111    654.1388    713.7036 300.1488663 +22.7835915      354.788     72.57578      1.408     4.28     4.923438     20.44981     43.81067         7     0.786     0.665  -3.06   0
       112    955.7405    709.2094 300.2443609 +22.8726638     1661.794     72.44659      1.723     4.15     5.242211     20.44981     112.9771        23     1.256     1.131 -19.70   0
       113    318.7399    702.8932 300.0479527 +22.6799344     930.0998     72.57578      1.550     3.44     4.937814     20.44981     98.59164        13     1.012     0.901  15.49   0
       114    781.9673    700.4556 300.1930105 +22.8180919     2509.531     72.50199      1.613     3.28     5.166234     20.44981     226.0335        27     1.216     1.168  49.52   0
       115    986.6732    699.3486 300.2572163 +22.8790946     1688.159     72.50199      1.772     4.46     5.151536     20.44981     132.0448        25     1.382     1.167 -15.89   0
       116      4.5369    690.4877 299.9542956 +22.5821180     838.4094      70.7646      1.935     4.06     5.290303     20.44981     74.17934        19     1.280     1.165 -64.06  16
       117    864.5812    686.2750 300.2233777 +22.8387682     571.9795     72.48353      1.654     4.85      5.46637     20.44981       51.782        13     1.178     0.810  20.29   0
       118    167.4037    686.9236 300.0060728 +22.6299604     579.1061     72.39116      1.601     3.97      4.96987     20.44981     65.31535        10     1.188     0.581 -22.52   0
       119    900.4415    677.4271 300.2374368 +22.8469676       149028     72.52045      1.685     3.40     5.504703     20.44981     12835.83       171     1.539     1.521  32.44   0
       120    663.3026    681.1155 300.1623097 +22.7769790     399.9939      72.6495      1.571     3.80     4.951461     20.44981     40.68439         6     0.758     0.627 -33.67   0
       121    752.7897    677.9971 300.1912117 +22.8028983     726.3201     72.29867      1.448     3.57     5.100382     20.44981     66.74748        11     0.979     0.760 -11.59   0
       122    933.2794    670.3024 300.2499950 +22.8547559     426.6119     72.61265      1.588     4.50     5.497481     20.44981     39.45933         9     1.044     0.829 -31.89   0
       123    586.6287    666.3339 300.1432248 +22.7497551     1667.546     72.48353      1.432     3.02     5.001862     20.44981     180.9597        19     1.142     0.977 -80.25   0
       124    767.9254    663.5422 300.2006259 +22.8032808     9339.146     72.53889      1.498     2.89      5.23266     20.44981     967.3137        41     1.240     1.182  44.40   0
       125    269.4021    658.4678 300.0470364 +22.6523893     4853.537     72.46507      1.630     3.30     4.836264     20.44981     473.9852        34     1.249     1.215  55.22   0
       126    351.3002    656.7033 300.0730890 +22.6764423     1291.763     72.68633      1.733     3.08     4.832306     20.44981     139.9782        20     1.165     1.034   2.01   0
       127    226.9814    654.4608 300.0351440 +22.6385170     510.2674     72.44659      1.747     4.86     4.913349     20.44981      43.3903        10     1.132     0.678 -18.19   0
       128    559.8558    652.1966 300.1394784 +22.7376711     639.7452     72.44659      1.404     3.25     5.180614     20.44981     97.72448        12     0.976     0.938  42.55   0
       129    551.4063    644.2901 300.1394151 +22.7328682     3140.576     72.39116      1.460     2.79     5.284721     20.44981      331.311        29     1.169     1.115 -14.93   0
       130    541.6133    638.0459 300.1383935 +22.7281400       1513.7     72.48353      1.455     4.21     5.364808     20.44981     151.4966        20     1.278     0.924  59.51   0
       131    935.1317    636.1899 300.2616546 +22.8455072      528.573     72.48353      1.598     5.08     5.461894     20.44981     42.67762         9     0.999     0.730   4.00   0
       132    204.7683    634.2673 300.0347951 +22.6260604      641.108     72.48353      1.468     3.20     4.878759     20.44981     71.00008        10     0.934     0.713   3.57   0
       133    219.0472    632.5374 300.0397974 +22.6298465     757.9954     72.50199      1.711     3.12     4.875449     20.44981     81.91001        14     1.061     0.940   4.00   0
       134    276.0118    629.5443 300.0584871 +22.6460712     394.2331     72.46507      1.615     4.53     4.810669     20.44981     34.71471         5     1.041     0.559 -76.22   0
       135    244.7482    629.5477 300.0487616 +22.6366965     562.3486     72.52045      1.657     4.02     4.846024     20.44981     55.89809         9     0.945     0.716  13.74   0
       136    988.9937    629.5987 300.2806007 +22.8597426     377.3457     72.29867      1.588     4.03     5.347736     20.44981     46.09291         6     0.980     0.473  -8.51   0
       137    565.3764    628.4503 300.1489111 +22.7325067     444.5526     72.48353      1.466     3.12     5.427145     20.44981     59.69244        10     0.975     0.785 -85.37   0
       138    466.4022    627.8347 300.1182911 +22.7026638     1753.149     72.44659      1.488     2.84     5.352214     20.44981     197.9628        23     1.242     1.000  31.83   0
       139    499.9677    626.9382 300.1290329 +22.7124678     218.8337     72.50198      1.404     5.07     5.487764     20.44981     36.50423         5     1.118     0.651  73.20   0
       140    120.3467    622.5759 300.0123446 +22.5973840     19779.97     72.50199      1.736     3.37     5.135933     20.44981     2034.182        62     1.470     1.384  30.29   0
       141     41.2891    624.2193 299.9872398 +22.5741388     817.4819     72.42812      1.823     4.80      5.28936     20.44981     71.83598        16     1.376     0.957 -33.84   0
       142    551.6251    623.0778 300.1463732 +22.7268424     1031.241     72.48353      1.432     3.24     5.517177     20.44981     110.9778        14     1.019     0.913 -64.60   0
       143    586.8952    622.4744 300.1575547 +22.7372396     288.3417     72.63108      1.196     3.32     5.427238     20.44981     50.17433         6     0.939     0.497  -3.15   0
       144    305.0760    614.1985 300.0725126 +22.6503823     380.8333     72.37267      1.784     4.94     4.830542     20.44981     33.49551         7     1.030     0.670   0.70   0
       145    969.3356    609.2419 300.2810791 +22.8480048     934.1086     72.46507      1.666     3.83     5.443028     20.44981     98.34042        17     1.185     1.018 -51.69   0
       146     66.2999    606.8484 300.0006536 +22.5766592     1400.071     72.50199      2.040     5.33     5.293756     20.44981     117.1898        28     1.698     1.215 -81.08   0
       147    836.0930    607.4634 300.2400955 +22.8075893     384.6307     72.59422      1.248     3.00     5.544027     20.44981     55.21507         9     0.856     0.713 -73.87   0
       148    133.0079    607.5062 300.0211746 +22.5968582     497.0668     72.39116      1.456     3.77     5.034743     20.44981     46.52404         6     0.827     0.493   6.97   0
       149    514.5668    603.6771 300.1411337 +22.7101644     444.0604     72.48353      1.588     3.23     5.697552     20.44981     47.71371         8     0.893     0.817  12.32   0
       150    909.0409    602.0791 300.2645953 +22.8278900     880.3093     72.46507      1.919     6.08     5.459823     20.44981     61.60796        17     1.503     0.890   8.28   0
       151    307.5068    602.7317 300.0769928 +22.6478199     340.6931     72.61265      1.291     3.33     4.850963     20.44981     39.73043         5     0.742     0.434 -65.71   0
       152    654.4055    600.4603 300.1857366 +22.7511471     305.5147     72.44659      1.473     4.05     5.588879     20.44981     38.41858         5     0.962     0.489   6.80   0
       153    471.2425    595.8970 300.1301707 +22.6949447     851.6608     72.48353      1.591     3.71     5.603459     20.44981     97.00697        16     1.169     0.972  70.36   0
       154    619.6218    594.8096 300.1767345 +22.7391013     523.7346     72.48353      1.423     3.31     5.556712     20.44981     61.77235         9     0.867     0.740  17.92   0
       155    666.4732    593.1236 300.1918795 +22.7526555     507.5284     72.55734      1.415     3.74      5.61733     20.44981     55.46961        11     1.050     0.723 -33.50   0
       156    637.1185    592.7328 300.1828600 +22.7437476     611.9032     72.59422      1.361     3.36     5.584237     20.44981     73.00782        13     1.053     0.810  12.18   0
       157    515.7233    592.0056 300.1452843 +22.7071594      845.768     72.39116      1.494     3.10     5.697552     20.44981     82.86653        14     1.031     0.838 -71.56   0
       158    702.4869    591.2329 300.2037163 +22.7629024     229.9549     72.44659      1.065     2.42     5.615652     20.44981     43.97847         5     0.711     0.467 -70.66   0
       159    949.4760    587.3636 300.2819887 +22.8357693     3447.994     72.44659      1.668     3.36     5.436327     20.44981     329.2334        30     1.242     1.197 -73.26   0
       160    481.2281    587.2916 300.1360743 +22.6954668     1703.154     72.46507      1.417     2.77     5.697552     20.44981      177.534        19     1.048     0.959  11.66   0
       161     43.1881    580.6943 300.0019642 +22.5622230      5001.31     72.42812      1.800     3.38     5.388602     20.44981     529.6132        43     1.493     1.341  39.20   0
       162    510.7127    577.9312 300.1482946 +22.7016160     305.1239     72.61265      1.303     3.16     5.697552     20.44981     45.61724         7     0.840     0.662  30.64   0
       163    988.8790    577.4855 300.2974910 +22.8447282      190.668     72.61265      1.263     4.22     5.442142     20.44981     34.87672         6     1.035     0.490  -6.11   0
       164    602.1440    575.5757 300.1775359 +22.7283396     298.4817     72.48353      1.657     3.81     5.639269     20.44981     37.10892         5     1.024     0.632 -62.89   0
       165    344.6187    573.9705 300.0978795 +22.6506912     9186.993     72.48353      1.500     2.95     5.106775     20.44981     1048.192        49     1.316     1.229  42.01   0
       166    467.0984    571.0930 300.1369354 +22.6865804     8882.862     72.66792      1.435     2.85     5.598051     20.44981     905.5989        37     1.195     1.157  41.57   0
       167    878.8196    565.0583 300.2671920 +22.8081995     1883.373     72.46507      1.517     3.11     5.397752     20.44981     175.1722        26     1.282     1.071  73.79   0
       168    963.4053    562.5390 300.2943965 +22.8328043     12674.37     72.44659      1.643     3.20     5.433475     20.44981     1194.302        53     1.367     1.325  64.19   0
       169    527.7049    560.6565 300.1591955 +22.7017476     11634.86     72.53889      1.450     2.66     5.697552     20.44981     1431.976        44     1.224     1.173  66.11   0
       170    254.9958    556.0512 300.0758161 +22.6186763       1348.3     72.48353      1.479     3.30     4.790641     20.44981     163.0897        18     1.084     0.977  30.54   0
       171    697.4176    556.3992 300.2134484 +22.7513763     435.1776     72.39116      1.220     3.34     5.634394     20.44981     54.75797         9     0.984     0.635   6.11   0
       172    413.2774    555.1719 300.1253509 +22.6658765     239.7613     72.48353      1.240     4.62     5.332321     20.44981     37.19085         7     1.038     0.582 -12.35   0
       173    501.8940    554.0732 300.1532957 +22.6921216     461.4009     72.61265      1.582     3.33     5.697552     20.44981       55.423         8     1.019     0.499 -30.27   0
       174    459.3399    548.7839 300.1417639 +22.6778489     4413.833     72.44659      1.452     2.75     5.585762     20.44981      514.421        29     1.146     1.106  83.27   0
       175    802.3235    548.8008 300.2486166 +22.7806172     728.7476     72.37267      1.396     3.21     5.345168     20.44981     95.25358        12     0.984     0.854 -31.88   0
       176    437.6470    547.1941 300.1355269 +22.6708904     1256.026     72.46507      1.474     3.29     5.486972     20.44981     127.0595        19     1.229     0.959  44.46   0
       177    192.0922    546.4691 300.0593642 +22.5970638     744.7672     72.61265      1.459     3.65     4.808314     20.44981     81.36303        14     1.108     0.940 -27.93   0
       178    879.1703    544.4952 300.2739787 +22.8023944     1573.964     72.40964      1.606     3.37     5.347777     20.44981     143.3792        24     1.265     1.099 -18.87   0
       179    125.9401    544.0287 300.0395890 +22.5765247     336.1494     72.50198      1.565     4.34     5.104222     20.44981     34.40887         7     0.865     0.670 -37.15   0
       180    575.9938    536.3984 300.1821115 +22.7092508     204383.4     72.29867      1.447     2.66     5.742443     20.44981     23454.71       195     1.480     1.398  -4.27   0
       181    399.7762    542.2253 300.1253523 +22.6581123     323.6808     72.44659      1.480     5.04     5.381072     20.44981     43.40783         7     1.167     0.615  86.11   0
       182    759.6040    541.2643 300.2377456 +22.7656560     748.7092     72.48353      1.264     2.75     5.499236     20.44981      96.4247        12     0.929     0.809  -2.85   0
       183    262.0841    536.2539 300.0844486 +22.6151192     3411.325     72.53889      1.468     2.93     4.852492     20.44981     332.0129        27     1.184     1.094  17.68   0
       184    827.9860    532.5220 300.2619041 +22.7836248     463.0665     72.50199      1.277     4.55     5.329419     20.44981     53.65137        11     1.111     0.877 -34.07   0
       185    466.6099    516.5602 300.1544893 +22.6707741     2676.561     72.48353      1.486     2.68     5.626208     20.44981     332.8755        22     1.134     0.981  61.42   2
       186    311.1645    519.1053 300.1052842 +22.6249112     435.3756     72.48353      1.373     2.58     5.161339     20.44981      58.8074         8     0.791     0.655 -52.11   0
       187    878.4028    513.5264 300.2837945 +22.7932631     377.0614     72.39116      1.481     3.98     5.338348     20.44981     45.80827         7     0.998     0.581  23.24   0
       188    697.3259    512.5123 300.2276693 +22.7387395     209.0601     72.63108      1.192     4.76     5.759603     20.44981     39.05128         6     0.981     0.654  65.15   0
       189    784.0381    505.3243 300.2570317 +22.7626464     490.5089     72.44659      1.520     4.68     5.429025     20.44981     49.33512         9     1.067     0.722 -61.46   0
       190    863.6226    503.0124 300.2825982 +22.7858151     1710.737     72.46507      1.498     2.88     5.329419     20.44981     177.2013        21     1.180     1.020  21.98   0
       191    750.0407    503.4377 300.2470457 +22.7519218     441.1768     72.55734      1.789     3.29     5.633102     20.44981     51.31115         5     0.975     0.423 -65.04   0
       192    734.8065    500.6154 300.2432133 +22.7465478     2599.993     72.39116      1.404     2.40     5.721016     20.44981     356.2149        27     1.133     1.067 -15.81   0
       193    978.1554    495.1599 300.3208763 +22.8178496     1099.043     72.55734      2.308     7.94     5.313918     20.44981     99.39205        20     2.197     0.822  74.17   0
       194    639.8651    497.3950 300.2146717 +22.7171827     366.9642     72.46507      1.599     5.28     5.858869     20.44981     38.74626        10     1.047     0.779  -0.03   0
       195    944.3711    497.4609 300.3095883 +22.8083968     350.5273     72.50199      1.543     4.02     5.340962     20.44981     45.78946         6     1.077     0.429 -34.89   0
       196    522.1787    496.3823 300.1783424 +22.6816313     661.9432     72.46507      1.398     3.59     5.685937     20.44981     81.41029        15     1.174     0.878  28.31   0
       197    992.3130    494.7386 300.3254308 +22.8219668     1200.737     72.57578      1.499     3.03      5.30416     20.44981     146.7939        19     1.098     1.010  89.90   0
       198    863.8262    492.9794 300.2859189 +22.7829922     2382.891     72.46507      1.788     3.88     5.329419     20.44981     245.2611        34     1.749     1.081  72.52   0
       199    902.0359    488.1478 300.2994050 +22.7930442     4311.512     72.50199      1.478     2.89      5.33481     20.44981     443.9374        32     1.277     1.144  81.80   0
       200    617.2670    491.1767 300.2096498 +22.7086262     545.0096     72.46507      1.229     4.81     5.858749     20.44981     85.33627        12     1.329     0.697  27.83   2
       201    617.1978    487.0623 300.2109639 +22.7074234     395.3401     72.48353      1.425     3.84     5.865714     20.44981     39.89671         8     0.976     0.668  79.20   3
       202    402.9148    490.8788 300.1429986 +22.6443093     304.1737     72.61265      1.321     4.48     5.469012     20.44981     43.04087         8     0.840     0.680 -44.60   0
       203    455.5697    489.6669 300.1597826 +22.6597421     378.9317     72.46507      1.243     4.39     5.589424     20.44981      48.6885         6     1.200     0.456  43.46   0
       204    543.2216    488.4532 300.1874696 +22.6856591     267.4913     72.48353      1.311     4.26     5.696377     20.44981     40.86497         5     0.871     0.593  44.49   0
       205    562.8204    484.0230 300.1950118 +22.6902588     415.5424     72.48353      1.394     2.74     5.744016     20.44981      61.0272         7     0.874     0.590  15.49   0
       206    993.4779    478.4259 300.3310899 +22.8176251     723.1492     72.48353      1.765     5.08     5.264385     20.44981     72.13737        14     1.294     1.005  76.12   0
       207    133.9869    478.2331 300.0634492 +22.5600563     1154.656     72.46507      1.664     3.75     5.505215     20.44981     101.7031        22     1.351     1.038   6.40   0
       208    794.9193    472.0891 300.2712132 +22.7563532     341.9313     72.61265      1.325     2.31     5.353795     20.44981     52.31729         5     0.616     0.567  82.91   0
       209    126.5145    468.3293 300.0643407 +22.5549732     535.4926     72.59422      1.626     3.34     5.544056     20.44981     49.09678         9     0.975     0.660   8.46   0
       210    734.2146    462.6590 300.2553500 +22.7354629     384.5899     72.46507      1.450     4.00     5.763473     20.44981     56.96428         7     0.982     0.607  44.84   0
       211    623.0413    460.5034 300.2214054 +22.7015435     321.0105     72.50199      1.433     3.01       5.8322     20.44981     38.10696         6     0.773     0.497  -5.43   0
       212    342.4678    460.3411 300.1340992 +22.6174229     306.9976     72.52045      1.640     5.50     5.521039     20.44981     32.94313         8     1.166     0.732  23.67   0
       213    675.6436    458.7043 300.2383795 +22.7167835     803.8613     72.50199      1.337     2.82     5.878451     20.44981     98.91963        12     0.972     0.811 -80.24   0
       214    736.3837    451.0277 300.2598015 +22.7327698     900.3233     72.50199      1.482     2.77     5.745127     20.44981     94.67982        14     0.939     0.905  -4.68   0
       215    989.9926    451.2056 300.3388382 +22.8087547     616.4535     72.33568      1.469     3.91     5.267821     20.44981     71.77795         9     1.012     0.744   7.76   0
       216    893.5139    447.1790 300.3100455 +22.7787148     968.8694     72.40964      1.396     2.81     5.358435     20.44981     114.1767        15     1.094     0.868  54.76   0
       217    877.6121    443.5166 300.3062744 +22.7729010     584.2058     72.44659      1.423     3.58     5.370767     20.44981     76.90685        11     0.972     0.789  33.93   0
       218    858.1898    443.8294 300.3001154 +22.7671758     410.2066     72.48353      1.486     4.35     5.365039     20.44981     39.52051         7     0.830     0.767 -45.30   0
       219    622.0342    441.3659 300.2273031 +22.6957431     3290.814     72.52045      1.353     2.55     5.780175     20.44981     403.2965        25     1.093     1.035  49.58   0
       220    982.6196    440.1880 300.3401136 +22.8033796     558.2305     72.44659      1.404     4.36     5.276313     20.44981     70.42854         9     0.945     0.866 -79.31   0
       221    393.7991    428.9967 300.1602463 +22.6238063     229.5057     72.26164      1.269     3.87     5.537183     20.44981      33.0817         5     0.845     0.507  40.45   0
       222    462.0179    428.2982 300.1817085 +22.6440483     359.8182     72.40964      1.368     2.64     5.510562     20.44981     55.43774         7     0.823     0.629  60.87   0
       223    429.8155    423.9215 300.1731040 +22.6331418     1351.085     72.50199      0.495     2.01     5.494319     20.44981     1033.444         5     0.400     0.314  23.52   0
       224    905.3359    420.3141 300.3224523 +22.7745302     512.3154     72.57578      1.438     3.36     5.370401     20.44981     61.08466        13     1.051     0.885 -83.94   0
       225    991.9125    419.3250 300.3497847 +22.8001617     961.2192     72.61265      1.451     3.21     5.265668     20.44981     104.4729        17     1.135     0.919 -43.33   0
       226    641.5062    417.4178 300.2411419 +22.6946945     189.3712     72.40964      1.441     5.10     5.742088     20.44981     30.81503         6     0.960     0.766 -81.55   0
       227    732.7003    415.3329 300.2702381 +22.7214079      1141.71     72.57578      1.476     2.72     5.713737     20.44981     129.4998        17     1.028     0.936  44.33   0
       228    528.4459    415.9568 300.2063978 +22.6604062     542.4832     72.52045      1.551     3.16     5.595283     20.44981     60.58426         7     0.937     0.597 -71.54   0
       229    236.6573    413.3363 300.1164363 +22.5722100      700.686     72.53889      1.641     4.28     5.472325     20.44981     83.27116        13     1.201     0.956 -77.95   0
       230    298.9702    409.0829 300.1372001 +22.5896669     3641.276     72.50198      1.450     2.89     5.672071     20.44981     376.5787        26     1.212     1.026  36.28   0
       231    246.1923    403.8193 300.1224902 +22.5723358     7680.788     72.44659      1.521     2.87     5.545194     20.44981     853.5117        40     1.297     1.176  49.23   0
       232    625.1740    403.6051 300.2405358 +22.6858334     339.9785     72.46507      1.061     2.62     5.751897     20.44981     46.80965         5     0.726     0.442 -21.30   0
       233   1012.0101    398.8251 300.3627092 +22.8002814     2020.521     72.48353      1.670     3.09     5.251853     20.44981     200.9305        29     1.313     1.180  80.73   0
       234    386.9763    398.0680 300.1681593 +22.6128789      4886.47     72.46507      1.423     2.82     5.796711     20.44981     530.7974        33     1.240     1.097  56.95   0
       235    631.2549    394.9124 300.2452511 +22.6851568     18777.34     72.52045      1.391     2.57      5.77672     20.44981     2309.487        54     1.253     1.153  67.77   0
       236    479.0165    396.2731 300.1973934 +22.6399423     333.6074     72.48353      1.375     3.75     5.565053     20.44981     36.37675         5     0.806     0.500 -54.80   0
       237    648.7439    395.0479 300.2506563 +22.6904339     925.2515     72.52045      2.006     6.75     5.790281     20.44981      66.6009        16     1.524     0.839 -40.48   0
       238      7.3853    391.7779 300.0521575 +22.4972798     241.4322     72.48353      1.724     3.73     6.412745     20.44981     29.66032         5     0.988     0.405   6.08   0
       239    828.2267    385.4174 300.3097278 +22.7414122     402.5111     72.50199      1.308     2.64     5.550359     20.44981     54.79333         7     0.787     0.613 -29.48   0
       240    251.4077    382.2058 300.1311253 +22.5676933     456.1462     72.33568      1.604     2.52     5.666409     20.44981      56.6076         6     0.719     0.609 -25.60   0
       241    964.8570    377.6248 300.3548747 +22.7800716     749.8302     72.48353      1.469     3.80     5.386829     20.44981     75.95882        16     1.194     0.995 -36.19   0
       242    501.9332    376.8489 300.2108316 +22.6412279     331.2787     72.48353      1.237     3.07     5.668664     20.44981     45.42362         6     0.897     0.449 -38.90   0
       243    185.8172    374.9424 300.1130830 +22.5459467     1947.695     72.46507      1.552     3.04     5.686034     20.44981     205.6938        26     1.212     1.109  -9.36   0
       244    985.3260    364.8828 300.3653961 +22.7825333     1197.187     72.59422      1.490     2.81     5.355568     20.44981     134.0502        17     1.039     0.968   4.75   0
       245    571.9216    364.3484 300.2366844 +22.6586021     6781.146     72.48353      1.371     2.51     5.823714     20.44981     817.4844        37     1.180     1.121  44.66   0
       246    286.7668    363.7990 300.1480965 +22.5730057     710.3463     72.44659      1.455     3.22     5.849792     20.44981     84.46931        12     0.961     0.852 -70.23   0
       247    144.4033    356.9431 300.1060455 +22.5283643     478.6894     72.44659      1.489     4.06     5.842188     20.44981     64.84976        11     1.082     0.815 -24.29   0
       248    685.7217    354.3602 300.2753809 +22.6898146     559.1625     72.46507      1.514     4.44     5.865315     20.44981     66.85019        10     1.140     0.649  60.57   0
       249    776.2770    353.4820 300.3038920 +22.7166774     1155.187     72.59422      1.417     2.78     5.837008     20.44981     131.0195        15     0.975     0.901 -53.11   0
       250    478.5351    350.5444 300.2120803 +22.6266610      6243.64     72.53889      1.395     2.50     5.735927     20.44981     822.1318        35     1.192     1.064  63.86   0
       251    968.1496    345.5088 300.3663225 +22.7718206     605.8029     72.50199      1.417     2.56     5.477147     20.44981     68.04849         8     0.759     0.684  87.32   0
       252    870.5082    345.1733 300.3359714 +22.7424989     1361.712     72.42812      1.409     2.96     5.784213     20.44981     139.7055        18     1.124     0.908  63.54   0
       253    463.0336    339.1829 300.2109398 +22.6187528     462.2512     72.46507      1.295     4.05      5.96995     20.44981     70.30456        10     1.208     0.583  43.20   0
       254    546.1081    337.5760 300.2373301 +22.6431770     458.3191     72.40964      1.313     2.72     5.874295     20.44981     71.88208         8     0.875     0.611  11.08   0
       255    824.2441    336.1992 300.3244550 +22.7260692     282.0492     72.48353      1.413     4.12     5.813553     20.44981     34.61832         6     0.753     0.644 -12.11   0
       256    526.7568    335.3300 300.2320319 +22.6367351     268.1449     72.44659      1.237     3.02     5.876627     20.44981       38.083         5     0.736     0.446 -14.74   0
       257    843.1885    332.9518 300.3314162 +22.7308066     455.5866     72.50199      1.334     2.86     5.810527     20.44981      64.5663         8     1.007     0.573 -28.65   0
       258    366.0977    329.6994 300.1838428 +22.5869854     2584.424     72.70474      1.406     2.72      6.36428     20.44981     295.5732        26     1.167     1.055  59.25   0
       259     84.3638    326.8398 300.0971467 +22.5017229     1066.356     72.55734      1.702     4.21     6.178128     20.44981     87.90992        19     1.243     1.030  49.35   0
       260    335.4029    319.1459 300.1777143 +22.5747566     30204.49     72.44659      1.452     2.67     6.300827     20.44981     3214.961        69     1.368     1.218  55.77   0
       261    870.1305    316.8764 300.3450336 +22.7342489     1304.256     72.57578      1.398     2.79     5.802638     20.44981     165.6989        20     1.089     1.020  69.84   0
       262     31.6992    306.8967 300.0872477 +22.4802087     5006.205     72.68633      1.688     3.26     6.560099     20.44981     485.8796        38     1.435     1.249  50.62   0
       263    785.4835    305.8782 300.3222055 +22.7057476     512.1633     72.59422      1.343     3.10     5.820237     20.44981     78.17113         8     0.906     0.660 -55.05   0
       264    209.7572    305.5517 300.1430377 +22.5331986     455.0278     72.50199      1.430     3.42     5.900398     20.44981     43.82106         5     1.012     0.335 -22.64   0
       265    433.9585    304.5756 300.2131142 +22.6000999     400.9785     72.53889      1.040     2.48     6.303418     20.44981     71.52717         6     0.753     0.488  -7.69   0
       266    745.9177    298.9868 300.3121062 +22.6919210     2029.275     72.46507      1.494     3.05     5.821084     20.44981     201.1225        23     1.124     1.060  47.56   0
       267    845.0779    298.3606 300.3432266 +22.7214255     1083.824     72.46507      0.606     0.81     5.816256     20.44981     553.8613         5     0.496     0.327  70.71   0
       268    554.2568    293.5016 300.2541649 +22.6329523     363.2449     72.57578      1.368     2.83      5.93102     20.44981     53.06296         7     0.903     0.513  57.94   0
       269    961.0251    292.1798 300.3813997 +22.7543498      617.427     72.48353      1.374     3.66     5.822262     20.44981     76.24838         9     0.921     0.718 -16.69   0
       270    407.6709    283.6026 300.2117338 +22.5861990     2179.796     72.42812      1.599     3.43      6.37184     20.44981     219.4486        25     1.334     0.981  53.04   0
       271    620.1550    282.5558 300.2782430 +22.6495415     371.6181     72.52045      1.534     4.09     5.838751     20.44981     37.49717         7     0.993     0.482   7.99   0
       272    839.4201    277.7077 300.3481611 +22.7137929     255.5924     72.40964      1.249     3.28     5.817028     20.44981     33.78185         5     0.716     0.471 -74.03   0
       273    846.9179    276.7023 300.3508254 +22.7157480     567.9413     72.63108      1.304     3.00     5.816957     20.44981     65.94146        10     0.878     0.733  69.05   0
       274    729.0081    274.2881 300.3148462 +22.6797576     402.8813     72.39116      1.315     4.30     5.809165     20.44981     46.75431         9     1.028     0.659  88.88   0
       275    697.4559    273.6237 300.3052275 +22.6701201     435.4545     72.50199      1.778     3.72     5.792929     20.44981     43.83041         6     1.010     0.576  34.56   0
       276    483.5089    263.0005 300.2420251 +22.6029971     1212.008     72.35417      1.356     2.37     6.323614     20.44981     152.1646        16     1.018     0.850  21.91   0
       277    994.7769    259.4994 300.4025312 +22.7550486     339.7104     72.42812      1.349     4.32     5.864164     20.44981     46.70626         7     0.985     0.539  50.27   0
       278    866.6271    256.1357 300.3636425 +22.7157322      258.377     72.46507      1.536     3.44     5.815524     20.44981     36.29556         5     0.868     0.483 -88.80   0
       279    728.5029    254.9515 300.3209600 +22.6740469     2178.887     72.52045      1.390     2.50     5.809165     20.44981     277.9077        22     1.083     0.987 -20.03   0
       280    989.6520    249.4292 300.4041979 +22.7506182     3256.044     72.50199      1.523     2.69     5.860653     20.44981     371.6264        29     1.202     1.171 -26.16   0
       281    436.6118    239.1625 300.2351546 +22.5821001     594.6421     72.46507      1.436     5.77     6.368213     20.44981      70.4738        13     1.347     0.722 -26.80   0
       282    111.5258    232.7961 300.1360888 +22.4828649     1391.007     72.39116      1.672     3.42     6.488737     20.44981     146.9916        21     1.197     1.132  22.40   0
       283    142.1989    232.7295 300.1456463 +22.4920390      641.917     72.40964      1.511     4.52     6.347924     20.44981     77.61782        14     1.309     0.880  38.71   0
       284   1005.2241    229.9260 300.4153823 +22.7496663     432.7271     72.53889      1.317     3.18     5.871186     20.44981     64.17307        11     0.933     0.812  68.92   0
       285    849.4331    226.8098 300.3677903 +22.7021520     295.3075     72.46507      1.420     4.33     5.813368     20.44981     27.89764         5     0.913     0.584  43.60   0
       286    195.6612    224.7752 300.1648492 +22.5057768     526.7083     72.48353      1.644     3.17     6.248386     20.44981     77.36093         9     0.980     0.751  40.78   0
       287    990.1698    222.3477 300.4131418 +22.7429819     413.0455     72.50199      1.839     4.47     5.860745     20.44981     39.66873         5     0.791     0.718 -18.97   0
       288     51.2388    221.8757 300.1208908 +22.4616589     268.1354     72.44659      1.304     2.97     6.611615     20.44981     40.96387         5     0.704     0.686  89.45   0
       289    871.4731    219.0717 300.3771734 +22.7065223     233.7027     72.53889      1.053     2.90     5.814024     20.44981     49.02697         6     0.952     0.449  31.01   0
       290    800.1719    216.2747 300.3558451 +22.6843786     557.9354     72.50199      1.345     3.21     5.814022     20.44981     81.80523        12     1.049     0.779  56.07   0
       291    390.6874    215.9111 300.2283987 +22.5616627      477.629      72.6495      1.566     3.99       6.3566     20.44981       58.631         9     1.025     0.878  20.41   0
       292    898.2000    205.3677 300.3899535 +22.7105785      2121.99     72.42812      1.435     2.69     5.822355     20.44981     253.2469        24     1.223     1.012 -87.14   0
       293    316.6944    202.6212 300.2096812 +22.5356784     1996.622     72.40964      1.388     2.51     6.322006     20.44981     282.3102        19     1.078     0.919  68.55   0
       294    796.6511    197.0332 300.3609863 +22.6777911     569.4368     72.50199      1.358     3.17     5.823141     20.44981     77.54967         8     0.842     0.690  71.22   0
       295    903.8642    194.2876 300.3953130 +22.7090861     330.3032     72.59422      1.560     4.61     5.828411     20.44981     38.32328         7     1.080     0.651 -38.19   0
       296    394.5503    197.6393 300.2355251 +22.5575697     1199.625     72.48353      1.760     3.26      6.38587     20.44981     100.8141        18     1.084     1.040 -85.21   0
       297    211.6016    189.8221 300.1811389 +22.5005144     744.1824     72.40964      1.465     3.64     6.333865     20.44981     103.1042        12     1.124     0.857  52.94   0
       298    749.3719    186.8662 300.3495425 +22.6607163     1563.162     72.46507      1.346     2.71     5.988179     20.44981     211.3546        18     1.036     0.960 -70.80   0
       299    814.1033    186.4618 300.3698555 +22.6799740     586.1434     72.57578      1.418     2.63     5.813225     20.44981     80.48463         9     0.878     0.708  49.78   0
       300    232.8189    183.4707 300.1897969 +22.5050474     479.2204     72.52045      1.562     4.33     6.329323     20.44981     67.21284         9     1.274     0.539 -27.27   0
       301   1020.8218    179.5794 300.4365750 +22.7398465     874.7711     69.56301      1.424     3.63     5.869512     20.44981     96.44965        14     1.150     0.860 -46.03  16
       302    753.4916    178.1100 300.3536656 +22.6594313     976.1696      72.6495      1.669     3.39      6.01297     20.44981     91.70492        15     1.124     0.894  78.34   0
       303    522.9130    179.3427 300.2814214 +22.5907553     322.6765     72.55734      1.164     3.72     6.458173     20.44981     48.16122         7     0.848     0.606  23.92   0
       304    673.7665    177.5573 300.3289956 +22.6354080     1151.566     72.53889      1.321     2.34      5.78542     20.44981     175.9104        16     0.977     0.892  25.20   0
       305    495.4162    174.1615 300.2745383 +22.5810319      323.318     72.50199      1.449     2.47     6.483175     20.44981     45.97333         5     0.712     0.450  68.60   0
       306    869.3231    169.1097 300.3927019 +22.6915076     1402.765     72.63108      1.453     3.04     5.815807     20.44981     138.8141        18     1.062     0.958 -84.82   0
       307    600.1331    169.3139 300.3087252 +22.6109938     1050.451     72.59422      1.384     2.67      5.88638     20.44981     110.4876        13     0.942     0.810 -57.76   0
       308    927.6296    167.3690 300.4114541 +22.7084530      342.687     72.48353      1.770     4.95     5.855184     20.44981     35.33019         8     1.055     0.657  51.89   0
       309    881.4177    168.2569 300.3967507 +22.6948814      843.318     72.44659      1.504     3.15     5.823717     20.44981     87.32433        12     1.061     0.735  -5.48   0
       310    998.0818    158.6909 300.4362502 +22.7270333     1213.855     72.59422      1.498     3.10     5.881571     20.44981     133.4767        17     1.044     0.961  41.11   0
       311     21.7408    155.1054 300.1333692 +22.4336458     647.2737     72.55734      1.748     3.87      6.37752     20.44981      57.6426        11     1.003     0.851 -47.68   0
       312    231.8347    151.2049 300.1999501 +22.4954838     585.7684     72.48353      1.469     4.71      6.38737     20.44981     67.20369        15     1.271     0.954 -60.17   0
       313     93.9103    145.9137 300.1587787 +22.4526359     2194.869      72.6495      1.634     3.39     6.597338     20.44981     203.2575        29     1.401     1.183  62.76   0
       314    916.9761    143.2982 300.4159338 +22.6983403     837.9341     72.40964      1.635     3.43      5.85351     20.44981     90.77281        13     1.121     0.824  72.11   0
       315     43.8370    143.0612 300.1441398 +22.4368100     550.4882     72.50199      1.559     2.50     6.445138     20.44981     63.20505         9     0.788     0.722 -27.49   0
       316    251.4514    139.3717 300.2098873 +22.4979615     5695.047     72.50199      1.548     2.70     6.387767     20.44981     625.4791        37     1.270     1.185  77.32   0
       317    233.4424    140.8158 300.2038175 +22.4929810     364.5641     72.50199      1.413     4.33     6.388192     20.44981     38.87266         7     0.883     0.605   9.20   0
       318     35.4326    133.6227 300.1445870 +22.4315808     1293.455     72.48353      1.815     4.43     6.417931     20.44981     149.4651        21     1.371     1.101  29.64   0
       319    234.7588    130.1043 300.2076988 +22.4902982     596.7557     72.48353      1.503     4.45     6.389019     20.44981     70.92783        11     1.170     0.773  48.11   0
       320    895.5976    121.1829 300.4164334 +22.6855814     3455.269     72.39116      1.461     2.79     5.850782     20.44981     375.0611        31     1.211     1.157 -60.89   0
       321    999.2447    119.9620 300.4491674 +22.7162365     2686.856     72.53889      1.513     3.10      6.24943     20.44981     276.8118        28     1.214     1.141  18.76   0
       322    444.9261    116.3125 300.2775692 +22.5492850     636.7029     72.63108      1.296     3.15     6.515736     20.44981     83.21607        11     0.970     0.823  49.81   0
       323    198.0497    116.7680 300.2006040 +22.4754690     294.6353     72.52045      1.510     4.49     6.445126     20.44981     41.10172         6     1.020     0.761  -2.72   0
       324    369.2234    108.3228 300.2565944 +22.5243175      667.417     72.48353      1.685     2.96     6.436158     20.44981     71.26209        11     0.972     0.742 -52.03   2
       325    373.0882    106.6787 300.2583300 +22.5250025     499.7402     72.61265      1.921     4.32     6.444198     20.44981     41.59705         6     1.067     0.499  49.97   2
       326    135.3887    105.2874 300.1848403 +22.4533968     755.7174     72.42812      1.588     3.39      6.53374     20.44981     78.48093        12     0.962     0.882  72.86   0
       327    496.3692    103.5460 300.2977242 +22.5610193     1648.324     72.50199      1.322     2.52     6.486789     20.44981     218.5888        19     1.037     0.980  65.51   0
       328    424.3318    103.8995 300.2751810 +22.5395501     477.4908     72.57578      1.365     2.84     6.516833     20.44981     59.47257         7     0.847     0.556  37.21   0
       329    557.9567    102.7077 300.3171765 +22.5792175     420.3746     72.48353      1.505     3.48     6.303403     20.44981     47.17623         9     0.926     0.765  44.00   0
       330    239.4751     98.8734 300.2192874 +22.4827385     364.9305     72.55734      1.256     3.81     6.391151     20.44981     57.25919         9     1.010     0.713  39.56   0
       331    784.9100     93.1338 300.3910053 +22.6443932      489.345     72.59422      1.567     4.32     6.099486     20.44981     48.31652         8     0.911     0.714 -81.84   0
       332    632.2170     89.1939 300.3446903 +22.5975619     296.7005     72.42812      1.443     3.97     6.023029     20.44981     37.28406         5     0.908     0.496  44.33   0
       333    930.4389     88.1805 300.4379987 +22.6865090     323.9122     72.52045      1.288     3.31     5.938529     20.44981     49.02254         5     0.876     0.508 -36.12   0
       334    680.8977     85.3987 300.3610898 +22.6110411     297.3906     72.39116      1.313     4.08     6.061679     20.44981     39.79312         7     0.992     0.481   6.22   0
       335    270.3557     83.2522 300.2339556 +22.4875006     6172.131     72.50199      1.560     2.84     6.300584     20.44981     689.1759        42     1.322     1.249  56.51   0
       336    776.9188     84.0797 300.3914480 +22.6393975     418.8615     72.61265      1.402     3.64     6.124293     20.44981     55.71811         7     0.883     0.534 -38.49   0
       337    121.3895     82.8022 300.1877744 +22.4427436     757.7126     72.29867      1.584     2.64     6.541024     20.44981     98.96143        12     0.928     0.827 -25.40   0
       338    899.9720     81.1290 300.4307795 +22.6753658     311.1513     72.46507      1.271     2.79     5.959637     20.44981     55.38921         7     0.849     0.538  47.59   0
       339    242.6965     77.2923 300.2272828 +22.4775029     318.6833     72.66792      1.110     3.45     6.373436     20.44981     65.19901         5     0.767     0.448 -80.44   0
       340    746.1047     74.9439 300.3848022 +22.6275487     308.2849     72.53889      1.375     3.84     6.223346     20.44981     33.87754         5     0.808     0.524  32.43   0
       341    285.7281     74.6249 300.2415336 +22.4896261     352.1144     72.50199      1.332     3.95     6.178591     20.44981     46.07033         8     0.937     0.769  71.45   0
       342     32.0264     73.6559 300.1629615 +22.4133390     430.9121     72.48353      1.517     4.25     6.485148     20.44981      52.4654         5     1.121     0.460   6.73   0
       343    516.5102     68.7233 300.3152811 +22.5570385     6302.361     72.63108      1.450     2.54     6.362066     20.44981      795.002        36     1.242     1.132  67.27   0
       344    401.9359     68.5688 300.2796588 +22.5226885      572.233     72.48353      1.259     2.91     6.538379     20.44981     82.47664         8     0.849     0.638  49.82   0
       345    573.0726     62.9664 300.3347636 +22.5723160     331.2115     72.48353      1.458     4.52     6.111453     20.44981     45.25933         7     1.132     0.513  59.19   0
       346    536.7261     62.9971 300.3234326 +22.5614443     343.9579     72.39116      1.633     3.88      6.22987     20.44981      39.1422         6     0.918     0.519  -0.08   0
       347    769.0954     58.5781 300.3972728 +22.6297207     951.4945     72.39116      1.490     3.06     6.118646     20.44981     108.4575        15     1.122     0.811 -88.26   0
       348    710.5628     60.0614 300.3785461 +22.6126319     266.7504     72.50199      1.289     4.72     6.137066     20.44981     43.24426         7     0.935     0.676 -33.53   0
       349    861.3646     57.5197 300.4263880 +22.6570227     438.1728     72.42812      1.299     3.27     6.024912     20.44981      58.9209         9     0.949     0.739  50.56   0
       350    209.3782     52.4592 300.2249663 +22.4603872     475.1824     72.48353      1.613     4.61     6.510842     20.44981     46.97029        10     1.035     0.963 -58.60   0
       351    567.8600     51.3506 300.3369037 +22.5674156     406.9595     72.53889      1.511     3.79     6.082246     20.44981     57.80487         9     0.952     0.821  -4.09   0
       352    644.8454     48.8256 300.3617064 +22.5897326     6404.975     72.50199      1.467     2.70     6.025181     20.44981     793.2986        42     1.322     1.162  70.30   0
       353    419.6656     47.6845 300.2919447 +22.5219944      1459.58     72.59422      1.430     2.69      6.57353     20.44981      196.092        19     1.075     1.005  28.89   0
       354    685.9017     46.2026 300.3753506 +22.6012656     893.4014     72.39116      1.441     3.70     6.058057     20.44981     107.3485        15     1.142     0.935  49.64   0
       355    755.8599     44.1629 300.3978175 +22.6216135     386.0681     72.50199      1.388     3.14     6.123397     20.44981     46.39529         6     0.764     0.548 -49.19   0
       356    702.0045     42.3455 300.3816190 +22.6049751     584.3971     72.46507      1.463     3.56     6.087431     20.44981     71.18488         8     0.934     0.686 -12.24   0
       357    168.7303     40.2920 300.2162676 +22.4447149     655.0027     72.61265      1.397     3.07     6.504224     20.44981     80.88955        14     1.085     0.812 -47.21   0
       358    971.7880     39.9451 300.4665309 +22.6849960     561.6193     72.50199      1.722     4.07     6.380239     20.44981     54.82604        10     1.063     0.784  41.73   0
       359    740.3883     37.7481 300.3950729 +22.6151387     469.0143     72.48353      1.370     2.71     6.139679     20.44981     78.29633        11     0.944     0.791  61.52   0
       360    704.1725     32.7689 300.3853976 +22.6028692     893.3176     72.48353      2.005     5.64     6.078453     20.44981     90.84438        17     1.722     0.814  43.90   0
       361    689.1024     33.8168 300.3803612 +22.5986609     2734.205     72.40964      1.438     2.63     6.055661     20.44981      354.435        26     1.132     1.081  86.91   0
       362    330.4611     34.5045 300.2684514 +22.4914938     476.1606     72.57578      1.970     5.93      6.28972     20.44981     38.68372         8     1.122     0.883 -58.51   0
       363    775.6336     25.2889 300.4100975 +22.6221003     1618.877     72.44659      1.569     2.81     6.059754     20.44981     177.2513        20     1.189     0.955  78.53   0
       364    644.2158     26.0841 300.3688786 +22.5830036     187.4936     72.44659      1.276     4.76     6.025015     20.44981     29.52055         5     0.978     0.656  60.39   0
       365    853.7502     20.4219 300.4360334 +22.6440705     357.2402     72.48353      1.268     2.17     6.158461     20.44981     46.63956         5     0.686     0.455 -21.88   0
       366    713.3955     18.8400 300.3927851 +22.6016225     647.2701     72.50199      1.224     2.91     6.066576     20.44981     94.64539         9     0.886     0.698  46.09   0
       367    318.1571   1014.2247 299.9465566 +22.7690690     1509.973     72.53889      2.519     5.03     10.16259     20.44981     102.7726        29     1.470     1.385 -36.91  16
       368     91.8008     17.8293 300.1996271 +22.4152146     613.5572     72.44659      1.698     3.89     6.574676     20.44981     65.11105        10     1.007     0.836 -19.23   0
       369    423.0263     15.9494 300.3032726 +22.5138779     773.1991     72.50198      1.394     3.25     6.609553     20.44981     92.96912        11     0.911     0.846  44.19   0
       370    805.1490     14.9318 300.4226559 +22.6279512     472.0225     72.46507      1.654     2.71     6.040845     20.44981     49.76035         8     0.830     0.691  18.55   0
       371    154.4282   1009.9103 299.8970429 +22.7186898     1706.317     72.46507      3.005    14.84     93.24012     20.44981     53.42191        55     3.226     1.992 -38.81  16
       372    170.3439   1010.0677 299.9019396 +22.7235126     539.8698     72.52045      2.169     5.95     92.98201     20.44981     49.16631        10     1.393     0.849  57.43   0
       373    196.0291   1000.8637 299.9129195 +22.7285840     2770.632     72.50198      5.812    22.83     82.23606     20.44981     71.99346       141     4.258     3.677  67.23  18
       374    378.7543    999.9467 299.9700555 +22.7831579     528.7899     72.52045      2.015     6.01     4.800754     20.44981     42.94842        10     1.163     0.879  45.79   2
