#   1 NUMBER                 Running object number                                     
#   2 X_IMAGE                Object position along x                                    [pixel]
#   3 Y_IMAGE                Object position along y                                    [pixel]
#   4 ALPHA_J2000            Right ascension of barycenter (J2000)                      [deg]
#   5 DELTA_J2000            Declination of barycenter (J2000)                          [deg]
#   6 FLUX_APER              Flux vector within fixed circular aperture(s)              [count]
#   7 FLUXERR_APER           RMS error vector for aperture flux(es)                     [count]
#   8 FLUX_RADIUS            Fraction-of-light radii                                    [pixel]
#   9 FWHM_IMAGE             FWHM assuming a gaussian core                              [pixel]
#  10 BACKGROUND             Background at centroid position                            [count]
#  11 THRESHOLD              Detection threshold above background                       [count]
#  12 FLUX_MAX               Peak flux above background                                 [count]
#  13 ISOAREA_IMAGE          Isophotal area above Analysis threshold                    [pixel**2]
#  14 A_IMAGE                Profile RMS along major axis                               [pixel]
#  15 B_IMAGE                Profile RMS along minor axis                               [pixel]
#  16 THETA_IMAGE            Position angle (CCW/x)                                     [deg]
#  17 FLAGS                  Extraction flags                                          
         1    692.6091     16.2682 300.3928427 +22.6013538     795.5777     72.25391      1.634     3.69     5.645286     20.38502     88.74224        13     1.202     0.786  32.61   0
         2    498.6677     15.5253 300.3326555 +22.5431144     1166.906     72.32748      1.659     3.47     5.796291     20.38502     140.9039        16     1.178     0.906  56.38   0
         3    402.6222     13.5771 300.3033798 +22.5138099     834.5251     72.25391      1.476     3.25     5.930411     20.38502     111.6159        15     1.140     0.880 -89.56   0
         4    741.9890      4.9325 300.4119088 +22.6128621     557.1566     71.38368      1.291     3.27     5.677454     20.38502     64.52755         9     0.866     0.749  -2.80  16
         5    173.8329      3.6326 300.2354105 +22.4424581     3617.974     67.51598      1.674     3.31     6.840701     20.38502     369.4002        33     1.363     1.229  35.56  24
         6    596.2592      1.3089 300.3676620 +22.5682260     249.4948     56.13844      0.988     2.07      5.75933     20.38502     58.98336         5     0.719     0.421  19.07  24
         7    499.7501      1.6000 300.3375038 +22.5394331     274.3425      57.7267      1.193     3.42     5.764131     20.38502     35.72007         5     0.730     0.464  16.24  24
         8    136.7834   1004.9582 299.8988536 +22.7188192     943.1571     72.27231      2.020     9.24     85.31564     20.38502     51.11061        21     1.753     1.361 -72.77   3
         9     88.9343   1011.5260 299.8818428 +22.7063426     5218.943      72.2907     17.644   100.81     80.30572     20.38502     153.1784      2336    19.137    17.397 -86.91  27
        10     78.9828    945.6755 299.9001670 +22.6844749     5620.858     72.25391     30.231    17.85     25.47843     20.38502     1243.226      4574    22.066    16.654 -63.38  27
        11      3.3259    994.2268 299.8608653 +22.6756887     1344.592     66.18324      8.257    10.38    -8.937312     20.38502     37.81239        20     2.372     1.265  43.56  27
        12    167.4019    967.5261 299.9205485 +22.7172724     959.4489     72.16183      5.442     8.80     54.56115     20.38502      42.9136        13     1.798     1.203  32.05   3
        13    169.7963    980.2812 299.9171444 +22.7216488     1392.801     72.16183      3.480    10.33     64.68273     20.38502     51.73962        28     2.219     1.341  -0.22   3
        14    170.0132    975.7217 299.9186949 +22.7204064     1836.717     72.27231      5.071    13.00     61.21009     20.38502     48.60287        48     2.738     1.717  21.00   3
        15    357.7072    998.3649 299.9697157 +22.7832096     541.2897     72.19868      1.733     6.28     4.663705     20.38502     39.54592        12     1.158     1.022  25.04   0
        16      4.4370    978.6617 299.8662731 +22.6715601     913.5421     70.20029      7.701     9.67    -5.859347     20.38502     30.92735        13     2.228     1.170 -25.69  24
        17    929.9141    971.6292 300.1567069 +22.9470649     527.2836     72.25391      1.737     5.32     4.208999     20.38502     42.12965         8     1.285     0.622 -29.59   2
        18    927.7917    969.2673 300.1568131 +22.9457506     366.6314     72.25391      1.243     4.05     4.231389     20.38502     38.85695         6     1.182     0.397 -77.39   2
        19    147.2818    955.7560 299.9181205 +22.7078599     2062.536     72.21709     11.153    16.53     43.92209     20.38502     49.96875        73     3.217     2.360   9.02   3
        20      4.7212   1010.2333 299.8560925 +22.6806960     1738.703     70.89769     10.225    16.67    -9.363076     20.38502     38.83206        56     3.579     2.157 -85.34  27
        21    654.1089    953.8737 300.0764875 +22.8593165      6923.71     72.41935      2.032     4.59     4.271934     20.38502     391.4905        50     1.584     1.482   4.04   0
        22    202.1812    985.7132 299.9254482 +22.7329236     3909.408     72.19868      8.190    37.29     67.53354     20.38502     86.89446       328     8.479     4.552  84.45  19
        23    162.4815   1000.3251 299.9083505 +22.7252020     803.4208     72.36425     -8.575    16.37     82.47936     20.38502     47.14515        14     6.850     1.088  25.47  19
        24    222.0344    984.2936 299.9320842 +22.7384730     5024.497     72.21709      8.685    39.06     64.17844     20.38502     108.8388       411     7.522     5.629 -72.96  19
        25    152.6074    958.6455 299.9188366 +22.7102865     789.3206     72.27231      2.638     3.28     46.90543     20.38502     45.20974         5     0.766     0.451 -27.88   3
        26    562.6187    944.5733 300.0510090 +22.8292205      1477.68     72.27231      1.858     5.04     4.697014     20.38502     85.26677        23     1.340     1.188  64.52   0
        27    456.2934    941.2352 300.0189839 +22.7963834     1028.237     72.21709      1.973     5.72     4.642982     20.38502       74.977        21     1.411     1.118 -20.93   0
        28    387.0715    938.9736 299.9981714 +22.7749763     6559.704     72.25391      1.984     4.25     4.659254     20.38502     451.6657        49     1.549     1.477  -4.22   0
        29    807.0000    948.0520 300.1260390 +22.9034657     366.8224     72.19868      1.762     3.46     4.232698     20.38502     26.03381         4     0.716     0.484  87.49   2
        30    420.1636    926.4678 300.0125387 +22.7813114     479.9562     72.25391      1.777     3.95     4.647788     20.38502     48.44209         8     1.157     0.626 -11.23   0
        31    240.7867    973.9236 299.9412896 +22.7411246     7892.652     72.27231      9.248    35.56     42.53991     20.38502     167.9554       845    11.993     5.253  67.48  18
        32    933.5958    918.0818 300.1752720 +22.9327846     2133.896     72.18025      2.126     5.16     4.562271     20.38502     111.1265        34     1.525     1.445 -36.02   0
        33    722.0826    906.3878 300.1131151 +22.8660538     872.9325     72.21709      2.239     8.27     4.384385     20.38502     42.91573        22     1.694     1.128  52.25   0
        34    176.8854   1000.1169 299.9128970 +22.7294644      2563.61     72.38262      5.385    18.85     81.66665     20.38502     59.52372        77     3.684     2.977  -8.70   3
        35    757.1039    901.1226 300.1257444 +22.8750362     1033.741     72.38262      1.933     5.92     4.386298     20.38502     70.65631        23     1.399     1.279  -1.01   0
        36    534.3591    901.7117 300.0561457 +22.8084449     428.8612     72.25391      1.731     4.75     4.641266     20.38502     41.06199         9     0.996     0.807 -48.22   0
        37    173.3846    997.2081 299.9127545 +22.7275798     3029.844     72.18025      6.079    24.58     79.26635     20.38502     67.28987       128     4.684     3.581 -62.61  19
        38    779.3301    894.6105 300.1347914 +22.8798257     11325.91      72.2355      1.926     4.30     4.382623     20.38502     701.6219        59     1.580     1.512 -19.85   0
        39    122.1003    896.9266 299.9294215 +22.6834324     847.8699     72.38262      4.574     4.39     13.21755     20.38502      35.2485         5     1.044     0.526  53.21   1
        40    825.0587    895.0530 300.1489062 +22.8936539     589.8373      72.3091      1.950     6.98     4.391034     20.38502     44.04398        10     1.203     1.134  35.33   0
        41    971.7900    894.4219 300.1948835 +22.9374270     423.6401     72.25391      1.921     3.65     4.828194     20.38502     27.81071         5     0.973     0.395  83.53   0
        42     90.8233    886.0875 299.9232228 +22.6709396     967.2835     72.19868      6.319     6.71     9.536283     20.38502     66.46214        17     1.438     1.182   4.10   0
        43    483.8737    882.7705 300.0465828 +22.7878725     503.4634     72.27231      1.794     5.61     4.606063     20.38502     42.24347         8     1.336     0.663   9.77   0
        44    787.8802    876.7769 300.1432560 +22.8772652     1289.876     72.19868      1.780     3.94      4.43628     20.38502     96.61948        24     1.277     1.163  -7.72   0
        45    549.4826    991.4440 300.0316723 +22.8387356     2295.277     72.21709      1.996     4.88     4.955087     20.38502     137.6584        34     1.549     1.396 -18.81   0
        46    639.7050    874.0557 300.0979555 +22.8320816      458.287      72.3091      1.562     4.91     4.623638     20.38502      40.6089         7     1.375     0.497 -36.04   0
        47    825.7631    870.4406 300.1571289 +22.8867948     983.5157     72.32748      2.038     5.60     4.497168     20.38502     65.99847        17     1.339     0.992  65.07   0
        48    874.3538    861.6967 300.1751264 +22.8988391     483.3934     72.27231      1.711     6.80     4.634169     20.38502     36.85409        13     1.282     1.011   8.64   0
        49    725.6852    860.5150 300.1291539 +22.8539589     750.5592     72.38262      1.899     4.39     4.597238     20.38502     59.12752        12     1.036     0.859  20.85   0
        50    736.9865    857.6002 300.1336244 +22.8565080     525.8623     72.08808      1.819     5.83     4.589808     20.38502     53.60871        12     1.188     0.946  -2.57   0
        51    438.2603    856.6412 300.0408764 +22.7666970     4131.739      72.2355      1.822     4.09     4.629105     20.38502     324.0768        39     1.433     1.347  15.99   0
        52    163.5404    842.5135 299.9599954 +22.6802566     607.8878     72.34587      1.903     4.40     7.769738     20.38502     62.08794        14     1.331     0.903 -27.81   0
        53    140.4571    839.3060 299.9538609 +22.6724120     1631.932      72.3091      1.969     4.83     7.058969     20.38502     109.4044        29     1.543     1.267   5.08   0
        54    635.7408    987.0991 300.0599569 +22.8633490     8311.697     72.34587      2.045     4.99      4.19272     20.38502     453.2853        44     1.615     1.403  41.09   3
        55   1012.4631    828.7772 300.2289205 +22.9307430     2130.564      72.2355      1.968     4.79     5.426404     20.38502     126.0141        33     1.483     1.352  26.36   0
        56    966.6876    827.0041 300.2152116 +22.9165255     2235.651     72.18025      2.067     5.30     5.049389     20.38502     115.9133        36     1.682     1.366  56.34   0
        57     15.3017    828.8356 299.9183627 +22.6318605     400.0066     72.25391      1.754     3.65     5.265529     20.38502      33.9171         5     1.199     0.320   9.35   0
        58    172.7448    821.0525 299.9698334 +22.6768608     430.1351      72.2907      1.932     6.71      6.31853     20.38502     34.48577         9     1.175     1.075  83.09   0
        59    750.0844    820.9634 300.1496180 +22.8499090     616.6162      72.2355      1.492     4.72     4.490376     20.38502     53.75093        13     1.249     0.843  -7.78   0
        60    618.2982    814.9141 300.1105124 +22.8086829     4873.241     72.41935      1.733     3.70     4.499895     20.38502     397.1957        38     1.371     1.310   7.13   0
        61    108.1959    815.4133 299.9515972 +22.6558805     338.9684     72.10652      1.433     3.40     5.624341     20.38502     34.90277         5     1.226     0.273 -55.18   0
        62    420.4125    811.7322 300.0499188 +22.7484553     745.1852     72.25391      1.870     6.20     4.648989     20.38502     52.68615        14     1.268     0.851 -20.82   0
        63    168.5225    808.4021 299.9726322 +22.6719650     1426.391     72.16183      1.893     4.51     5.648184     20.38502     111.6879        21     1.333     1.156  65.98   0
        64    639.0079    807.6323 300.1193321 +22.8127979     796.1503     72.25391      1.705     4.26     4.471869     20.38502     62.47461        16     1.142     0.972  21.86   0
        65    641.2398    984.7081 300.0624480 +22.8643111     9694.895     72.25391      2.123     4.90     4.183298     20.38502     476.7224        60     1.794     1.588   7.66   3
        66   1011.2477    795.0248 300.2395132 +22.9206779     1080.828     72.25391      1.879     5.15     5.376618     20.38502     75.78175        21     1.334     1.136   7.48   0
        67    794.3734    794.7411 300.1719501 +22.8556442     4253.997     72.25391      1.804     4.16     4.463059     20.38502     318.2135        40     1.492     1.271  28.49   0
        68    202.9046    788.7124 299.9897235 +22.6766280     423.8633     72.43771      1.563     4.98     5.118283     20.38502     56.25508        10     1.210     0.713  51.41   0
        69    511.4533    787.0356 300.0862923 +22.7686558     694.8074     72.27231      1.773     5.76     4.754399     20.38502      54.9572        15     1.544     0.830 -43.07   0
        70    157.5280    784.5975 299.9769500 +22.6618377     994.7444     72.19868      1.957     6.17     5.226861     20.38502     69.33569        23     1.513     1.209  19.92   0
        71    573.2574    780.2200 300.1077572 +22.7852218     589.7237     72.25391      1.908     6.54       4.6979     20.38502     49.59939        12     1.248     1.006 -11.76   0
        72    307.3587    777.0324 300.0260121 +22.7045997     53758.79      72.3091      1.806     3.69     4.926956     20.38502     4346.947        95     1.550     1.502   9.18   0
        73    565.2885    776.2768 300.1065564 +22.7817013     1518.225     72.40099      1.657     3.74     4.765594     20.38502     130.4652        22     1.210     1.112  77.63   0
        74    978.1819    775.7854 300.2354475 +22.9052471     929.2602     72.21709      1.993     6.30     5.131182     20.38502     61.15804        22     1.387     1.202  43.57   0
        75    235.9249    775.1732 300.0043936 +22.6826457     441.5407      72.2355      1.664     5.63     5.036234     20.38502     35.48633         9     1.286     0.694  50.43   0
        76    594.3162    772.4634 300.1168384 +22.7893052      910.793     72.34587      1.558     3.72     4.629788     20.38502     87.98305        18     1.191     0.981  14.84   0
        77    605.1360    770.9223 300.1207101 +22.7921049     585.1222     72.34587      1.757     3.69     4.571226     20.38502      53.9194        11     1.108     0.789 -69.79   0
        78    710.1897    766.8740 300.1547630 +22.8224190     516.9216     72.25391      1.855     5.49      4.44929     20.38502     44.30869         9     1.131     0.752  46.10   0
        79    748.2968    757.3181 300.1697473 +22.8310899     732.0345     72.40099      1.677     3.36     4.451428     20.38502     69.88259        13     0.992     0.920 -15.30   0
        80    357.0850    754.3297 300.0488636 +22.7129924     31800.35     72.36425      1.740     3.43     4.640558     20.38502     2818.493        79     1.486     1.436   3.51   0
        81    371.2546    754.8455 300.0531059 +22.7173884     2089.612      72.2907      1.709     3.51     4.638938     20.38502     206.7392        25     1.277     1.166 -36.83   0
        82    880.2684    750.2840 300.2131871 +22.8685971     2789.099     72.36425      1.806     3.73      4.74883     20.38502     210.7453        35     1.433     1.326 -64.80   0
        83    909.4238    749.3826 300.2225750 +22.8770692     269.4804     72.25391      1.677     3.52     4.913086     20.38502     28.63088         5     1.086     0.329 -20.23   0
        84    368.2889    748.7088 300.0541770 +22.7147377     681.2248     72.41936      2.107     5.56     4.638669     20.38502      63.3167        13     1.319     0.869  58.89   1
        85    638.0264    746.3474 300.1389443 +22.7949020     906.9366     72.27231      1.579     3.76     4.548358     20.38502      97.0079        19     1.212     1.057 -42.15   0
        86    474.6697    746.2231 300.0881013 +22.7459125     426.1695     72.27231      1.602     5.74      4.94218     20.38502      35.0667        10     1.043     0.889  35.11   0
        87    239.7894    746.1039 300.0150420 +22.6754625     838.2775     72.18025      1.741     4.40     4.998591     20.38502     66.35773        15     1.106     0.999  79.30   0
        88    485.4546    741.2400 300.0930788 +22.7477141     805.5392     72.25391      1.612     3.54     5.014487     20.38502     75.38689        13     1.076     0.824 -25.43   0
        89    885.8911    738.3885 300.2188067 +22.8668623     556.5764     72.19868      1.588     4.12     4.800937     20.38502     46.81292        12     1.032     0.806 -51.76   0
        90    431.1883    736.0412 300.0778721 +22.7299562     495.9872     72.25391      1.529     3.44     4.717586     20.38502     51.56657         9     0.984     0.711  52.75   0
        91    343.2372    737.0242 300.0501774 +22.7038733     340.1045     72.27231      1.450     3.31     4.695096     20.38502     35.58691         5     0.802     0.486  28.85   0
        92    639.2818    735.3104 300.1429220 +22.7921079     453.7768     72.36425      2.035     4.94     4.574306     20.38502      27.8912         7     1.005     0.688   6.43   0
        93    736.0195    988.1297 300.0908733 +22.8937031     557.7707     72.27231      2.022     7.28     4.212147     20.38502     34.17777        14     1.350     1.099   9.98   0
        94    863.6191    733.5034 300.2134471 +22.8587886     404.9711     72.16183      1.848     4.26     4.673338     20.38502     35.63905         6     1.110     0.466 -10.37   0
        95    237.5510    730.4462 300.0194333 +22.6702977     544.1821     72.27231      1.758     2.72     4.987336     20.38502     65.10342         8     0.999     0.817  33.16   0
        96    560.5313    720.9912 300.1230404 +22.7643986     472.2808      72.2355      1.492     4.71     5.098787     20.38502     49.01406        10     1.003     0.767  44.57   0
        97    530.2823    719.2347 300.1141894 +22.7548296     602.4705     72.21709      1.629     3.03     5.168293     20.38502     70.75707        12     0.980     0.850  -5.08   0
        98    946.6607    715.8469 300.2450906 +22.8785804     4547.589      72.2907      1.779     3.89     5.032841     20.38502     300.7872        35     1.348     1.305   7.65   0
        99    552.2131    716.5676 300.1218867 +22.7606356     1305.337      72.2355      1.614     3.51     5.165019     20.38502     132.8641        19     1.138     1.046   9.75   0
       100    471.7769    715.9996 300.0970212 +22.7363671     251.6712     72.18025      1.435     5.95     4.986434     20.38502     40.22142         8     1.087     0.916  52.43   0
       101    633.7520    712.5163 300.1486055 +22.7839036     407.0064     72.25391      1.720     4.48     4.734094     20.38502     38.91242         5     0.802     0.710 -42.84   0
       102    935.1918    707.2554 300.2443038 +22.8726769     1759.118     72.25391      1.800     3.92     5.058226     20.38502     124.5943        25     1.276     1.202 -67.71   0
       103    297.9265    700.5969 300.0479138 +22.6798326      1003.66     72.16183      1.831     4.48     4.967824     20.38502     78.08801        19     1.356     1.111 -67.67   0
       104    162.3552    701.8452 300.0053397 +22.6395410     217.5805      72.2907      1.757     4.28     5.023997     20.38502     29.92566         5     1.120     0.466 -83.89   0
       105    761.7718    698.3569 300.1931076 +22.8181857     2727.363     72.27231      1.766     3.65     4.553498     20.38502     227.7482        33     1.592     1.169   0.68   0
       106    966.4478    697.3981 300.2572593 +22.8792015     1702.804      72.2355      1.880     4.46     4.876037     20.38502     117.2595        27     1.424     1.261   4.05   0
       107    146.7820    684.6962 300.0060684 +22.6299498     562.0637     72.16183      1.646     5.45     5.028193     20.38502     59.01217        11     1.269     0.797  -0.58   0
       108    843.4680    684.3486 300.2231338 +22.8386272      611.173      72.2355      1.712     4.30     4.832312     20.38502     52.90001        10     1.072     0.704  12.75   0
       109    879.9988    675.3827 300.2374409 +22.8469893     149143.5     72.16183      1.698     3.42     4.934116     20.38502     12186.93       154     1.541     1.523 -56.27   0
       110    642.5223    679.0041 300.1622263 +22.7769042     369.9518     72.16183      1.319     3.06     4.929733     20.38502     48.50228        10     1.000     0.630 -28.25   0
       111    732.5974    675.6591 300.1913867 +22.8029254     691.1208     72.21709      1.556     4.94     4.488924     20.38502      64.4153        13     1.139     0.919  -7.25   0
       112    913.2382    668.3032 300.2501100 +22.8549069     317.0608      72.2355      1.482     4.79     5.024609     20.38502     49.56044         6     1.161     0.561 -23.76   0
       113    566.3372    664.0677 300.1433426 +22.7497886     1635.016      72.3091      1.519     3.09     5.176217     20.38502     161.3792        24     1.241     1.062 -44.60   0
       114    747.4934    661.4783 300.2006372 +22.8033121     9532.869     72.38262      1.614     3.11     4.563232     20.38502     922.9241        44     1.315     1.284  46.46   0
       115    229.7768    662.7071 300.0390217 +22.6485248      343.719     72.18025      1.600     5.75     4.990199     20.38502     35.24487         8     1.217     0.765  50.92   0
       116    248.9126    656.3045 300.0470538 +22.6524242     4914.894     72.43771      1.719     3.38     4.989772     20.38502     428.7397        37     1.374     1.289  75.88   0
       117    331.0113    654.5638 300.0731624 +22.6765358     1121.208     72.25391      1.584     3.50     4.986575     20.38502     109.3205        20     1.152     1.094  29.66   0
       118    206.6949    652.1278 300.0352789 +22.6385679     447.6697     72.36425      1.551     5.71     4.988468     20.38502      46.5369        12     1.015     0.964  89.25   0
       119    539.0708    649.8941 300.1394536 +22.7375479     729.7845     72.36424      1.481     3.80     5.201216     20.38502     90.89031        14     1.188     0.799  37.96   0
       120    530.8754    642.1197 300.1394264 +22.7328593     3263.959     72.36425      1.554     3.20     5.181826     20.38502     284.2892        27     1.175     1.161  40.17   0
       121     56.7574    639.5804 299.9927368 +22.5900060     315.2826     72.27231      1.370     3.36     5.111281     20.38502     34.72341         5     0.755     0.434  22.40   0
       122    521.1946    636.0349 300.1383877 +22.7282109      1422.33      72.2355      1.531     3.01     5.156923     20.38502     138.4158        23     1.181     1.095  62.13   0
       123    449.3741    634.7809 300.1164304 +22.7063299     249.2769     72.27231      1.430     4.99      5.00979     20.38502     32.90487         7     1.158     0.610  34.32   0
       124    915.1487    634.1173 300.2618114 +22.8456515     490.8434     72.27231      1.431     3.90     4.949553     20.38502     49.39759         9     0.872     0.832  15.00   0
       125    184.7854    632.1050 300.0349684 +22.6262518     677.5432     72.18025      1.822     3.21     4.986032     20.38502     71.12573        10     0.993     0.905 -15.28   0
       126    198.7449    630.3415 300.0398825 +22.6299310     542.2755      72.3091      1.630     2.98     4.986712     20.38502     74.36703         8     1.114     0.596  28.39   0
       127    967.8998    627.3720 300.2804617 +22.8595042     508.8427     72.18025      1.502     3.94      4.85163     20.38502     58.51125         9     0.940     0.707  56.35   0
       128    224.7773    627.4385 300.0489220 +22.6369024     542.6614     72.27231      1.689     4.31     4.988006     20.38502     45.84829         7     0.941     0.563 -52.54   0
       129    545.0562    626.4993 300.1489169 +22.7326212     367.6532     72.34587      1.354     4.03     5.224363     20.38502     53.83013         8     0.875     0.701  53.31   0
       130    445.8609    625.6769 300.1182935 +22.7026625     1856.285      72.3091      1.577     3.29     5.008485     20.38502     177.9289        24     1.262     1.054 -15.43   0
       131    256.1258    627.2983 300.0587188 +22.6462601     336.4536     72.40099      1.464     4.38     4.988006     20.38502     37.52744         7     0.782     0.699  21.77   0
       132   1022.0341    623.4626 300.2986264 +22.8745841     836.2642     64.63821      1.749     4.38     4.754548     20.38502     61.75587        17     1.287     0.982  35.59  24
       133     99.8597    620.3741 300.0123724 +22.5974204     19995.34     72.25391      1.838     3.68     5.025034     20.38502      1806.46        70     1.546     1.510  32.83   0
       134    530.7558    620.9648 300.1462603 +22.7267469     1074.792      72.3091      1.517     3.60      5.18904     20.38502     111.7694        17     1.090     0.995  -0.82   0
       135     21.2123    622.0538 299.9873820 +22.5743167     811.6351     72.27231      1.829     5.75     5.156765     20.38502     65.21369        14     1.392     0.814 -13.07   0
       136    566.3582    620.5395 300.1574880 +22.7372912     224.7123      72.2355      1.638     5.71     5.232245     20.38502     27.73903         7     1.063     0.865  19.79   0
       137    284.3022    612.4537 300.0723057 +22.6504448      289.432     72.34587      1.343     3.51     4.987092     20.38502     36.20595         5     0.768     0.462  17.57   0
       138    949.0580    607.5928 300.2810067 +22.8481771     1128.841     72.25391      1.717     3.36     4.900621     20.38502     100.7767        16     1.073     0.972 -50.09   0
       139    816.0277    605.4789 300.2401959 +22.8077418     387.5643     72.27231      1.361     4.45      4.76253     20.38502      51.6142        10     1.133     0.672 -71.08   0
       140     46.0359    604.5755 300.0007727 +22.5767462     1455.807     72.27231      1.997     4.60     5.138237     20.38502     103.5431        24     1.478     1.061 -70.61   0
       141    112.3312    605.3005 300.0211447 +22.5968342       449.36     72.34587      1.763     3.35      4.99787     20.38502     46.70355         7     1.007     0.653  -3.15   0
       142    494.2634    601.7059 300.1411501 +22.7102812     558.6925     72.34587      1.784     3.21     5.105345     20.38502     58.37687         8     0.928     0.604   9.92   0
       143    889.2752    600.2794 300.2647304 +22.8281777     895.7825     72.36425      2.323     4.20     4.872388     20.38502     65.35563        12     1.112     0.930  23.70   2
       144    286.9677    600.4482 300.0770338 +22.6477970     257.4426      72.2907      1.405     4.17     4.966208     20.38502     36.65785         5     0.803     0.619 -86.08   0
       145    450.8016    593.9611 300.1301320 +22.6950341     679.9894     72.27231      1.381     2.68     5.041244     20.38502     94.04018        12     1.020     0.710   8.19   0
       146    599.2634    592.4443 300.1768635 +22.7390772     567.9697     72.27231      1.653     4.31     5.313809     20.38502     71.97083        11     1.222     0.872 -49.54   0
       147    646.2273    591.1536 300.1919159 +22.7527738     326.5598      72.2907      1.217     4.24     5.185944     20.38502     52.56254         8     1.018     0.717 -70.63   0
       148    616.8136    590.7651 300.1828769 +22.7438518     525.3526     72.25391      1.509     3.90     5.300454     20.38502     52.75806         9     1.003     0.716 -59.63   0
       149    495.2156    589.7354 300.1453340 +22.7071280     940.3448      72.2355      1.618     3.70     5.119354     20.38502     101.7909        17     1.162     1.036 -67.26   0
       150    929.1088    585.4681 300.2819678 +22.8358441     3243.732     72.38262      1.613     3.32     4.900621     20.38502     304.9063        31     1.294     1.176   9.15   0
       151    460.7977    585.1132 300.1361177 +22.6954880     1614.913     72.18025      1.475     3.03     5.067395     20.38502     159.4944        22     1.159     1.043  49.95   0
       152    810.5646    581.4208 300.2463056 +22.7991907     347.8386     72.27231      1.512     4.20      4.79416     20.38502     36.57564         6     1.035     0.486  32.90   0
       153     22.5707    578.5163 300.0019420 +22.5622315     4973.766     72.25391      1.895     3.98     5.465113     20.38502     439.8937        42     1.504     1.425   6.79   0
       154    489.7382    576.0399 300.1480757 +22.7015529      285.877     72.25391      1.256     3.85     5.123256     20.38502     33.82105         5     0.841     0.506 -33.96   0
       155    967.6302    575.4307 300.2972473 +22.8444886     169.5338      72.2355      1.239     3.60     4.900621     20.38502     35.83809         5     0.928     0.487  -6.50   0
       156    324.1455    571.8176 300.0978990 +22.6507194     9289.473      72.2355      1.562     3.04     4.955836     20.38502     999.5762        47     1.328     1.282  59.83   0
       157    446.5820    568.8892 300.1369599 +22.6865685     9056.968     72.18025      1.535     3.04     5.070604     20.38502     976.9908        42     1.272     1.230  32.91   0
       158    212.2944    566.1199 300.0649517 +22.6155576     164.7045     72.38262      1.432     4.92     4.968996     20.38502     30.64813         5     1.125     0.608  29.58   0
       159    858.3958    563.1788 300.2671468 +22.8082671       1794.1     72.21709      1.578     3.54     4.858409     20.38502     155.3545        24     1.183     1.139  26.44   0
       160    943.0463    560.5071 300.2944224 +22.8328389     12703.61     72.27231      1.665     3.28     4.900621     20.38502     1173.034        49     1.356     1.345  39.94   0
       161    507.2014    558.4890 300.1592131 +22.7017431     11697.65     72.18025      1.531     2.80     5.169147     20.38502     1253.982        48     1.307     1.242 -53.63   0
       162    676.9843    554.2672 300.2134792 +22.7513858     557.8229     72.25391      1.376     3.03     5.097208     20.38502     76.10052        10     1.021     0.686 -81.41   0
       163    234.4739    553.8254 300.0758423 +22.6186765     1502.367     72.27231      1.815     3.96     4.963992     20.38502     136.1869        21     1.268     1.057  21.08   0
       164    481.5396    551.8264 300.1533850 +22.6921411     381.4634     72.25391      1.413     4.28     5.137068     20.38502     48.16531         9     0.891     0.780 -38.19   0
       165    438.8675    546.7155 300.1417577 +22.6778880     4308.543     72.36425      1.491     2.83     5.091926     20.38502     508.0201        32     1.201     1.137  26.94   0
       166    781.5645    546.9457 300.2484576 +22.7805977     828.5858     72.27231      1.502     3.52     4.911268     20.38502     82.96194        14     1.071     0.882  30.07   0
       167    417.1838    545.0159 300.1355589 +22.6709029     1140.235     72.21709      1.480     3.51     5.068901     20.38502     106.8735        17     1.143     0.963  68.02   0
       168    171.4978    544.5089 300.0592805 +22.5971239     779.2756     72.43771      1.689     3.77     4.897149     20.38502     80.71175        15     1.256     0.981 -32.48   0
       169    858.8522    542.3165 300.2740634 +22.8024059     1497.529      72.2907      1.643     3.53     4.865472     20.38502     131.2283        22     1.238     1.112 -64.03   0
       170    105.2514    542.3533 300.0393825 +22.5766447     468.7522      72.2907      1.722     5.70     4.989504     20.38502     43.18119        10     1.323     0.889   5.58   0
       171    555.5013    534.2869 300.1821149 +22.7092589     207558.6     72.41936      1.493     2.71     5.337489     20.38502     23487.58       208     1.543     1.455 -13.77   0
       172    379.5219    540.4429 300.1253202 +22.6583043     389.7384      72.2355      1.564     3.61     5.055812     20.38502     39.78747         6     1.053     0.478 -81.07   0
       173    739.3790    539.2107 300.2378167 +22.7657430     895.0522      72.2355      1.443     2.91     5.063756     20.38502     95.29549        14     0.981     0.878  54.83   0
       174    832.2131    538.5897 300.2669650 +22.7933595     332.6903     72.16183      1.396     3.48     4.854623     20.38502     28.28308         5     0.770     0.453 -17.89   0
       175    241.5194    534.1239 300.0844303 +22.6151317     3502.731     72.36425      1.640     3.15     4.958347     20.38502     361.8116        34     1.309     1.230  48.95   0
       176    807.5658    530.5853 300.2618774 +22.7836794     499.2887      72.2355      1.672     4.49     4.832642     20.38502     40.65194         8     0.946     0.772 -27.40   0
       177    446.1355    514.5408 300.1544664 +22.6708234     2843.379      72.2907      1.562     2.79     5.148697     20.38502     267.8641        29     1.196     1.177  82.70   2
       178    290.3451    516.8318 300.1052339 +22.6247999     340.9665     72.27231      1.326     2.11     4.993017     20.38502       60.784         6     0.715     0.567 -36.42   0
       179    857.4046    511.1409 300.2837339 +22.7930091     355.3137     72.21709      1.454     3.71      4.85792     20.38502      47.5195         7     0.865     0.748  18.73   0
       180    677.0019    510.3908 300.2277302 +22.7387811     203.2244     72.06963      1.022     3.86     5.108764     20.38502     35.22329         5     0.880     0.486  -3.72   0
       181    763.2061    503.8662 300.2567202 +22.7627174      352.138     72.25391      1.484     3.84      4.96222     20.38502     34.26574         6     1.441     0.294  -6.98   0
       182    843.2973    500.9752 300.2826341 +22.7858632     1775.107     72.18025      1.543     3.08     4.835395     20.38502     170.2923        21     1.145     1.062 -52.06   0
       183    729.9968    501.2842 300.2472051 +22.7520321     267.4398     72.18025      1.437     4.26     5.090802     20.38502     33.46037         7     0.731     0.709  49.52   0
       184    714.2466    498.4696 300.2432091 +22.7465072     2550.924      72.2355      1.428     2.64     5.097438     20.38502     309.7086        26     1.137     1.095  39.60   0
       185    957.5226    492.0403 300.3211694 +22.8174824     918.4659      72.2355      1.998     4.25     5.091236     20.38502     77.70312        13     1.289     0.713  50.32   2
       186    619.3715    495.1158 300.2147299 +22.7171327      488.567     72.25391      1.492     2.49     5.417996     20.38502     67.93569         6     0.824     0.473  48.47   0
       187    501.7218    494.2904 300.1783492 +22.6816578      772.609     72.40099      1.412     3.73     5.337893     20.38502     74.74698        16     1.122     0.965  65.27   0
       188    971.6389    492.7671 300.3253385 +22.8219160     1269.561      72.2907      1.600     3.36     5.135038     20.38502     123.3799        18     1.200     0.958  55.90   0
       189    843.5114    490.9932 300.2859414 +22.7830572     2272.009     72.16183      1.793     3.76     4.830956     20.38502     208.4127        28     1.449     1.097  78.98   0
       190    596.8611    489.1269 300.2096604 +22.7086701     495.3911      72.2907      1.257     2.55     5.511711     20.38502     68.09112         9     0.774     0.738   5.58   0
       191    435.0534    487.8424 300.1596829 +22.6598336     341.5809     72.25391      1.437     3.87     5.184426     20.38502     41.00475         6     0.938     0.457 -31.75   0
       192    881.6179    486.1255 300.2994076 +22.7930638     4316.335     72.25391      1.543     2.96     4.902899     20.38502     420.3228        34     1.236     1.215   5.21   0
       193    596.1968    485.3495 300.2106796 +22.7073857     425.2789     72.25391      1.283     2.47     5.522437     20.38502     51.86721         5     0.742     0.421  21.45   0
       194    522.4446    485.7194 300.1875853 +22.6854025     369.6647      72.2355      1.488     3.03     5.511414     20.38502     46.19227         6     0.889     0.447  -3.31   0
       195    619.5632    483.2279 300.2186486 +22.7137737     313.5825     72.25391      1.588     3.76      5.41772     20.38502     31.85705         5     1.002     0.405   6.86   0
       196    542.6624    482.0242 300.1950820 +22.6903964      319.156      72.2355      1.294     2.77     5.696125     20.38502     47.82759         7     0.823     0.579  60.58   0
       197    973.1289    476.9012 300.3309540 +22.8177986     645.2368     72.40099      1.476     3.52     5.219313     20.38502     67.86362        16     1.116     0.944  16.32   0
       198    113.5799    476.0461 300.0634957 +22.5601077     970.1423      72.3091      1.571     3.54     5.018867     20.38502     112.2799        18     1.210     1.019  -8.31   0
       199    913.5090    474.5294 300.3131208 +22.7992741     184.7894     72.41936      1.972     4.19      5.00453     20.38502     30.34621         5     1.219     0.412  35.37   0
       200    742.9418    473.6716 300.2602042 +22.7479702     167.7812      72.2907      1.325     3.84     5.068568     20.38502     35.77234         5     1.481     0.286  39.89   0
       201    774.8640    470.6172 300.2711483 +22.7566490     334.0284      72.2355      1.223     3.47     4.918389     20.38502     32.59173         5     0.814     0.428  19.43   0
       202    713.8166    460.8219 300.2552957 +22.7355563     509.2395      72.2355      1.532     3.54     5.107021     20.38502     55.22328        10     0.930     0.847  22.31   0
       203    602.8400    458.3319 300.2215189 +22.7016106     339.6839     72.21709      1.084     2.54     5.584987     20.38502     51.99703         7     0.797     0.598  32.87   0
       204    322.1323    458.2549 300.1341385 +22.6175024     445.0931      72.2907      1.917     4.03     5.201869     20.38502     40.28721         7     1.075     0.817 -12.93   0
       205    654.8480    456.5304 300.2383095 +22.7166666     847.3027      72.2355      1.551     3.23     5.246396     20.38502     88.63763        14     1.131     0.778  20.33   0
       206     15.8375    450.5027 300.0414042 +22.5234731     401.0661     72.25391      1.723     4.27     5.826179     20.38502     30.16497         6     1.047     0.495   4.22   0
       207    969.9558    449.2581 300.3389366 +22.8088982     477.4049     72.27231      1.430     3.74     5.383791     20.38502     55.08541        10     1.101     0.676 -22.56   0
       208    715.7603    448.7564 300.2598177 +22.7326698     918.0345     72.34587      1.407     2.80     5.108926     20.38502     104.7587        14     1.012     0.838  14.34   0
       209    873.0099    445.2066 300.3100045 +22.7787205     1071.026     72.10652      1.552     3.21      5.10267     20.38502     103.5079        18     1.153     0.975  57.35   0
       210    857.6630    441.5448 300.3064060 +22.7730742     709.5692      72.3091      1.654     3.40     5.096346     20.38502     71.17643        13     1.014     0.925  41.06   0
       211    837.4662    441.9879 300.2999627 +22.7671566     417.5886     72.21709      1.842     4.43     5.045127     20.38502     40.41214         5     1.005     0.556 -13.89   0
       212    601.6371    439.1724 300.2273625 +22.6957438     3359.298     72.25391      1.491     2.77     5.653842     20.38502     345.8951        29     1.217     1.099  65.17   0
       213    962.0735    438.4291 300.3399916 +22.8034247      573.863     72.27231      1.548     3.96     5.401972     20.38502     53.94796        10     1.061     0.711  10.24   0
       214     77.5519    430.6143 300.0670396 +22.5362650     376.9709      72.2907      1.604     2.99     5.363266     20.38502     54.61439         6     0.918     0.435 -15.60   0
       215    441.2953    426.1794 300.1816396 +22.6439879     343.1518     72.16183      1.459     5.12     5.239012     20.38502     47.75604         7     1.022     0.724 -75.70   0
       216   1013.0313    418.6302 300.3623207 +22.8129764     1280.641     72.25391      1.533     3.01     5.894798     20.38502     150.4214        19     1.183     0.998 -70.66   0
       217    971.3599    417.1601 300.3497923 +22.8000854     988.4575     72.32748      1.679     3.26     5.594346     20.38502     103.6892        17     1.144     0.956  79.58   0
       218    884.8649    418.2287 300.3224582 +22.7745099     629.6184     72.25391      1.556     3.16     5.267265     20.38502     66.15222         9     0.950     0.697  26.38   0
       219    621.4803    415.3233 300.2412850 +22.6948309     402.4984     72.36425      1.412     3.84     5.609694     20.38502     43.64082         6     1.030     0.411 -36.27   0
       220    712.2308    413.2473 300.2702415 +22.7214047     1203.839      72.2907      1.456     3.08     5.119874     20.38502     111.3684        17     1.017     1.007 -85.27   0
       221    508.1898    413.7406 300.2065067 +22.6604499      390.914     72.19868      1.392     3.91      5.52227     20.38502     50.23928        10     0.923     0.867  -1.68   0
       222    216.0707    411.4804 300.1163206 +22.5722870     717.3624     72.36425      1.506     3.00     5.215211     20.38502     68.82076        14     0.998     0.865 -32.11   0
       223     56.0493    409.4795 300.0672138 +22.5237519     335.3676     72.25391      1.650     4.12     5.550656     20.38502     35.91937         5     1.070     0.452 -61.61   0
       224   1011.7363    405.8011 300.3660799 +22.8088982     4258.634     72.25391      1.627     3.24     5.805158     20.38502     394.4813        37     1.324     1.284 -74.17   0
       225    278.6020    406.8946 300.1372612 +22.5897073     3773.385     72.16183      1.564     3.08     5.229646     20.38502     407.4793        31     1.252     1.155  59.68   0
       226    225.7279    401.6883 300.1225017 +22.5723687     7636.773     72.41936      1.583     3.06     5.251507     20.38502     826.1726        41     1.309     1.252  46.96   0
       227    991.7665    397.0568 300.3626847 +22.8004080      1772.59     72.27231      1.522     3.10      5.61988     20.38502       166.58        25     1.238     1.057  32.91   0
       228    366.5210    395.9827 300.1681612 +22.6129131      4848.88     72.25391      1.504     2.90      5.24273     20.38502     556.0045        36     1.277     1.179  79.34   0
       229    610.7200    392.7836 300.2452463 +22.6851301     18748.07     72.27231      1.468     2.75      5.70451     20.38502     2285.804        57     1.339     1.243  25.12   0
       230    628.4587    392.8918 300.2507384 +22.6904724     989.5181     72.32748      2.040     7.17     5.556122     20.38502     68.83585        19     1.735     0.868 -45.94   0
       231    458.3905    394.2586 300.1973206 +22.6399364     328.6098     72.21709      1.319     3.51     5.375183     20.38502     40.51861         5     0.761     0.466  76.10   0
       232    453.9132    392.7924 300.1964022 +22.6381741       365.55     72.16183      2.233     3.41     5.366978     20.38502     36.22628         5     0.729     0.682 -28.00   0
       233    468.6266    390.0137 300.2018852 +22.6417824     454.8264     72.25391      2.109     5.22     5.434065     20.38502     27.81817         8     1.387     0.554  20.81   0
       234    808.0401    383.2431 300.3098495 +22.7414562      480.304     72.34587      1.583     3.86     5.040462     20.38502     43.80244         9     0.926     0.726   9.64   0
       235    231.0885    380.1600 300.1311542 +22.5677919     458.2587      72.2355      1.875     4.42     5.330686     20.38502      40.8395         6     0.952     0.584 -16.30   0
       236    944.2882    375.5689 300.3548410 +22.7800211     750.9501      72.2355      1.638     4.14     5.349411     20.38502     72.51443        16     1.193     0.921 -44.70   0
       237    165.3608    372.7325 300.1131213 +22.5459631     2125.953     72.21709      1.652     3.03      5.32667     20.38502     231.6232        28     1.290     1.168  31.57   0
       238    965.1998    362.8621 300.3654894 +22.7826222     1241.862     72.19868      1.572     3.23     5.361328     20.38502      147.764        19     1.157     1.019  36.84   0
       239    551.4445    362.1801 300.2367091 +22.6585847     6757.156      72.3091      1.434     2.66     5.815648     20.38502      712.983        37     1.225     1.133  85.61   0
       240    266.3125    361.4444 300.1481840 +22.5729700     609.7115      72.2355      1.370     3.54     5.316406     20.38502     82.42191        13     1.115     0.833  66.41   0
       241    124.2163    354.9732 300.1060889 +22.5285329     433.7678     72.27231      1.389     2.56      5.44027     20.38502     68.00755         5     0.779     0.454 -22.05   0
       242    811.9002    354.4961 300.3203805 +22.7343442     318.4241     72.45607      1.099     3.05     5.002641     20.38502     44.12626         6     0.774     0.488  10.60   0
       243    665.2416    352.8080 300.2752066 +22.6899613     471.6866     72.27231      1.434     4.36       5.2811     20.38502     60.21785        10     0.991     0.875 -42.96   0
       244    755.5651    351.2211 300.3038768 +22.7165419     1166.842     72.27231      1.498     3.09     5.083255     20.38502     149.5667        20     1.144     1.064  89.08   0
       245    458.0163    348.4149 300.2120778 +22.6266505      6278.53     72.21709      1.433     2.69     5.590525     20.38502     733.4158        34     1.181     1.176 -25.71   0
       246    850.1908    343.0406 300.3360392 +22.7425082     1427.125     72.25391      1.425     2.94     5.297637     20.38502      154.417        21     1.117     0.998  85.03   0
       247    947.2504    343.1614 300.3662800 +22.7715844     570.0518     72.27231      1.404     4.05     5.334131     20.38502     65.11623        10     0.949     0.828  70.96   0
       248    442.8882    337.5096 300.2109051 +22.6189859     494.4893     72.41935      1.355     2.60     5.526045     20.38502      54.2905         6     0.755     0.500   0.69   0
       249    525.3635    335.0943 300.2373724 +22.6429898     391.5638     72.25391      1.136     2.34     5.806754     20.38502     69.62002         7     0.715     0.683 -44.50   0
       250    803.5281    334.2790 300.3243286 +22.7260241     436.4058     72.36425      1.502     3.83     5.109713     20.38502     38.90031         6     0.939     0.448  -1.54   0
       251    822.7008    331.0529 300.3313543 +22.7308339     408.2228     72.34587      1.166     2.76     5.221215     20.38502     78.53293         9     1.053     0.626 -54.32   0
       252    345.7224    327.4767 300.1839130 +22.5870006      2525.17     72.36425      1.553     2.92     5.494508     20.38502     305.9945        27     1.249     1.106 -74.77   0
       253     63.8799    324.9929 300.0970565 +22.5018414     1089.483     72.18025      1.946     3.91     5.668856     20.38502     102.6851        19     1.260     1.151  72.54   0
       254    314.9557    316.9896 300.1777400 +22.5747715     30208.01     72.25391      1.514     2.96     5.519239     20.38502     3000.575        73     1.412     1.283  63.55   0
       255    849.5043    314.7437 300.3450047 +22.7341635     1457.813     72.32748      1.569     3.12     5.403375     20.38502     161.4801        22     1.344     0.956  59.31   0
       256    804.8503    312.8262 300.3317001 +22.7202497     321.7013     72.27231      1.296     3.64     5.293176     20.38502     48.00776         5     1.269     0.301  29.35   0
       257     11.2687    304.7586 300.0872675 +22.4802633     4982.064      72.2355      1.802     3.30     5.978972     20.38502     539.5328        39     1.444     1.327  45.65   0
       258    764.9628    303.5510 300.3222710 +22.7056453     684.8623     72.27231      1.571     3.06     5.390105     20.38502     75.58456        10     0.939     0.817  -3.73   0
       259    189.3102    303.0391 300.1431768 +22.5331227     498.4419      72.2355      1.811     4.19     5.600951     20.38502     45.11039         7     0.903     0.693  79.66   0
       260    413.6353    302.4116 300.2131825 +22.6001386      607.079     72.25391      1.587     3.11      5.56789     20.38502      64.7348         9     0.900     0.687 -11.82   0
       261    725.4766    297.0423 300.3120717 +22.6919560      2007.15      72.2355      1.423     2.66     5.411663     20.38502     218.3365        24     1.133     1.057  74.50   0
       262    533.6084    291.5618 300.2540611 +22.6329452     341.4619     72.27231      1.515     4.41     5.825276     20.38502     52.89376         7     0.966     0.572  58.26   0
       263    940.6425    290.2538 300.3813810 +22.7543857     614.5767     72.25391      1.495     3.02     5.380352     20.38502     79.32029        11     1.014     0.780 -18.77   0
       264    387.2210    281.5062 300.2117400 +22.5862202       2142.2     72.18025      1.671     3.61     5.733454     20.38502     203.3339        29     1.459     1.051  56.13   0
       265    826.5131    274.6806 300.3508287 +22.7157597     766.6935     72.38262      1.537     3.03     5.513406     20.38502     96.66613        12     0.958     0.894 -76.49   0
       266    818.5690    275.6910 300.3480235 +22.7136734     367.6916     72.19868      1.338     3.44     5.514392     20.38502      49.8629         5     0.954     0.417  13.44   0
       267    708.9309    272.3973 300.3149072 +22.6799166     448.0142     72.21709      1.612     3.55     5.469314     20.38502     55.16713         8     0.905     0.700 -25.11   0
       268    677.1402    271.3249 300.3053459 +22.6700935     334.2635      72.3091      1.489     3.42     5.383171     20.38502     43.41881         5     0.965     0.351 -47.35   0
       269     35.6023    261.7772 300.1087690 +22.4752140     306.3382     72.19868      1.639     4.92     5.957303     20.38502     27.66382         5     1.066     0.643  24.79   0
       270    463.0771    260.8152 300.2420669 +22.6029889     1174.681     72.27231      1.406     2.75     5.763456     20.38502     134.6625        16     1.044     0.884 -32.29   0
       271    270.1580    261.5800 300.1817716 +22.5454326     357.5917      72.2907      1.446     3.51     5.757858     20.38502     35.21289         5     0.816     0.435 -19.68   0
       272    547.9109    258.9413 300.2690956 +22.6278495     298.1101     72.32748      1.147     3.70     5.604221     20.38502     37.92595         5     0.667     0.590  -3.11   0
       273    974.1061    257.5544 300.4024290 +22.7549867     350.7116     72.27231      1.241     4.52      5.34654     20.38502     39.99688         7     1.179     0.493   3.30   0
       274    708.0309    252.7725 300.3209912 +22.6740033      2241.01     72.25391      1.445     3.17     5.560552     20.38502     253.1933        24     1.200     0.992  54.08   0
       275    969.2474    247.1756 300.4042786 +22.7505468     3253.699     72.27231      1.623     3.13     5.351792     20.38502     381.5191        32     1.408     1.185 -76.92   0
       276    416.0047    236.6006 300.2352628 +22.5819339     636.4608     72.06963      1.538     3.75      5.78949     20.38502     78.92091        11     1.076     0.795  59.53   0
       277     91.1281    230.5909 300.1361411 +22.4828958      1542.98      72.2355      1.878     3.96     5.970765     20.38502     122.0044        25     1.410     1.139 -12.32   0
       278    122.3130    230.8587 300.1457497 +22.4923163     606.8801     72.32748      1.519     3.97     5.915646     20.38502     59.46551        11     0.994     0.857  -6.27   0
       279    985.2773    227.9290 300.4155227 +22.7498025     549.2598     72.36425      1.548     3.34     5.334985     20.38502     57.85364         9     0.906     0.670  14.57   0
       280    839.0239    227.4790 300.3700381 +22.7059240     339.7766      72.2355      1.590     5.58     5.542966     20.38502     39.88645         6     1.185     0.740 -81.36   0
       281    828.2253    224.8338 300.3675279 +22.7019323     414.0696     72.25391      1.731     5.62     5.561836     20.38502     44.91155         8     1.190     0.748  87.49   0
       282    175.2734    222.3448 300.1649789 +22.5057370     496.7898     72.25391      1.746     5.49     5.867064     20.38502     64.97374        11     1.496     0.617 -65.57   0
       283    970.0356    220.3901 300.4132106 +22.7430744     302.3399     72.25391      1.537     4.32     5.341825     20.38502     35.00447         7     0.786     0.675   6.14   0
       284    851.2656    216.2086 300.3775108 +22.7063438     441.3614     72.21709      1.783     4.44     5.516249     20.38502     39.74161         8     1.186     0.611  83.05   0
       285    779.6733    214.4845 300.3557427 +22.6844286     765.3019     72.36425      1.523     2.88     5.646712     20.38502     101.1988        12     1.028     0.782 -63.25   0
       286    370.1723    213.3059 300.2285486 +22.5615142     409.7393     72.16183      1.560     5.10     5.836851     20.38502     49.17709         9     1.207     0.769 -66.01   0
       287    877.8774    203.3482 300.3899818 +22.7106045     2060.044     72.25391      1.491     2.57     5.451183     20.38502     262.4558        26     1.240     1.133 -38.13   0
       288    374.1947    195.4745 300.2355818 +22.5575936     1086.938     72.18025      1.656     3.19     5.854749     20.38502     112.4901        18     1.184     1.023  57.17   0
       289    776.1359    195.1494 300.3609087 +22.6778080     534.0649      72.3091      1.259     2.33     5.668698     20.38502     70.86348         9     0.769     0.707  25.42   0
       290    126.2280    195.5581 300.1584119 +22.4833489     414.5213     72.27231      1.754     3.77      5.96867     20.38502     41.36074         6     1.041     0.489  -5.36   0
       291    296.3255    200.4500 300.2097345 +22.5357047     2149.698     72.25391      1.449     2.82     5.795636     20.38502     239.1775        24     1.218     1.084  69.34   0
       292    191.1369    187.8796 300.1810863 +22.5005872     718.3805     72.34587      1.401     3.92     5.831459     20.38502     94.08631        13     1.192     0.763 -29.73   2
       293    309.1788    187.0500 300.2180783 +22.5357031      282.535     72.25391      1.400     4.84      5.79507     20.38502     28.44288         5     0.993     0.669 -56.21   0
       294    728.9556    184.8267 300.3495455 +22.6607218     1667.289     72.27231      1.381     2.68     5.717073     20.38502     216.5887        19     1.043     0.960 -76.09   0
       295    794.1124    184.0692 300.3701066 +22.6799986     510.5441     72.40099      1.399     5.14     5.669044     20.38502     70.20276         9     1.231     0.665 -68.97   0
       296    212.7002    180.8604 300.1900688 +22.5050293     649.9643     72.34587      1.675     3.53     5.791749     20.38502     60.79568        11     1.039     0.776 -40.69   0
       297    454.8493    180.5674 300.2655243 +22.5774572     141.9028      72.2907      1.158     4.46     5.884126     20.38502     33.09497         5     1.150     0.491   3.57   0
       298   1000.4996    177.6346 300.4365811 +22.7398798     975.5108      72.2355      1.705     3.14     5.173617     20.38502     99.90395        15     1.104     0.849 -26.34   0
       299    502.4236    177.2293 300.2814217 +22.5907396     376.6349     72.25391      1.422     2.55     5.702526     20.38502     43.30841         6     0.680     0.631 -19.28   0
       300    733.0693    175.6647 300.3537982 +22.6593172     880.7674      72.3091      1.786     5.77     5.710182     20.38502     81.43208        17     1.505     1.057  83.64   0
       301    653.3599    175.3619 300.3290508 +22.6353784     1227.528     72.32748      1.425     2.89     5.878969     20.38502     154.1657        20     1.107     1.045 -82.62   0
       302    848.7803    167.0872 300.3926617 +22.6914668     1478.567     72.18025      1.476     2.98     5.476211     20.38502     147.6312        21     1.131     1.029  50.74   0
       303    579.5670    167.2090 300.3086999 +22.6109491     1025.226     72.25391      1.490     2.64     5.645874     20.38502     106.0728        14     0.932     0.872 -54.44   0
       304    861.0369    166.3060 300.3967380 +22.6949083     875.8942      72.2355      1.591     3.22     5.421161     20.38502     96.73871        15     1.086     0.945  44.62   0
       305    907.1037    164.8901 300.4115681 +22.7082799     388.2769     72.43771      1.703     4.19     5.396942     20.38502     35.41753         6     1.178     0.426  63.29   0
       306   1021.8619    156.9748 300.4499466 +22.7403210     1647.705     65.37461      1.646     3.20     5.099534     20.38502     173.7316        28     1.355     1.183  72.43  24
       307    977.7418    156.4043 300.4363609 +22.7269634     1205.867     72.21709      1.562     2.92     5.268168     20.38502      134.211        21     1.210     1.011 -63.76   0
       308    211.6077    149.1058 300.2000222 +22.4955776     592.1588      72.1434      1.488     3.57     5.769691     20.38502     74.16794        12     1.091     0.833  15.65   0
       309     73.5888    143.8078 300.1588212 +22.4527129     2223.535      72.1434      1.688     3.39     6.410404     20.38502     211.8966        29     1.325     1.216  53.84   0
       310    896.6279    141.0458 300.4160293 +22.6982846     740.4131      72.2907      1.663     3.68     5.539861     20.38502     81.22412        14     1.046     0.971   2.24   0
       311     23.8321    140.8468 300.1443150 +22.4369554     439.3606      72.2907      1.372     2.80     6.760518     20.38502     48.50528         8     0.836     0.610 -49.03   0
       312    230.8938    137.2159 300.2098752 +22.4979370     5654.363     72.18025      1.614     3.12     5.736288     20.38502     572.7589        38     1.317     1.253  45.10   0
       313     15.0203    131.4165 300.1446328 +22.4316066      1345.29      72.2355      1.885     4.01     6.796783     20.38502     127.9637        24     1.297     1.261  13.30   0
       314    214.4426    128.0627 300.2077243 +22.4903797      670.699     72.25391      1.883     4.12     5.777236     20.38502     55.95833        11     0.993     0.913 -16.49   0
       315    875.1440    119.0506 300.4164565 +22.6855291     3613.802      72.2907      1.562     2.99     5.657067     20.38502     433.0865        29     1.253     1.132 -72.60   0
       316    978.8840    117.8546 300.4492132 +22.7162087     2840.711      72.3091      1.621     3.31     5.741921     20.38502     270.0248        30     1.328     1.196 -63.14   0
       317    424.5746    114.2102 300.2776068 +22.5493164     539.7576     72.25391      1.419     3.50     5.977075     20.38502     74.11918        11     1.098     0.823 -36.16   0
       318    177.6883    114.4903 300.2006913 +22.4754718     389.6168     72.41936      1.585     5.46     5.959608     20.38502     39.68758        10     1.048     0.802  -0.85   0
       319    538.9812    112.4722 300.3137985 +22.5830610      322.513     72.25391      1.351     3.80     5.798757     20.38502     38.58376         6     0.843     0.490   7.95   0
       320    349.0573    105.7792 300.2568313 +22.5242845     594.9645     72.25391      1.453     3.59     5.830595     20.38502     72.64476        13     1.029     0.916 -83.03   2
       321    352.8401    104.6300 300.2583811 +22.5250867     400.9689     72.25391      1.304     4.46     5.831176     20.38502     55.52511         7     0.855     0.812 -80.01   3
       322    115.0145    102.8101 300.1849870 +22.4533438     504.4558     72.16183      1.585     3.35     6.450664     20.38502     60.73307        10     1.080     0.679 -30.17   0
       323    475.8263    101.4196 300.2977107 +22.5609802     1771.437     72.27231      1.441     2.68     6.026138     20.38502     229.6572        20     1.078     0.978 -87.07   0
       324    403.9695    101.9104 300.2751781 +22.5396118     464.9324     72.21709      1.355     2.63      5.95045     20.38502     64.07085         9     0.867     0.697  71.96   0
       325    537.7312    100.9044 300.3171582 +22.5793601     455.8508     72.38262      1.806     3.56     5.893715     20.38502     51.44267         7     0.932     0.792  62.22   0
       326    219.3515     96.6449 300.2194332 +22.4828210     521.6863      72.2907      1.711     2.81     5.767746     20.38502     56.98763         7     0.863     0.560 -50.50   0
       327    764.1801     90.9521 300.3909560 +22.6442527     315.5486     72.27231      1.377     3.53     5.804011     20.38502     54.84584         8     1.003     0.600 -81.19   0
       328    249.9324     81.0576 300.2339974 +22.4874987     6012.713      72.2907      1.628     3.10     5.844015     20.38502     583.7061        41     1.422     1.255  74.97   0
       329    756.9506     82.1556 300.3915526 +22.6395590     375.9834      72.2907      1.904     4.97     5.777931     20.38502     50.66491         9     1.305     0.633 -32.88   0
       330    101.0165     80.9816 300.1877083 +22.4428791     640.7847      72.2355      1.464     3.58     6.634986     20.38502     74.56882        11     1.117     0.673   1.90   0
       331    879.5674     79.3069 300.4307169 +22.6754136     410.1721     72.19868      1.486     3.43     5.899479     20.38502     41.75802         6     0.884     0.461  -0.81   0
       332    222.1276     74.9042 300.2273416 +22.4774041     420.2807     72.38262      1.587     3.62     5.890005     20.38502     62.96783         7     0.962     0.832 -77.22   0
       333    265.6749     72.6708 300.2416128 +22.4898019     299.8916     72.32748      1.165     3.24     5.880884     20.38502     44.54022         5     0.747     0.457  10.54   0
       334     11.7460     71.8152 300.1629291 +22.4135047     419.4174     72.27231      1.657     4.39     6.281835     20.38502     38.93071         5     1.142     0.480 -36.85   0
       335    496.0466     66.5514 300.3153070 +22.5570052     6330.823     72.27231      1.526     2.86     5.926325     20.38502     752.1879        36     1.312     1.141  72.25   0
       336    381.4427     66.6565 300.2795894 +22.5227325     546.5763     72.21709      1.365     2.79      5.88855     20.38502     81.41779        11     0.953     0.755  19.78   0
       337    553.2641     61.3007 300.3348304 +22.5726183     282.1628     72.34587      1.145     4.01     5.889317     20.38502     57.23874         6     0.892     0.515 -48.51   0
       338    428.0482     58.4262 300.2967654 +22.5343167     1283.323     72.27231      0.655     2.45     5.962495     20.38502     635.3692         6     0.650     0.278 -79.71   0
       339    748.5964     56.6136 300.3972246 +22.6297105     883.3763     72.10653      1.730     2.87     5.739319     20.38502     81.76488        11     0.908     0.789 -31.01   0
       340    841.0102     55.6555 300.4263539 +22.6570753     421.2613     72.25391      1.330     2.98     5.991333     20.38502     54.68298         7     0.758     0.599  12.15   0
       341    980.7709     54.4471 300.4703510 +22.6985193     1072.125     72.27231      0.694     0.66     6.196447     20.38502     524.6325         6     0.550     0.466 -67.54   0
       342    547.4204     49.3259 300.3368901 +22.5674253     448.8485     72.25391      1.502     4.09     5.907454     20.38502     45.17484         7     0.993     0.482 -82.95   0
       343    189.3214     50.4187 300.2250708 +22.4605429     476.8225     72.25391      1.406     2.66      6.31697     20.38502      63.8989         6     0.804     0.511 -50.56   0
       344    624.4459     46.7044 300.3617378 +22.5897186     6217.885     72.27231      1.532     2.93     5.707357     20.38502      698.803        38     1.345     1.159 -88.38   0
       345    399.3723     45.6339 300.2919825 +22.5220550     1524.575     72.27231      1.513     2.94     5.928151     20.38502     177.0921        18     1.142     0.953 -79.13   0
       346    665.7582     44.0898 300.3754596 +22.6013263     800.7598     72.27231      1.417     2.99     5.670087     20.38502      96.6854        14     1.000     0.865 -74.04   0
       347    681.5530     40.3954 300.3815796 +22.6049886     769.1822      72.2355      2.056     4.18     5.661287     20.38502     60.59616        11     1.256     0.817 -62.81   0
       348    951.1755     37.8648 300.4664880 +22.6848968     497.4859      72.2355      1.481     4.37     6.264226     20.38502     64.14755        10     1.204     0.737  66.73   0
       349    148.2150     37.9623 300.2163224 +22.4446532     611.5133     72.25391      1.576     3.18     6.665783     20.38502     58.98923        11     0.885     0.844 -48.13   0
       350    990.5895     37.5431 300.4788927 +22.6965881     332.2041     72.21709      1.199     3.81      6.26748     20.38502      33.2257         6     1.027     0.405  17.92   0
       351    720.0320     35.9004 300.3950306 +22.6152059     550.4384      72.2355      1.321     3.08      5.65862     20.38502      74.7495        11     1.010     0.777  27.98   0
       352    668.6843     31.6875 300.3803900 +22.5986334     2829.933     72.38262      1.623     2.70     5.659958     20.38502     320.4935        29     1.255     1.170 -71.21   0
       353    309.3917     32.3356 300.2682844 +22.4912958     406.3005      72.2355      1.508     5.90     5.921484     20.38502     45.93303        11     1.137     0.861 -42.03   0
       354    683.9644     30.8384 300.3854277 +22.6029601     807.6103     72.32748      1.973     5.30     5.655287     20.38502     68.09376        15     1.472     0.870  41.30   0
       355    755.0843     23.1652 300.4100849 +22.6220258      1629.54     72.21709      1.557     2.95     5.777565     20.38502     182.9916        25     1.195     1.165 -42.64   0
       356    733.3867   1014.1518 300.0815872 +22.9003855     325.5483     72.27231      1.671     4.75     4.179707     20.38502     31.86619         5     1.353     0.472 -84.62   0
       357    297.7717   1012.5150 299.9464634 +22.7692896     1580.838     72.25391      3.845     6.07     6.533561     20.38502     84.22738        31     1.601     1.441 -71.56   0
       358     71.9407     15.9272 300.1997456 +22.4154779     492.8844      72.2907      1.527     3.05     6.303235     20.38502     63.94263         8     0.987     0.616 -11.88   0
       359      2.7357   1019.8890 299.8523347 +22.6828678     1397.378     63.13963      4.977    12.08    -13.03837     20.38502     44.19166        33     2.599     1.563  54.25  27
       360    784.9243     12.6377 300.4228001 +22.6279209     448.7711     72.19868      1.437     1.91     6.005204     20.38502     61.13548         6     0.745     0.476  -6.68   0
       361    152.3214   1009.4439 299.9022253 +22.7247681     759.2032      72.2355      2.656     6.76      89.6779     20.38502     41.18791        11     1.921     0.667  66.89   2
       362    129.7819   1007.5950 299.8958193 +22.7174741     610.5046     72.21709      1.018    10.23     87.45858     20.38502     46.33001        15     2.482     1.174  67.20   2
       363    134.7412   1007.7487 299.8973110 +22.7190064     1349.228      72.3091      2.590     9.27     87.76824     20.38502     62.82043        21     2.358     1.018  25.90   3
