#   1 NUMBER                 Running object number                                     
#   2 X_IMAGE                Object position along x                                    [pixel]
#   3 Y_IMAGE                Object position along y                                    [pixel]
#   4 ALPHA_J2000            Right ascension of barycenter (J2000)                      [deg]
#   5 DELTA_J2000            Declination of barycenter (J2000)                          [deg]
#   6 FLUX_APER              Flux vector within fixed circular aperture(s)              [count]
#   7 FLUXERR_APER           RMS error vector for aperture flux(es)                     [count]
#   8 FLUX_RADIUS            Fraction-of-light radii                                    [pixel]
#   9 FWHM_IMAGE             FWHM assuming a gaussian core                              [pixel]
#  10 BACKGROUND             Background at centroid position                            [count]
#  11 THRESHOLD              Detection threshold above background                       [count]
#  12 FLUX_MAX               Peak flux above background                                 [count]
#  13 ISOAREA_IMAGE          Isophotal area above Analysis threshold                    [pixel**2]
#  14 A_IMAGE                Profile RMS along major axis                               [pixel]
#  15 B_IMAGE                Profile RMS along minor axis                               [pixel]
#  16 THETA_IMAGE            Position angle (CCW/x)                                     [deg]
#  17 FLAGS                  Extraction flags                                          
         1    225.9270     18.7652 300.2354684 +22.4424604     3930.191     72.61777      1.541     2.76     4.845428      20.4929     478.2899        35     1.399     1.176  68.20   0
         2    787.3239     11.4081 300.4126215 +22.6084353     918.2128     72.59926      1.406     2.56     5.574343      20.4929     120.5853        15     1.266     0.737  63.94   0
         3    341.9371     10.8239 300.2741225 +22.4749293      1195.61     72.61777      1.455     3.09     4.800928      20.4929     153.7413        18     1.074     1.000  35.20   0
         4    825.3129      6.6418 300.4260081 +22.6184319     703.3776     72.61777      1.653     3.29      5.37422      20.4929     71.52736        11     1.013     0.748  75.16  16
         5    748.5057      6.1740 300.4022198 +22.5953136     467.4538     72.58075      1.568     4.15      5.75562      20.4929     63.43838         7     1.090     0.515  52.56  16
         6    845.1437      2.8415 300.4334222 +22.6232723     2129.425     64.44032      1.327     2.39     5.229627      20.4929     317.7168        20     1.011     0.981 -38.11  24
         7    550.8033      1.4564 300.3421638 +22.5347808     367.1014     57.19245      1.026     2.33     4.620588      20.4929     63.23473         6     0.748     0.496  -5.02  24
         8    601.6555   1006.5720 300.0315463 +22.8386445     2390.738     72.63628      1.892     4.43     2.527351      20.4929     146.6157        33     1.420     1.358  10.04   0
         9    254.5569   1018.7937 299.9195707 +22.7379891      2530.81     72.65477      5.763    21.97     72.82726      20.4929     70.87003       129     4.652     2.881  15.46  27
        10    254.9814   1001.8310 299.9252233 +22.7332547     3978.992     72.61777      8.509    25.19     61.35681      20.4929     95.85397       272     5.368     4.830  50.57  19
        11    273.3753   1000.8577 299.9312591 +22.7384972     4673.114     72.63628      9.003    32.09     60.59901      20.4929     94.46335       406     7.390     4.832 -52.02  19
        12    293.1477    989.3289 299.9411592 +22.7411274     7198.579     72.63628      7.254    26.35     48.78586      20.4929     163.0551       560     8.761     4.521  57.67  18
        13    193.5482   1023.3557 299.8991206 +22.7209808     1016.393     58.40153      3.521    13.20     74.59319      20.4929     54.28885        32     3.441     1.409  53.87  27
        14    184.6065   1023.2529 299.8963749 +22.7182668     1395.755     58.83711      2.827    12.36     74.59319      20.4929     78.44054        29     2.751     1.775 -38.87  27
        15    186.7649   1021.5005 299.8976161 +22.7184126     1197.098     67.25668      2.070     8.17     73.96716      20.4929      70.6757        20     1.987     0.950  70.69  19
        16    135.6778   1013.2450 299.8844262 +22.7007081     5492.342     72.61777     13.763    56.09     52.93276      20.4929     121.4932      1265    13.227     7.899  22.04  27
        17    131.2801    970.3174 299.8970292 +22.6870865      5186.39     72.78413     24.963    89.55     29.89386      20.4929     131.7727      3669    20.043    16.040 -15.47  19
        18    221.8686    991.6638 299.9182378 +22.7204004     2691.667     72.69176     13.258    23.49     55.18624      20.4929     67.46425       142     5.449     2.812  67.42  19
        19    216.6892   1013.1028 299.9096506 +22.7249900     1631.024     72.82105      6.183    11.10     68.33289      20.4929     54.85375        33     2.476     1.385 -80.85  19
        20    706.5145    969.0618 300.0764130 +22.8593343     6901.393     72.76567      1.854     3.99     2.641466      20.4929     448.3272        48     1.489     1.400  24.55   0
        21    858.1942    962.5986 300.1257847 +22.9029595     465.6209     72.45103      2.124     6.60      2.54168      20.4929     36.53413         8     1.401     0.871  16.51   0
        22    586.0873    963.2288 300.0408046 +22.8215416     492.6895     72.63628      1.861     4.68     2.752497      20.4929     45.87479         7     0.842     0.737  41.32   0
        23    688.2258   1001.8528 300.0600439 +22.8632576     8507.194     72.65477      1.931     4.25     2.503086      20.4929     516.1157        48     1.486     1.457  46.02   3
        24    614.9864    959.8067 300.0509169 +22.8292282     1585.648     72.52518      1.752     3.99     2.761459      20.4929       135.46        22     1.260     1.120 -34.94   0
        25    508.8778    956.0737 300.0190967 +22.7963278     1044.584      72.7472      1.707     4.02     2.847715      20.4929     85.10383        22     1.264     1.143  89.46   0
        26    439.5233    954.0050 299.9981859 +22.7749266     6599.152     72.54371      1.841     4.42     3.241364      20.4929     499.7964        44     1.464     1.380  -7.86   0
        27    130.5914    932.3966 299.9091533 +22.6760124     3748.429     72.45103     17.128    47.91     12.25579      20.4929     81.05711       773    10.394     6.128 -44.45   3
        28    471.9541    941.4174 300.0123738 +22.7810468     488.7124     72.67326      2.084     4.90      2.98132      20.4929     58.42838        10     1.251     0.831   3.69   0
        29    184.4617    941.2786 299.9230053 +22.6947299     880.7462     72.71024      3.528     3.94     23.25868      20.4929     42.90193         5     1.019     0.436  74.80   0
        30     37.1921    988.3598 299.8619274 +22.6640045     455.6792     72.67326      1.838     5.69     5.272562      20.4929     30.14961        10     1.271     0.717 -40.77   0
        31    913.5717    937.8632 300.1510993 +22.9124596     426.0501     72.63628      1.141     3.43     2.694526      20.4929     36.72672         5     1.171     0.290 -35.00   0
        32    171.1580    935.5289 299.9207411 +22.6890883      1305.06     72.59926     12.689    13.54     20.12852      20.4929     38.26921        29     2.574     1.981   3.27   3
        33    985.7289    932.8427 300.1752362 +22.9326451     2138.128     72.59926      2.030     4.82     2.731153      20.4929     114.2664        32     1.478     1.360  11.72   0
        34    635.5568    930.3616 300.0669042 +22.8269502     371.9107     72.72872      1.669     4.82     2.907495      20.4929     32.69326         6     0.951     0.693 -21.28   0
        35    693.7791    999.5658 300.0625182 +22.8642670     9231.505     72.65477      1.897     4.27      2.49394      20.4929     527.8871        51     1.548     1.437  45.14   3
        36    484.0805    929.1750 300.0201311 +22.7811736     340.7963     72.61777      1.600     4.61     2.917584      20.4929     32.98866         8     0.912     0.661 -43.12   0
        37    774.6251    922.0105 300.1129453 +22.8662555      797.412     72.63628      2.096     6.10     2.829989      20.4929     46.44489        18     1.379     1.181  56.67   0
        38    789.0078   1002.6678 300.0911793 +22.8937151     673.6748     72.61777      1.915     4.52     2.352842      20.4929       67.769        15     1.243     1.056  54.60   0
        39    809.6906    916.0665 300.1258074 +22.8750623     1147.481      72.7472      1.891     4.39     2.836507      20.4929     78.97073        21     1.249     1.152 -25.67   0
        40    586.7943    917.1589 300.0560151 +22.8085375     363.4145     72.65477      1.634     4.34     2.960356      20.4929     33.75186         5     0.846     0.635 -39.88   0
        41    263.6931    914.6647 299.9562946 +22.7108827      657.593      72.7472      6.530     6.79     9.623896      20.4929     29.01903         8     2.102     0.615  67.59   0
        42    553.8186    991.4554 300.0215721 +22.8199582     440.6489     72.61777      1.930     3.42     2.608591      20.4929     33.57543         5     0.747     0.453 -20.37   0
        43     19.7546    912.8980 299.8810634 +22.6371471     535.8771     72.67326      1.629     4.62     3.117311      20.4929     48.97609         9     1.162     0.558 -70.75   0
        44   1022.1761    910.0143 300.1940335 +22.9370124     481.2426     64.39859      1.828     6.68     3.021158      20.4929     40.59649        10     1.339     0.933  88.91  24
        45    831.6591    909.6682 300.1347365 +22.8798116     11305.92     72.65477      1.790     3.91     2.909384      20.4929     721.9406        55     1.492     1.419  -1.97   0
        46    876.5464    909.6877 300.1487231 +22.8932728     503.9358     72.67326      1.770     5.26      2.91957      20.4929     33.81411         8     1.349     0.578  60.69   0
        47    231.9786   1020.8879 299.9118698 +22.7318112     1880.607     69.43919      5.652    13.80      73.5361      20.4929     64.06815        57     3.982     1.330 -21.67  27
        48    143.1507    900.8911 299.9233055 +22.6707530     998.5073     72.63628      3.732     4.83     9.344069      20.4929     66.22845        16     1.432     0.934  56.99   0
        49    883.4034    898.0065 300.1546613 +22.8919747     416.0279     72.45103      1.702     4.93     3.062921      20.4929     43.22005        10     1.154     0.867 -44.95   0
        50    536.7155    897.9255 300.0466812 +22.7879991     428.6483     72.72872      1.588     6.25     2.978164      20.4929     29.91817        10     1.518     0.724 -25.34   0
        51    840.1977    891.8533 300.1431940 +22.8772574     1314.348     72.59926      1.655     4.18      3.12415      20.4929     92.00437        21     1.270     1.092  68.18   0
        52   1022.4700    889.6828 300.2007401 +22.9312618     386.6931     63.02758      1.702     6.95     3.307636      20.4929     32.67434         8     1.944     0.696  52.84  24
        53    556.3211    890.3206 300.0552588 +22.7916979     247.7886     72.76567      1.620     4.75     2.977801      20.4929     33.04815         6     0.903     0.709  10.30   0
        54    691.7397    889.3651 300.0977418 +22.8320347     536.4744     72.65477      1.924     4.20     3.109511      20.4929     48.07589         7     1.050     0.480   1.96   0
        55    878.3632    885.4847 300.1571637 +22.8868691     929.4997     72.61777      2.103     4.36     3.212138      20.4929     56.98603        16     1.182     0.967  52.73   0
        56    986.6334    882.7303 300.1918231 +22.9185267     297.9011     72.61777      1.641     5.29     3.348367      20.4929     36.55934         6     1.107     0.714  -7.98   0
        57    926.5925    877.0257 300.1749537 +22.8988955     693.8521     72.61777      1.922     5.31     3.314646      20.4929     45.50682         9     1.198     0.664  39.30   0
        58    778.0101    875.2011 300.1292291 +22.8538351     717.5598     72.45103      1.738     5.12     3.317087      20.4929     61.59974        15     1.302     0.883  70.50   0
        59    789.0677    872.5650 300.1335326 +22.8563933      523.858     72.63628      1.596     4.85      3.34381      20.4929     56.80734        15     1.225     1.032 -73.72   0
        60    490.6137    871.8633 300.0408092 +22.7666942      4220.39     72.59926      1.640     3.48     3.261839      20.4929      402.841        30     1.246     1.201  -2.40   0
        61    981.0265    985.9680 300.1564807 +22.9464884     809.4258     72.63628      1.981     6.93     2.494633      20.4929      63.8056        20     1.505     1.099  25.15   0
        62    533.8958    860.3460 300.0580280 +22.7763724     355.4007     72.71024      1.373     3.55     3.080301      20.4929     47.07067         5     0.857     0.425 -16.76   0
        63    152.7789    860.0557 299.9395803 +22.6619380      350.238     72.65477      1.261     3.37      5.04404      20.4929     38.91051         5     0.811     0.480 -32.78   0
        64    215.8308    857.5110 299.9600058 +22.6801326     719.8744     72.61777      1.675     3.92     5.726989      20.4929     75.29849        14     1.216     1.005 -83.03   0
        65    192.9436    854.5244 299.9538627 +22.6724074      1475.25     72.67326      1.787     4.24     5.427876      20.4929     129.1059        26     1.388     1.170 -20.31   0
        66    200.0674    970.9287 299.9182084 +22.7079128     1927.067     72.67326     10.131    14.89      42.0396      20.4929     53.16507        56     3.050     2.066  13.87   1
        67   1019.0283    842.2292 300.2151035 +22.9166022     2014.566     72.59926      1.856     4.05      3.63652      20.4929      151.293        26     1.351     1.207 -18.42  16
        68    724.0480    842.1865 300.1231538 +22.8281813     520.2099     72.65477      1.984     6.64     3.427278      20.4929     34.92427        10     1.266     0.977 -33.83   0
        69    802.4835    836.1559 300.1495569 +22.8499632      586.662     72.59926      1.556     5.54     3.445636      20.4929      50.5095        11     1.003     0.864   2.57   0
        70    670.6138    829.9856 300.1104761 +22.8086592     4686.304     72.56223      1.543     3.19     3.400496      20.4929     471.0909        30     1.236     1.132  47.82   0
        71    160.0504    830.7954 299.9513563 +22.6557325      387.222     72.61777      1.644     5.38     4.651572      20.4929     45.43309        10     1.122     0.931 -78.84   0
        72    472.8383    827.1820 300.0498098 +22.7485447     527.0161     72.63628      1.403     4.13     3.541439      20.4929     67.28688        12     0.968     0.901 -48.69   0
        73    220.8742    823.8011 299.9725369 +22.6719812     1321.471     72.52518      1.598     4.27     4.747159      20.4929     122.0088        23     1.248     1.189  11.42   0
        74    691.2750    822.2368 300.1194323 +22.8126298     837.7195     72.58075      1.561     4.24       3.4692      20.4929     76.89555        16     1.197     0.978 -83.24   0
        75    489.2747    822.2932 300.0565153 +22.7520721     320.7134     72.78413      1.454     1.98      3.53615      20.4929      43.3067         5     0.746     0.654  43.66   0
        76    240.1752    820.8252 299.9795051 +22.6769199     371.8947     72.59926      1.634     5.24     4.468811      20.4929      37.5008        10     0.981     0.790 -61.77   0
        77    846.7013    809.7449 300.1719295 +22.8556339     4129.634     72.72872      1.663     3.36     3.445636      20.4929     336.3654        38     1.401     1.223  53.41   0
        78    255.3515    803.6268 299.9898163 +22.6765422     384.8714     72.65477      1.590     3.56     3.989216      20.4929     48.61563         6     0.889     0.477 -88.75   0
        79    563.3453    802.1628 300.0861194 +22.7685102     571.0195     72.63628      1.367     3.57     3.633836      20.4929      70.0306        12     1.073     0.775  55.90   0
        80    210.3350    800.2476 299.9769198 +22.6620651     873.5698     72.67326      1.486     3.47      4.05534      20.4929      94.1045        16     1.164     0.877   5.72   0
        81    624.9689    795.2988 300.1075402 +22.7850185       520.65     72.61777      1.487     3.64     3.655933      20.4929     55.68077        10     0.917     0.795 -65.01   0
        82    359.7170    792.1974 300.0259898 +22.7045766      53252.7     72.54371      1.600     3.19     3.743151      20.4929     4932.058        94     1.448     1.373  21.21   0
        83    617.5138    791.3584 300.1064999 +22.7816523     1657.254     72.61777      1.506     3.06       3.6782      20.4929     173.2438        18     1.050     0.989 -11.18   0
        84    287.7189    790.5610 300.0041293 +22.6825070     431.5618     72.59926      1.492     5.23     3.806943      20.4929     54.04144         9     0.983     0.786  -1.64   0
        85    646.5668    787.2908 300.1168709 +22.7891957     895.0705     72.59926      1.694     3.09     3.682597      20.4929     92.93672        14     1.055     0.871 -52.07   0
        86     13.4018    787.4088 299.9199020 +22.5992774     758.3947     72.45103      2.339     3.48      2.87845      20.4929     59.09002        12     0.961     0.928 -68.70   0
        87     45.7419    786.8306 299.9301353 +22.6088196     628.7979     72.65477      1.815     5.91     3.232443      20.4929     57.67368        13     1.461     0.893 -12.42   0
        88    657.6739    785.8206 300.1208084 +22.7921037     560.6061     72.63628      1.329     3.06     3.683433      20.4929     64.69154        11     0.916     0.808  38.86   0
        89    977.4992    783.1387 300.2213674 +22.8871877     384.6758     72.71024      1.667     6.36     3.667646      20.4929     36.15878         7     1.098     1.035 -25.28   0
        90    762.5077    782.1475 300.1546633 +22.8224757     543.6874     72.69176      1.501     4.18     3.560044      20.4929     47.28651        10     0.971     0.729  -5.52   0
        91    800.3223    772.4195 300.1696112 +22.8310167     846.0278     72.63628      1.537     3.57     3.533291      20.4929      70.9131        16     1.124     1.006   6.06   0
        92    409.4634    769.4279 300.0488696 +22.7129673     31276.36     72.63628      1.564     2.88     3.724902      20.4929     3446.569        71     1.371     1.305  65.37   0
        93    423.7628    769.9703 300.0531424 +22.7174119     2047.817     72.65477      1.575     3.24     3.710224      20.4929     208.9953        26     1.201     1.167 -40.72   0
        94    932.6696    765.4858 300.2131263 +22.8686859     2718.363      72.7472      1.649     3.49     3.879821      20.4929     234.0953        27     1.227     1.145  53.01   0
        95    420.5199    763.9425 300.0540933 +22.7147100     687.6756     72.67326      1.471     2.84     3.716659      20.4929     83.44086        10     0.922     0.754 -23.64   0
        96    690.5200    761.5937 300.1389176 +22.7949966     849.3373     72.56223      1.373     2.99     3.767419      20.4929      88.1921        17     1.041     0.964 -74.49   0
        97    291.9964    761.5815 300.0148819 +22.6754791     799.4955     72.58075      1.635     3.90     3.768481      20.4929     74.84351        14     1.200     0.830 -12.50   0
        98    527.2053    761.4124 300.0881190 +22.7459793     469.2363     72.50665      1.697     4.63     3.658843      20.4929     40.58784         8     1.090     0.559  23.90   0
        99    537.6673    756.3454 300.0930232 +22.7476625     758.7977     72.67326      1.418     2.78     3.660758      20.4929     102.9238        14     0.999     0.860   2.80   0
       100     96.6180    756.8393 299.9556919 +22.6154925     442.6366     72.65477      1.636     2.86     3.885313      20.4929     45.44822         7     0.886     0.724 -38.69   0
       101    938.7393    753.5000 300.2189165 +22.8670620     498.6391     72.72872      1.661     4.75      3.94831      20.4929     52.20564         8     1.061     0.664  83.35   0
       102    440.2812    752.3037 300.0640264 +22.7172978      368.387     72.78413      1.453     4.45     3.704293      20.4929     52.69431         6     0.930     0.607 -19.47   0
       103    395.8651    751.9800 300.0503116 +22.7038832     452.1174     72.61777      1.657     4.85     3.750603      20.4929     39.20766         8     1.006     0.662  63.03   0
       104    483.3185    750.9352 300.0778649 +22.7298122      562.381      72.7472      1.697     3.60     3.662672      20.4929     62.47971        10     0.996     0.721 -28.69   0
       105    125.3839    750.4214 299.9667168 +22.6222856     545.4042     72.59926      1.795     4.64      3.94119      20.4929     41.88836         9     1.166     0.706 -55.09   0
       106    691.8195    750.6180 300.1428910 +22.7922354     345.8467     72.63628      1.270     3.46     3.814939      20.4929     39.36971         5     0.736     0.471  12.28   0
       107    916.3919    747.9308 300.2137584 +22.8587668     370.5132     72.61777      1.648     5.29      3.96839      20.4929     37.75813        11     1.171     0.863  10.00   0
       108    289.8199    745.8352 300.0193244 +22.6703099     496.3048     72.65477      1.502     2.28     3.748888      20.4929     76.27986         7     0.831     0.558 -18.09   0
       109    613.3383    736.4568 300.1230506 +22.7646431     370.7944     72.71024      1.280     3.37      3.90749      20.4929     56.97879         7     0.952     0.479   9.52   0
       110    582.6884    734.2682 300.1142179 +22.7548258     623.5431      72.8026      1.401     2.93     3.817466      20.4929     78.32104        10     0.872     0.783  47.74   0
       111    491.5807    733.5700 300.0860820 +22.7273070     368.7754     72.63628      1.525     4.64     3.679184      20.4929     34.12059         7     0.858     0.712  19.44   0
       112    999.0113    730.7611 300.2451086 +22.8785871     4510.934     72.61777      1.691     3.46     3.775831      20.4929     350.7985        37     1.380     1.261  56.53   0
       113    604.3629    731.8646 300.1217486 +22.7606341     1348.303     72.63628      1.471     2.76     3.898417      20.4929     166.5038        17     1.074     0.948 -45.39   0
       114    524.2225    731.6340 300.0968719 +22.7365395     278.0917     72.65477      1.215     3.80     3.691125      20.4929     42.71192         8     0.980     0.637  -6.23   0
       115    686.5181    726.7935 300.1489853 +22.7838069     249.4851     72.56223      1.233     3.69     3.945345      20.4929     35.95325         5     0.846     0.568 -40.41   0
       116    987.4523    722.2057 300.2442844 +22.8726668     1779.048     72.61777      1.718     3.50     3.917737      20.4929     135.9972        24     1.232     1.154  73.37   0
       117    350.5710    715.9316 300.0479401 +22.6799559     934.0428     72.61777      1.586     2.96     3.837664      20.4929     111.4679        16     1.041     0.970 -11.58   0
       118    813.8857    713.3625 300.1930398 +22.8181237     2442.218     72.61777      1.606     3.04     3.817711      20.4929      242.353        29     1.494     1.070   7.29   0
       119   1018.4678    712.2517 300.2571958 +22.8790978     1598.135     72.63628      1.695     3.72     3.857124      20.4929     155.5331        22     1.262     1.085 -74.23  16
       120     36.2823    703.5685 299.9542639 +22.5821122     787.6528     72.63628      1.726     4.36     3.722919      20.4929     84.66037        18     1.397     0.910  43.70   0
       121    198.9190    699.8734 300.0060028 +22.6298561     679.7549      72.7472      1.570     3.69     4.142808      20.4929     64.84858        13     1.066     0.860  78.69   0
       122    896.0459    699.0121 300.2233181 +22.8386204     683.0585     72.63628      2.155     6.05     4.161293      20.4929     47.67452        14     1.509     0.754  59.67   0
       123    932.2742    690.3897 300.2374180 +22.8469974     148339.5     72.63628      1.598     3.12     4.396419      20.4929     13914.94       165     1.498     1.487 -58.85   0
       124    784.5250    690.5587 300.1913018 +22.8027768     812.5971     72.61777      1.512     3.19      3.94127      20.4929     106.4062        16     1.089     0.908  58.09   0
       125     95.5898    689.6672 299.9772072 +22.5959249     294.3829     72.63628      1.548     5.47     4.429638      20.4929     31.47826         6     1.079     0.783 -39.35   0
       126    965.1710    683.0792 300.2500541 +22.8547521     240.7192     72.63628      1.509     5.38     4.324714      20.4929     44.09046         7     1.370     0.595 -45.97   0
       127    618.4710    679.1553 300.1432761 +22.7497335     1634.971     72.59926      1.341     2.52     4.103378      20.4929     193.5019        19     1.058     0.909  67.29   0
       128    799.7356    676.4521 300.2006277 +22.8032838     9397.861     72.67326      1.484     2.67     4.040661      20.4929      1083.26        43     1.247     1.198 -65.80   0
       129    301.2149    671.4771 300.0470383 +22.6523987     4653.328     72.65477      1.475     2.75     3.929286      20.4929     571.0038        30     1.186     1.135  84.64   0
       130     14.9235    669.9307 299.9585619 +22.5660584     1660.822     72.72872      1.801     3.49     3.700799      20.4929     175.1194        25     1.331     1.164   5.46   0
       131    383.4985    669.5751 300.0732508 +22.6765319     1073.923     72.58075      1.370     2.91     3.876706      20.4929      139.993        17     1.051     1.000  14.87   0
       132    259.2222    667.6165 300.0352347 +22.6386951     477.8268     72.61777      1.626     3.08     3.981465      20.4929     47.73185         6     0.702     0.646  56.81   0
       133    591.3697    665.0020 300.1394367 +22.7375465     836.2128     72.59926      1.501     3.69     4.079278      20.4929     91.12103        14     1.090     0.941  63.61   0
       134    583.1080    657.2858 300.1393719 +22.7328549     3233.245      72.8026      1.364     2.50     4.062351      20.4929     373.2101        26     1.122     1.030  61.15   0
       135    573.4789    651.0475 300.1384011 +22.7281776      1392.36     72.63628      1.426     2.62     4.042821      20.4929     173.5095        18     1.045     0.948  76.79   0
       136    769.2018    650.1844 300.1996493 +22.7865906     309.2975     72.48811      1.573     3.47      4.06556      20.4929     25.47753         5     1.009     0.344 -45.27   0
       137    501.7993    650.1395 300.1163810 +22.7064278     372.5403     72.59926      1.494     4.42     3.916664      20.4929     38.67952         6     0.824     0.676 -75.30   0
       138    967.4499    649.1891 300.2617802 +22.8456983     350.4001     72.65477      1.379     3.57     4.278277      20.4929     50.97996         9     1.093     0.665   8.00   0
       139    484.0089    647.9815 300.1115449 +22.7004745     302.7864     72.58075      1.471     3.67     3.883664      20.4929     32.93889         5     1.028     0.378 -33.45   0
       140    236.7778    647.0080 300.0349535 +22.6260508     593.9311     72.63628      1.419     3.24     3.957356      20.4929     83.77737        13     1.092     0.784  -8.02   0
       141    251.2470    645.6583 300.0398909 +22.6300040     616.2077     72.69176      1.416     3.19        3.941      20.4929     64.82487        10     0.982     0.693 -75.78   0
       142    276.7953    642.4919 300.0488640 +22.6367590     530.7488     72.54371      1.381     2.69     3.908888      20.4929     81.17358         9     0.926     0.633  34.50   0
       143   1020.0411    642.4598 300.2803726 +22.8595165     535.5702     71.87372      1.785     4.52     4.160528      20.4929     48.02374         7     1.166     0.498   0.66  16
       144    307.8778    642.4230 300.0585525 +22.6460619      247.787     72.61777      1.300     3.43     3.894816      20.4929     35.59645         5     0.753     0.451 -19.50   0
       145    597.1539    641.3527 300.1489237 +22.7324914     405.1999     72.65477      1.297     3.65     4.080551      20.4929     57.42158         8     0.958     0.649  10.64   0
       146    498.2825    640.7486 300.1183382 +22.7026781       1845.7     72.65477      1.329     2.55     3.906625      20.4929     227.1747        17     1.027     0.868  13.06   0
       147    532.1192    640.1649 300.1290608 +22.7126549     240.9446     72.58075      1.211     3.89     3.967392      20.4929     30.25912         6     0.759     0.573  39.25   0
       148    152.1483    635.6092 300.0123505 +22.5973931     19571.57     72.63628      1.603     2.97     4.305638      20.4929      2215.56        58     1.378     1.313  24.46   0
       149     72.9767    637.1213 299.9872575 +22.5740722     737.8282     72.59926      1.504     3.83     4.219958      20.4929      80.3382        12     1.042     0.956  64.70   0
       150    583.1614    636.1319 300.1462632 +22.7267983     1038.371     72.59926      1.373     2.60      4.05462      20.4929     135.4401        14     0.949     0.865   3.56   0
       151    618.6841    635.2288 300.1576187 +22.7371869     454.1898     72.63628      1.636     4.17     4.138469      20.4929     51.86093         6     1.059     0.548 -65.98   0
       152    336.2233    627.4901 300.0722211 +22.6502788     230.1779     72.56223      1.001     3.33     3.883787      20.4929     44.42963         5     0.761     0.421  25.10   0
       153    666.3979    623.8038 300.1761924 +22.7482072     120.4838     72.41392      0.980     2.60     4.368674      20.4929     37.10872         5     0.726     0.440 -68.15   0
       154   1001.2272    622.5074 300.2809876 +22.8481486     1015.268     72.58075      1.502     3.44     4.129902      20.4929     103.3446        18     1.154     0.982  14.14   0
       155     98.0504    619.8769 300.0006511 +22.5766504     1556.622     72.63628      1.974     5.09     4.219687      20.4929     118.6472        31     1.743     1.110  82.64   0
       156    867.8185    620.4068 300.2400655 +22.8075847     502.1786     72.59926      1.549     2.73     4.075291      20.4929     63.71368         9     0.837     0.739 -76.37   0
       157    163.8459    620.5530 300.0208784 +22.5965841     322.7821     72.65477      1.476     4.13     4.159111      20.4929     32.16584         7     1.007     0.484  -7.35   0
       158    546.2333    616.7671 300.1410582 +22.7101696     542.3997     72.71024      1.357     4.36     3.984961      20.4929     70.21229         8     1.088     0.615 -67.75   0
       159    339.2042    615.9665 300.0768928 +22.6478662     440.2719     72.63628      2.027     2.91     3.880812      20.4929     37.90358         5     0.781     0.494  34.00   0
       160    941.5583    615.3201 300.2647120 +22.8282121     679.4035     72.61777      1.689     2.93     4.121327      20.4929     65.08762         9     0.856     0.727 -24.53   2
       161    937.9448    615.0000 300.2636890 +22.8270378     512.1204     72.54371      1.773     4.78     4.122479      20.4929     46.37793         7     1.350     0.539   5.86   3
       162    685.4211    613.2123 300.1855600 +22.7508670       268.23     72.61777      1.274     3.48     4.383596      20.4929     35.15265         5     0.738     0.474  75.86   0
       163    503.2365    608.9608 300.1302097 +22.6950392     761.2222     72.71024      1.451     3.36     3.905463      20.4929     77.65061        15     0.996     0.987  -9.48   0
       164    651.0031    607.7444 300.1766156 +22.7389822     586.1143     72.59926      1.352     3.24     4.341642      20.4929     75.61789        11     0.972     0.804 -24.78   0
       165    698.6859    606.0485 300.1920203 +22.7527850      514.752     72.61777      1.333     3.45     4.325011      20.4929     59.13519        10     0.924     0.799  49.18   0
       166    668.9800    605.8159 300.1828419 +22.7438160     548.4692     72.61777      1.341     2.49     4.447789      20.4929     79.69081         8     0.804     0.630 -47.16   0
       167    547.5221    604.6755 300.1453884 +22.7070848     930.1376      72.7472      1.361     2.54     3.998835      20.4929     132.3093        14     1.060     0.829 -42.99   0
       168    981.2385    600.3207 300.2819622 +22.8357869     3279.563     72.61777      1.553     3.18     4.111338      20.4929     329.7289        26     1.223     1.078  70.40   0
       169    872.9690    601.0158 300.2479724 +22.8035572     135.2535     72.63628      1.127     3.62     4.063617      20.4929     31.43821         5     0.991     0.380  58.75   0
       170    512.9440    600.3621 300.1360253 +22.6954811     1658.929     72.63628      1.338     2.71     3.958961      20.4929      201.225        19     1.026     0.952  20.29   0
       171    488.3539    595.9747 300.1297967 +22.6868500     216.8272     72.65477      1.184     2.77     3.939109      20.4929     46.36076         5     0.800     0.489 -32.78   0
       172     74.8523    593.7111 300.0019446 +22.5621863     5071.263     72.65477      1.682     3.56     4.120768      20.4929     510.8365        37     1.394     1.232  38.06   0
       173    734.0410    604.2611 300.2036164 +22.7628661     377.4023     72.61777      1.445     2.46     4.145038      20.4929     51.28283         7     0.739     0.639 -11.18   0
       174   1020.8503    590.5562 300.2974920 +22.8448438     391.0537     69.63245      1.531     4.28      4.17779      20.4929     35.56613         6     1.074     0.485   6.42  16
       175    376.3803    586.9437 300.0978872 +22.6506860      8864.48     72.63628      1.410     2.61     3.945699      20.4929     1153.193        36     1.195     1.108  58.78   0
       176    498.8304    584.0235 300.1369406 +22.6865601     8940.715     72.63628      1.367     2.55      4.00696      20.4929     1197.496        37     1.161     1.092  61.55   0
       177    577.6837    581.0189 300.1624656 +22.7093340     227.7941     72.56223      1.217     4.21     4.189552      20.4929     27.89837         5     1.094     0.463  24.67   0
       178    910.5280    578.1236 300.2671216 +22.8082307     1923.772     72.72872      1.465     2.92     4.078235      20.4929     189.1286        23     1.160     1.047 -58.23   0
       179    995.2315    575.4878 300.2943960 +22.8328415     12381.57     72.59926      1.561     2.97      4.21068      20.4929     1343.387        49     1.308     1.266  87.02   0
       180    988.9971    575.0524 300.2925927 +22.8308494     4900.532     72.63628      0.412     2.02     4.199269      20.4929      4314.04         5     0.370     0.342 -63.97   0
       181    559.4279    573.6288 300.1591824 +22.7017404     11418.58     72.59926      1.326     2.35     4.147194      20.4929     1605.089        41     1.139     1.100  48.77   0
       182    728.7295    569.6824 300.2131965 +22.7513436     489.0363      72.7472      1.177     2.72      4.41305      20.4929      77.7742        10     0.853     0.765   7.45   0
       183    286.8227    569.1284 300.0758188 +22.6187180     1343.741     72.67326      1.480     3.07     3.952693      20.4929     156.1399        19     1.090     1.011   4.92   0
       184    444.9409    568.2408 300.1252960 +22.6658744     249.0208     72.63628      1.102     3.50     4.064919      20.4929     48.64771         6     0.882     0.522  88.39   0
       185    533.8433    566.3307 300.1535880 +22.6919765     444.0353     72.59926      1.514     3.93     4.105757      20.4929     54.16795         7     0.883     0.583  36.40   0
       186    834.0526    562.0182 300.2485109 +22.7806962     816.9065     72.61777      1.354     3.01     4.206259      20.4929     102.6381        13     1.002     0.818  21.42   0
       187    491.0831    561.7775 300.1417564 +22.6778517     4442.844     72.59926      1.352     2.57     4.098775      20.4929     571.4947        27     1.111     1.016  67.42   0
       188    469.3698    560.2006 300.1355106 +22.6708900     1266.254     72.59926      1.311     2.43     4.103719      20.4929     168.4423        16     1.024     0.868  62.83   0
       189    223.7758    559.5640 300.0593221 +22.5970654      708.299     72.65477      1.376     2.80     3.923213      20.4929     97.15455        14     1.034     0.820  29.33   0
       190    910.9307    557.4464 300.2739651 +22.8024102     1546.118     72.61777      1.455     2.88     4.078235      20.4929     160.1101        19     1.073     0.976   5.43   0
       191    607.7646    549.3687 300.1821151 +22.7092618     200897.8     72.65477      1.353     2.38     4.547033      20.4929        26998       208     1.454     1.402  -7.29   0
       192    791.4005    554.1232 300.2377813 +22.7656510     818.5454     72.50665      1.307     2.88     4.431666      20.4929      103.386        14     0.971     0.881 -82.91   0
       193    431.3408    555.3032 300.1252667 +22.6580836     155.6521     72.71024      1.097     3.81     4.127968      20.4929     46.68204         5     0.833     0.507  44.12   0
       194    293.8356    549.2780 300.0844481 +22.6151251     3475.546     72.59926      1.413     2.68     4.005288      20.4929     392.6584        26     1.127     1.057  26.48   0
       195    859.8120    545.8087 300.2618073 +22.7837554     425.4409     72.52518      1.392     3.11     4.092043      20.4929     46.86113         8     0.818     0.661 -37.20   0
       196    342.6066    531.9676 300.1052400 +22.6247819      370.721     72.63628      1.394     3.65     4.061558      20.4929     58.23983        12     0.984     0.897   0.93   0
       197    498.3770    529.6361 300.1544677 +22.6708110     2656.189     72.65477      1.351     2.31     4.227206      20.4929     347.6631        25     1.154     0.960  83.92   0
       198    910.1759    526.7504 300.2837017 +22.7933640     501.1245     72.63628      1.632     4.15     4.086563      20.4929     48.12231         8     0.948     0.666  28.10   0
       199    815.6041    518.3117 300.2569584 +22.7626135     402.7439     72.54371      1.362     3.55     4.376369      20.4929     54.66837         8     0.941     0.624  19.27   0
       200    895.4550    515.8946 300.2826377 +22.7858357     1864.561     72.69176      1.488     2.69     4.097197      20.4929     205.1977        24     1.268     0.997 -30.68   0
       201    781.6130    515.9869 300.2471192 +22.7517635     290.4488     72.56223      1.156     4.23     4.484502      20.4929     40.40459         7     0.883     0.685 -19.54   0
       202    766.5667    513.4982 300.2432385 +22.7465412     2710.763     72.61777      1.360     2.32     4.500823      20.4929     360.4411        27     1.093     1.053 -66.03   0
       203     25.1014    514.1854 300.0123210 +22.5244524     838.3977     72.54371      1.750     3.91     4.104615      20.4929     74.82814        17     1.207     1.025  21.51   0
       204   1010.5956    511.2635 300.3200532 +22.8189842     386.2097     72.59926      1.347     4.08     4.222763      20.4929     44.51788        10     0.944     0.783   1.39   2
       205   1009.4883    506.9836 300.3210980 +22.8174225     748.8901     72.56223      1.405     2.71     4.201507      20.4929      102.595        13     0.940     0.887 -61.54   2
       206    975.9360    510.5794 300.3094636 +22.8084095     307.9201     72.61777      1.401     3.78      4.16403      20.4929     42.90929         6     0.830     0.494   0.87   0
       207    671.3570    510.0989 300.2146778 +22.7170402     478.2174     72.63628      1.197     2.61      4.46042      20.4929     62.17901         7     0.705     0.663 -83.00   0
       208    553.5875    509.3835 300.1782334 +22.6815438     755.4532     72.58075      1.378     2.68     4.311945      20.4929      97.1964        11     0.919     0.744  -2.69   0
       209   1023.3180    507.4973 300.3252457 +22.8217110     991.7524     58.67701      1.228     2.69     4.221868      20.4929     156.5407        14     1.200     0.724 -84.58  24
       210    895.6260    505.9721 300.2859140 +22.7830357     2263.589     72.59926      1.656     3.67     4.105249      20.4929     238.7516        27     1.523     0.940  76.13   0
       211    649.3684    504.2455 300.2097297 +22.7087706     564.7339     72.69176      1.258     2.78     4.502826      20.4929     70.47866         8     0.845     0.658  40.76   3
       212    648.4387    500.1404 300.2107734 +22.7073131     423.0058     72.65477      1.687     4.76     4.503899      20.4929     49.81509         9     1.174     0.672 -85.92   2
       213    435.2656    503.9619 300.1431646 +22.6445226     282.7109     72.61777      1.239     4.01     4.272117      20.4929     43.05007         5     1.023     0.449  22.86   0
       214    486.3550    502.3224 300.1595972 +22.6593659     972.9037     72.61777      0.760     3.66     4.331319      20.4929     566.4517         9     0.865     0.445  38.86   0
       215    933.8046    501.0894 300.2994056 +22.7930660     4193.123     72.54371      1.415     2.74     4.090754      20.4929     457.0411        27     1.164     1.053  74.09   0
       216    574.3463    501.2840 300.1873276 +22.6854392     222.7728     72.67326      1.175     2.54     4.421957      20.4929     58.92038         5     0.737     0.444   7.59   0
       217    594.3108    497.0878 300.1949072 +22.6902170     444.6272      72.8026      1.276     2.49     4.516969      20.4929     61.63714         9     0.846     0.681 -22.28   0
       218    165.8821    491.3987 300.0634652 +22.5601451     873.6831     72.52518      1.397     2.92     4.042764      20.4929     106.1892        12     0.918     0.813 -43.00   0
       219    826.3348    485.2997 300.2710256 +22.7563430     394.1667     72.72872      1.609     4.10     4.334005      20.4929     32.64257         6     0.902     0.532 -46.03   0
       220    158.1209    481.4707 300.0642769 +22.5549690     362.8201      72.7472      1.328     4.72      4.04296      20.4929     52.89579         7     0.877     0.720  58.52   0
       221   1021.9253    480.8616 300.3334625 +22.8136378     333.7971     65.49525      1.382     3.96      4.08516      20.4929     52.62391         6     0.820     0.548  22.22  16
       222    766.0136    475.7376 300.2553303 +22.7355276     426.2027     72.61777      1.290     2.94     4.460768      20.4929     55.34541         7     0.736     0.640  16.61   0
       223    654.8960    473.5031 300.2214358 +22.7015971      330.219     72.82105      1.231     1.88     4.487674      20.4929     56.40269         6     0.703     0.499  -2.65   0
       224    707.3895    471.5022 300.2384385 +22.7167492     658.7142     72.52518      1.154     2.26     4.466565      20.4929     110.5855        11     0.864     0.737  18.52   0
       225    495.4289    469.2416 300.1731649 +22.6525875     124.0146     72.65477      1.306     2.94     4.385539      20.4929     41.82908         5     0.974     0.632  22.10   0
       226   1021.9389    464.1912 300.3388808 +22.8088498     399.5873     65.37203      1.361     3.95     4.220572      20.4929     59.03578         9     0.893     0.744   7.12  24
       227    768.0085    463.7516 300.2598445 +22.7326816     881.9936     72.65477      1.348     2.36     4.464344      20.4929     136.1813        11     0.918     0.711  69.89   0
       228    925.3798    460.0177 300.3101173 +22.7787395     899.4292     72.63628      1.326     2.71      4.13673      20.4929     113.1782        17     1.066     0.919  29.51   0
       229    909.3066    456.4328 300.3062692 +22.7728962     755.9084     72.58075      1.406     2.77     4.150744      20.4929     89.87245        12     0.960     0.805  82.67   0
       230    889.9785    456.8166 300.3001177 +22.7672186     320.3567     72.61777      1.337     4.91     4.155923      20.4929     37.15948         8     1.177     0.580  44.14   0
       231    653.8246    454.3315 300.2273279 +22.6957694     3214.311     72.63628      1.273     2.10     4.499039      20.4929     453.6766        25     1.050     0.979  75.76   0
       232   1014.2944    452.8577 300.3401764 +22.8033032     453.0876     72.69176      1.432     3.85     4.294706      20.4929     63.42268        12     1.030     0.842 -35.70   0
       233    129.8332    445.7117 300.0670966 +22.5362255     212.3363     72.59926      1.308     4.92     4.102585      20.4929     40.44354         7     1.037     0.662  17.34   0
       234    493.8035    441.2077 300.1817622 +22.6440508     393.4078     72.45103      1.219     2.67     4.360518      20.4929     63.90467         7     0.853     0.541  54.99   0
       235   1023.1515    432.0121 300.3497088 +22.7999622     786.8336       59.428      1.349     3.22     4.478417      20.4929     103.6497        12     1.037     0.790  83.75  24
       236    937.2007    433.0520 300.3225604 +22.7745286     424.9252     72.59926      1.273     3.34     4.221864      20.4929     67.55922        10     0.940     0.727 -34.70   0
       237    764.2708    428.1880 300.2702279 +22.7213441     1113.597     72.65477      1.361     2.48     4.481738      20.4929     129.6755        12     0.867     0.809  79.28   0
       238    560.0556    428.6491 300.2064652 +22.6602978     347.6663     72.67326      1.240     2.12     4.382916      20.4929     68.47929         6     0.765     0.475   4.45   0
       239    268.2786    426.4600 300.1163857 +22.5722154     708.6913     72.67326      1.278     2.86     4.184644      20.4929     98.07565        13     1.059     0.718  37.47   0
       240    330.7766    422.0688 300.1372487 +22.5896915     3752.462     72.63628      1.350     2.35     4.406162      20.4929     535.8345        29     1.156     1.058  66.45   0
       241    108.2729    424.3311 300.0673381 +22.5236250     266.9043     72.71024      1.562     4.43     4.183907      20.4929     39.71825         5     0.769     0.725   0.39   0
       242    277.9108    416.8872 300.1224889 +22.5723556     7649.259      72.8026      1.388     2.59     4.242635      20.4929     1012.889        40     1.202     1.147  66.84   0
       243    418.7554    411.1490 300.1681651 +22.6129278     4681.846     72.67326      1.346     2.41     4.398244      20.4929     645.7736        29     1.106     1.028  71.64   0
       244    662.9422    407.8583 300.2452576 +22.6851512     18531.28     72.71024      1.320     2.25     4.515393      20.4929     2897.219        53     1.231     1.105  66.52   0
       245    510.2061    409.6949 300.1970995 +22.6399169     348.8461     72.52518      1.416     3.66     4.332566      20.4929     41.36669         5     0.864     0.449 -47.55   0
       246    679.6509    408.9795 300.2500986 +22.6904786     372.6784     72.63628      1.233     3.54     4.515805      20.4929     64.07289         9     0.935     0.818 -30.73   3
       247    681.7186    406.6974 300.2514836 +22.6904423     530.9076     72.78413      1.349     2.85     4.515393      20.4929     65.21354         8     0.913     0.649  38.41   3
       248    521.9139    406.4136 300.2018095 +22.6424829     250.5079     72.58075      1.760     5.28     4.329619      20.4929     39.76848         5     1.512     0.520 -42.67   0
       249    906.4539    404.3098 300.3223043 +22.7570612     203.8883     72.67326      1.222     3.43     4.216066      20.4929     45.85244         5     0.779     0.437  68.34   0
       250    860.1420    398.3266 300.3098068 +22.7414744     317.2579     72.67326      1.384     4.52     4.206707      20.4929     44.64333         8     0.957     0.608  -6.82   0
       251    996.6458    390.4655 300.3549294 +22.7800833     797.4967     72.63628      1.395     2.82     4.222632      20.4929     108.1847        15     1.005     0.903  76.65   0
       252    533.3921    389.7425 300.2107951 +22.6411344      293.186     72.61777      1.094     3.13     4.317822      20.4929     56.05987         7     0.998     0.501 -60.19   0
       253    706.4183    389.3311 300.2648167 +22.6928516     171.4335     72.63628      1.042     3.38     4.505294      20.4929     40.83717         5     1.040     0.318 -20.49   0
       254    217.6371    387.8783 300.1131648 +22.5459588     2015.294     72.59926      1.406     2.78       4.2278      20.4929      260.737        19     1.070     1.017 -69.38   0
       255    603.5947    377.3079 300.2366910 +22.6585961     6640.906     72.54371      1.283     2.27     4.471705      20.4929     876.8827        30     1.101     1.016  64.82   0
       256   1017.4382    377.7729 300.3655366 +22.7826581     1257.861     72.65477      1.473     2.43     4.059783      20.4929     170.8459        16     1.017     0.919 -12.10  16
       257    318.5259    376.5577 300.1482127 +22.5729544     781.2381     72.61777      1.416     2.89     4.400649      20.4929     94.43188        12     0.965     0.811 -18.68   0
       258    175.8642    370.0247 300.1059740 +22.5283102     613.2794     72.61777      1.460     4.34     4.331023      20.4929     64.35425        11     1.055     0.753 -33.34   0
       259    863.5988    369.3750 300.3202834 +22.7341883     328.6677     72.58075      1.286     3.37     4.222369      20.4929     42.20646         5     0.736     0.467 -74.95   0
       260     23.3012    367.4768 300.0593938 +22.4818289     1221.784     72.78413      1.546     2.87     4.985252      20.4929     161.1962        20     1.125     1.033  15.12   0
       261    807.8956    366.2247 300.3039412 +22.7166034     1241.344     72.54371      1.510     2.88     4.430154      20.4929     143.5497        18     1.172     1.016 -86.51   0
       262    717.3405    367.4695 300.2753166 +22.6898416     493.2201     72.65477      1.170     2.30     4.489842      20.4929     78.06799         8     0.860     0.581 -18.03   0
       263    510.2649    363.5968 300.2120826 +22.6266955      6231.35     72.63628      1.278     2.30     4.295379      20.4929     864.6777        33     1.105     1.050  87.49   0
       264    902.2242    358.0543 300.3360018 +22.7424989     1560.193     72.65477      1.407     2.67     4.234243      20.4929     180.7084        22     1.221     0.985  76.88   0
       265    999.6357    357.9964 300.3664027 +22.7716433     552.6023     72.65477      1.261     3.44     3.880487      20.4929     75.72348        10     1.072     0.652  57.40   0
       266      1.4951    352.7725 300.0573929 +22.4710702      314.214     57.38012      1.030     2.85     5.358989      20.4929     69.33012         7     0.920     0.493  83.89  24
       267    494.9153    352.2850 300.2109761 +22.6188475     468.5959     72.76567      1.388     2.19      4.28337      20.4929     68.71051         8     0.764     0.642  46.09   0
       268    577.4823    350.1938 300.2373607 +22.6429845     426.5792     72.56223      1.313     2.81     4.380397      20.4929     58.48759         6     0.773     0.493  82.26   0
       269     21.7692    348.9601 300.0649277 +22.4760569     1179.752     72.63628      1.657     2.95     5.204788      20.4929     134.4686        17     1.153     0.940 -78.34   0
       270    855.7565    348.5525 300.3245976 +22.7258552     418.6596     72.67326      1.594     3.35     4.284895      20.4929     60.67247         5     1.273     0.323 -47.39   0
       271    875.1277    345.7424 300.3315492 +22.7308473      519.361     72.67326      1.171     2.51     4.269933      20.4929     81.56103        12     0.895     0.809 -60.77   0
       272    397.8166    342.7109 300.1838653 +22.5870015       2461.7     72.56223      1.302     2.24      4.29462      20.4929     407.5925        24     1.084     0.966  76.75   0
       273    116.1356    339.8559 300.0972019 +22.5017431     980.2844     72.69176      1.645     3.82     4.592877      20.4929     87.96676        16     1.226     0.839  58.81   0
       274    345.6239    337.0035 300.1694800 +22.5697206     403.7462     72.59926      1.837     3.47     4.354878      20.4929     58.19458         5     1.386     0.251  35.11   0
       275    367.1200    332.1466 300.1777435 +22.5747685     29561.32     72.67326      1.361     2.49     4.310301      20.4929     3578.347        65     1.301     1.136  62.61   0
       276    901.8313    329.7734 300.3450589 +22.7342515      1409.89     72.63628      1.338     2.45     4.346107      20.4929     201.2661        17     1.015     0.913 -27.10   0
       277    857.0495    327.3071 300.3318965 +22.7201356     360.3851     72.67326      1.365     4.32     4.376853      20.4929     37.28463         7     0.733     0.726 -52.27   0
       278     63.3793    319.9819 300.0872587 +22.4802206     5000.794     72.63628      1.544     2.88     4.907294      20.4929     607.1328        32     1.285     1.151  40.40   0
       279    860.1832    319.1879 300.3355086 +22.7187399     232.3734     72.58075      1.427     4.35       4.4066      20.4929     28.28153         5     0.784     0.687 -51.58   0
       280    817.1436    318.9213 300.3221777 +22.7057770     560.2655     72.67326      1.407     2.67     4.476462      20.4929     97.25198         9     1.001     0.617  55.20   0
       281    241.3927    318.6364 300.1430244 +22.5332055     463.9724     72.63628      1.312     2.50     4.419415      20.4929      62.8461         8     0.763     0.736 -19.85   0
       282    465.7522    317.3598 300.2132340 +22.6000786      541.403     72.69176      1.215     2.74     4.229867      20.4929     72.57829        10     0.919     0.691 -62.81   0
       283    777.5751    312.0168 300.3120855 +22.6919447     1948.421     72.65477      1.318     2.41     4.495479      20.4929     248.0633        19     1.013     0.908  66.96   0
       284    585.8998    306.6866 300.2541022 +22.6330076     350.9476      72.8026      1.136     2.54     4.415963      20.4929     58.07878         7     0.738     0.624  -2.18   0
       285    992.7556    305.1321 300.3814149 +22.7543837     713.6134     72.61777      1.520     3.18     3.801095      20.4929     78.82426        13     1.070     0.853  27.01   0
       286    540.4225    306.0569 300.2401462 +22.6192034       551.49     72.65477      0.647     0.68     4.317672      20.4929     292.0303         5     0.496     0.371  -7.47   0
       287    846.7097    298.4009 300.3380542 +22.7087307      274.778     72.54371      1.131     3.47     4.507227      20.4929     33.47842         5     0.760     0.457 -17.03   0
       288    439.3735    296.4561 300.2118079 +22.5861710     2151.778     72.63628      1.528     2.88     4.186062      20.4929     262.3998        23     1.302     0.946  65.85   0
       289    652.0010    295.6506 300.2782707 +22.6496358     239.3081     72.61777      0.879     3.35     4.475692      20.4929      57.5001         6     0.947     0.444  11.96   0
       290    870.7240    290.7914 300.3480107 +22.7137325     297.9616     72.61777      1.462     4.03      4.53178      20.4929      41.6171         6     0.751     0.637   5.89   0
       291    878.7458    289.7217 300.3508589 +22.7158264     523.0642     72.67326      1.140     2.02     4.536541      20.4929     91.91909         6     0.691     0.536  42.46   0
       292      9.5643    289.1662 300.0805400 +22.4552404     835.5461     72.71024      2.815     5.83     5.288278      20.4929      63.8853        10     1.433     0.667 -56.42  18
       293    777.8119    287.5279 300.3201065 +22.6849771     172.7487     72.65477      1.154     2.57     4.513255      20.4929     41.86929         5     0.714     0.462  20.21   0
       294    760.9504    286.7205 300.3151136 +22.6796963     371.1631     72.65477      1.481     3.51      4.49112      20.4929     42.19897         9     1.041     0.699  61.32   0
       295    515.1506    275.8578 300.2420780 +22.6029574     1202.853     72.69176      1.254     2.51     4.274714      20.4929     163.2641        12     0.929     0.734  80.98   0
       296    600.1802    273.6587 300.2692669 +22.6277959      225.365     72.61777      0.947     2.31     4.449471      20.4929     39.25576         5     0.724     0.433 -19.37   0
       297    898.6831    269.5406 300.3636244 +22.7159925     274.9778     72.72872      1.012     3.27     4.549768      20.4929     49.09155         5     0.727     0.446  22.74   0
       298    760.0908    267.7773 300.3209926 +22.6739942     2211.504     72.56223      1.334     2.51     4.454445      20.4929     320.4632        23     1.122     0.941  45.84   0
       299   1021.3957    262.2391 300.4042691 +22.7506203     3155.659     67.73454      1.445     2.51     3.437791      20.4929     409.6167        28     1.196     1.101  84.95  24
       300    468.3871    251.6272 300.2353834 +22.5819876     584.5881     72.63628      1.311     2.75     4.189167      20.4929     88.43768        13     1.008     0.788  64.11   0
       301    173.9345    246.3031 300.1455221 +22.4922196     626.8683      72.7472      1.543     2.53     4.474195      20.4929     83.00765         8     0.822     0.667 -59.62   0
       302    832.0611    246.1944 300.3504279 +22.6893373     1621.596     72.59926      0.719     1.51     4.532942      20.4929     686.7099         8     0.690     0.430   4.06   0
       303    143.2570    245.6008 300.1362145 +22.4828219     1398.844     72.56223      1.680     3.50     4.545618      20.4929     140.1727        21     1.308     1.009 -27.31   0
       304    227.3499    238.1456 300.1647745 +22.5058883     473.5665     72.67326      1.361     2.58     4.426844      20.4929      59.0463         7     0.817     0.559 -59.00   0
       305   1023.0914    235.2014 300.4135709 +22.7433516     259.6834      59.6537      1.370     4.77     3.405229      20.4929     43.57964         7     0.963     0.670 -41.99  24
       306    903.1246    231.5715 300.3773289 +22.7064049     253.0334     72.65477      1.261     3.67     4.568235      20.4929      48.2479         6     0.803     0.484   9.34   0
       307    831.7772    229.4729 300.3557646 +22.6844451     729.7822     72.67326      1.390     2.32     4.529637      20.4929      87.3075         8     0.769     0.657  57.33   0
       308    421.7347    228.9146 300.2282330 +22.5614867     324.2348     72.71024      1.134     3.56     4.153758      20.4929     54.29937         7     0.974     0.590  14.78   0
       309    900.0397    220.8830 300.3798346 +22.7024082     746.2718     72.59926      0.476     0.94     4.570252      20.4929     571.6697         5     0.405     0.305  86.21   0
       310    106.0025    220.9777 300.1326242 +22.4645859     273.8472     72.58075      1.749     5.29     4.683526      20.4929     42.59691         5     1.251     0.631  62.48   0
       311    929.9503    218.3107 300.3899968 +22.7106205     2027.766     72.63628      1.356     2.44     4.571548      20.4929     286.3606        21     1.047     0.983 -84.43   0
       312    348.4194    215.4724 300.2097826 +22.5356594     2136.472     72.63628      1.374     2.41     4.459362      20.4929     282.1863        23     1.106     1.051  77.10   0
       313    426.3376    210.4625 300.2356511 +22.5575654     1092.107     72.67326      1.478     3.30     4.165885      20.4929     120.6675        18     1.090     1.074 -48.60   0
       314    178.5160    211.2508 300.1583169 +22.4835300     358.1362     72.63628      1.451     3.96     4.447456      20.4929      43.8476         7     0.933     0.554 -34.75   0
       315    828.1635    210.0169 300.3609498 +22.6777697     586.2815     72.63628      1.330     3.26     4.525669      20.4929     74.14801        10     1.058     0.625  34.70   0
       316    584.4142    209.8021 300.2850744 +22.6047255     149.6189     72.46957      0.983     3.47     4.409164      20.4929      30.2186         5     0.778     0.448 -71.25   0
       317    935.1258    207.1882 300.3952191 +22.7089710     370.3064     72.65477      1.330     3.61     4.528573      20.4929     46.58106         8     0.882     0.670  -3.78   0
       318     24.0962    204.7007 300.1124554 +22.4353586     367.5122      72.8395      1.451     3.81     5.059991      20.4929      41.0097         5     0.859     0.485 -49.28   0
       319    361.3549    202.7898 300.2179207 +22.5358926      309.445     72.65477      1.193     3.40     4.524862      20.4929     39.76595         5     0.747     0.447 -73.38   0
       320    242.9160    202.8625 300.1810598 +22.5004229     789.2332     72.72872      1.401     3.30     4.400313      20.4929     82.20108        11     0.900     0.823 -44.66   0
       321    780.9941    199.6758 300.3496016 +22.6606764     1763.257     72.56223      1.397     2.60     4.439199      20.4929      237.885        21     1.075     0.984  69.74   0
       322    845.9417    199.2759 300.3699765 +22.6800030      499.091     72.69176      1.232     2.30      4.54003      20.4929     82.53123         9     0.771     0.712 -59.73   0
       323    264.4689    195.8263 300.1900441 +22.5048614     647.2919     72.63628      1.597     3.80     4.386539      20.4929     69.50327        10     1.046     0.743 -88.23   0
       324    785.0837    191.2715 300.3536024 +22.6594845     846.5787     72.76567      1.273     2.01     4.451736      20.4929     125.6232        10     0.791     0.700  89.61   0
       325    554.6624    192.3411 300.2814741 +22.5907977     266.5516     72.67326      0.943     2.50     4.366873      20.4929     56.34895         5     0.698     0.469  -7.35   0
       326    705.6325    190.1873 300.3291951 +22.6353867     1380.917     72.61777      1.457     2.71     4.297744      20.4929     171.2742        17     1.235     0.875 -72.73   0
       327    526.5995    187.1844 300.2744094 +22.5809110     402.2094     72.48811      1.392     2.20     4.313483      20.4929     46.09398         5     0.710     0.434 -66.20   0
       328    900.9455    182.0604 300.3927108 +22.6915155     1421.289     72.69176      1.340     2.24     4.570683      20.4929     188.7118        19     1.039     0.924 -55.89   0
       329    631.8580    182.1771 300.3088110 +22.6109946     994.6011     72.63628      1.320     2.60      4.36082      20.4929     137.1083        15     0.974     0.856 -83.76   0
       330    913.0291    181.2638 300.3967374 +22.6949028     853.5869     72.65477      1.443     3.05     4.575847      20.4929     99.07722        13     1.022     0.855  78.32   0
       331    959.4540    180.0369 300.4116145 +22.7084429     357.0054     72.65477      1.650     4.75      4.47088      20.4929     37.65348         7     0.858     0.745 -22.32   0
       332     53.7537    168.0873 300.1335438 +22.4337409     444.4323     72.59926      1.348     2.44      4.89744      20.4929     61.42189         5     0.792     0.445 -38.94   0
       333    263.6003    164.2943 300.2000009 +22.4955460     674.5734     72.50665      1.304     3.14     4.376115      20.4929     92.52835        13     1.046     0.834  44.70   0
       334    125.6868    159.0792 300.1588175 +22.4527171     2194.638     72.78413      1.469     2.68     4.601863      20.4929     250.7179        23     1.152     1.048  80.27   0
       335    948.6604    156.1612 300.4159919 +22.6983461     770.8986     72.63628      1.383     3.15     4.609134      20.4929     94.28416        13     0.994     0.907  65.77   0
       336     75.1545    155.8983 300.1441460 +22.4366573     532.4958     72.65477      1.613     3.99     4.856983      20.4929     51.63884        12     1.052     0.830 -27.99   0
       337    283.0758    152.4241 300.2099070 +22.4979727     5538.891     72.65477      1.400     2.54      4.45586      20.4929      683.856        34     1.213     1.087  58.73   0
       338    265.0060    153.4883 300.2039424 +22.4928640     460.6382     72.54371      1.581     4.98     4.442882      20.4929      46.1185         8     1.271     0.553  30.74   0
       339     67.2655    146.6301 300.1447003 +22.4316319     1410.455     72.65477      1.743     2.90     4.907856      20.4929     154.9226        24     1.371     1.114  36.15   0
       340    266.4148    143.2266 300.2077083 +22.4903390     658.0924     72.65477      1.487     3.36     4.528062      20.4929     70.47198         8     0.869     0.745   2.09   0
       341    927.2075    134.0485 300.4164726 +22.6855667     3566.642     72.63628      1.428     2.60      4.75004      20.4929     437.8228        30     1.195     1.097  66.74   0
       342    476.5776    129.0779 300.2776826 +22.5492331     572.4479     72.61777      1.174     2.42     4.419757      20.4929     91.13291        11     0.836     0.804 -51.10   0
       343    591.1456    127.0270 300.3140174 +22.5829533     331.1182     72.63628      1.279     2.32      4.49782      20.4929     54.92002         5     0.773     0.464  28.89   0
       344    400.8083    120.8534 300.2567691 +22.5241754     831.9611     72.63628      2.054     3.54     4.746844      20.4929     73.78367        11     1.016     0.812  86.30   2
       345    166.7785    118.0818 300.1848837 +22.4532612     730.5926     72.59926      1.586     3.13     4.644682      20.4929     89.05322        13     1.040     0.848  10.54   0
       346    527.9757    116.5317 300.2977511 +22.5610208     1828.949     72.61777      1.321     2.32     4.525402      20.4929     258.7202        19     1.035     0.889  40.71   0
       347    455.9102    116.7696 300.2752410 +22.5395065     458.8836     72.59926      1.447     3.57     4.578569      20.4929     63.73085         9     0.957     0.665  81.24   0
       348      6.8505    116.2061 300.1357963 +22.4047882     361.9564     72.61777      1.708     5.46     4.895144      20.4929     32.47609         6     1.466     0.574  77.52  16
       349    589.7588    115.6045 300.3172895 +22.5792550     543.2418     72.65477      1.839     3.78     4.542835      20.4929     50.49862         7     0.821     0.688 -68.66   0
       350    271.4720    111.4855 300.2195734 +22.4827380     399.4814      72.7472      1.097     3.65     4.806888      20.4929     61.27525         6     0.979     0.456  36.41   0
       351    816.4003    105.9978 300.3910194 +22.6443395     357.8522     72.41392      1.362     3.01     4.763063      20.4929     64.93874        10     0.989     0.719  79.71   0
       352    962.2681    100.6380 300.4382423 +22.6864470     327.9985     72.59926      1.146     2.82     4.863087      20.4929     45.97236         5     0.723     0.452 -16.80   0
       353    713.5089     98.2510 300.3614647 +22.6113154     236.4083     72.67326      1.372     3.41     4.784669      20.4929     37.58172         5     1.037     0.324  67.26   0
       354    301.9678     96.2973 300.2339823 +22.4875120     6053.726     72.61777      1.409     2.58     4.962065      20.4929     735.3414        33     1.246     1.067  69.76   0
       355    808.4902     97.2074 300.3914040 +22.6394444     284.0389     72.54371      1.200     2.72     4.774575      20.4929     49.69659         5     0.728     0.473  72.87   0
       356    152.9075     95.7230 300.1878214 +22.4426841     687.0682     72.78413      1.615     4.87     4.836297      20.4929     79.60164        13     1.266     0.835  67.15   0
       357    931.5280     94.2133 300.4307376 +22.6754016     413.9572     72.65477      1.317     3.23     4.971519      20.4929     56.61187         6     0.870     0.568  18.19   0
       358    273.5588     90.4511 300.2270423 +22.4773216     217.8477     72.63628      1.434     3.68     4.923574      20.4929     44.64581         6     0.935     0.446  15.56   0
       359    777.7287     87.2901 300.3850314 +22.6273860     241.8878      72.8026      1.584     4.55     4.848693      20.4929     47.54464         7     1.359     0.433  55.21   0
       360    317.4313     87.4459 300.2416619 +22.4896019     403.6728     72.69176      1.705     3.66     4.949413      20.4929     42.01346         6     1.091     0.521  61.62   0
       361     63.4647     86.6562 300.1629650 +22.4132750      399.814     72.69176      1.418     3.95     5.165128      20.4929     33.88372         6     0.945     0.472  -3.70   0
       362    548.1319     81.6603 300.3153333 +22.5570347      6193.12     72.67326      1.354     2.37     4.620588      20.4929      901.254        33     1.190     1.047  72.62   0
       363    433.4828     81.5613 300.2796767 +22.5226728     580.1054     72.59926      1.166     2.64     4.872074      20.4929     82.68815        11     0.907     0.755  27.97   0
       364    604.9155     76.3711 300.3347306 +22.5725161     338.7591     72.63628      1.369     1.94     4.620588      20.4929     67.63896         6     0.684     0.580  62.17   0
       365    742.1600     72.8502 300.3786282 +22.6125881     261.3612     72.65477      1.089     2.44      5.02117      20.4929     48.11926         6     0.739     0.540 -34.93   0
       366    800.6782     71.3906 300.3973395 +22.6296823     768.3378     72.59926      1.613     2.93      4.98469      20.4929     83.51159        12     0.985     0.791  77.13   0
       367    893.0834     70.4774 300.4264444 +22.6570712     122.8765      72.7472      1.145     2.58     4.993519      20.4929     67.46462         8     0.816     0.646  44.05   0
       368    961.2294     68.1986 300.4484362 +22.6768044     237.2887     72.59926      1.428     3.58     4.884768      20.4929     34.23973         5     1.132     0.326 -12.28   0
       369    240.9326     65.6913 300.2249235 +22.4604349     450.8239     72.76567      1.322     2.24     4.860518      20.4929     57.99196         7     0.705     0.632  -7.25   0
       370    676.5195     61.7813 300.3617644 +22.5897577     6375.814     72.63628      1.372     2.44     5.122619      20.4929     822.9819        37     1.254     1.053  77.53   0
       371    599.2391     63.8009 300.3370380 +22.5672033     499.4643     72.65477      1.651     4.63     4.620588      20.4929     57.81441         8     1.091     0.558  57.60   0
       372    451.3937     60.7940 300.2919836 +22.5220694     1420.016     72.48811      1.322     2.23     4.777767      20.4929     202.0747        17     1.041     0.850  69.27   0
       373    717.6734     59.2468 300.3754082 +22.6013475     963.9012     72.63628      1.483     3.33     5.173752      20.4929     107.3904        16     1.077     0.940  72.03   0
       374    787.2306     56.7969 300.3978792 +22.6214609     360.1231     72.59926      1.709     3.81     5.133034      20.4929     41.43101         8     0.943     0.621  83.12   0
       375    733.5876     55.3047 300.3816451 +22.6049772     521.8193     72.56223      1.250     2.68     5.230257      20.4929     66.14851        10     0.911     0.679   0.65   0
       376   1003.5997     53.4065 300.4664493 +22.6852240     445.8472     72.45103      1.164     3.53     4.756139      20.4929     67.18997         6     0.929     0.495 -52.96   0
       377    200.0726     53.3629 300.2162157 +22.4446518     575.7102     72.58075      1.350     3.10     4.936755      20.4929     67.90129        10     0.963     0.690 -38.38   0
       378     46.9085     54.1384 300.1683624 +22.3989767     275.7513     72.72872      1.231     4.36     5.439829      20.4929     41.29419         6     1.016     0.601  -8.26   0
       379    772.1462     50.9262 300.3950810 +22.6152583     377.6605     72.65477      1.255     2.55     5.217196      20.4929     65.05408         9     0.881     0.667 -74.77   0
       380    720.7139     46.7144 300.3804184 +22.5986540     2687.448     72.76567      1.302     2.46     5.301078      20.4929      400.323        23     1.069     0.993  46.39   0
       381    735.6957     45.6959 300.3854170 +22.6028452     778.3469      72.8026      1.542     4.45     5.335284      20.4929     89.69881        14     1.412     0.678  41.56   0
       382    361.0679     47.0528 300.2683312 +22.4910686     379.0637     72.65477      1.259     4.45     4.885232      20.4929     48.09394         7     1.141     0.494  39.56   0
       383     14.4272     41.0058 300.1625284 +22.3854712     798.0944     72.63628      1.496     2.77     5.553022      20.4929     120.0816        13     0.945     0.880 -51.61   0
       384    807.1057     38.2878 300.4100745 +22.6220857     1574.087     72.82105      1.425     2.78      5.25981      20.4929     179.6759        20     1.119     1.033  71.20   0
       385    745.1893     31.5934 300.3929469 +22.6016311     820.1474     72.50665      1.479     2.70     5.478119      20.4929     101.2959        12     0.987     0.750  37.40   0
       386    123.7142     30.8714 300.1997706 +22.4153128     463.2462      72.7472      1.426     3.85     5.481306      20.4929     63.88449        10     1.082     0.735 -61.30   0
       387    551.0370     30.6988 300.3327584 +22.5432567     1089.517     72.63628      1.485     2.50     4.620588      20.4929     157.6536        16     1.051     0.947 -66.07   0
       388    454.5462     28.9475 300.3032881 +22.5138615     926.3993     72.67326      1.464     2.41     4.756809      20.4929     127.5739        13     0.989     0.756 -62.45   0
       389    836.9275     27.4458 300.4228856 +22.6278910      290.965     72.63628      1.294     3.38     5.190388      20.4929     55.24804         7     0.859     0.615  28.91   0
       390      9.7928    974.5233 299.8579198 +22.6518122     645.6832     72.58075      3.203     5.11    -1.116341      20.4929     35.44802        10     1.032     0.715 -86.19   0
       391    794.0747     19.6888 300.4120416 +22.6128371     594.7785     72.78413      1.301     2.62     5.467221      20.4929     94.20473        11     0.913     0.786  80.82   0
       392     18.3232     18.8445 300.1709215 +22.3802762     330.7148     72.61777      1.368     3.16     5.817368      20.4929     44.32078         7     0.830     0.602  57.75   0
       393    648.5664     15.9816 300.3679029 +22.5682224     258.8723     72.61777      1.239     3.05     5.139432      20.4929     47.00674         7     0.913     0.575  32.78   0
       394    552.0397     16.3492 300.3377219 +22.5394321     274.9184     72.63628      1.128     3.10     4.620588      20.4929     46.18436         7     0.823     0.605 -24.03   0
       395    284.6653   1015.3840 299.9300420 +22.7460498     1028.014     72.61777      1.972     5.94      70.6717      20.4929     66.35973        18     1.718     0.944 -47.27  16
       396    541.3310   1016.1858 300.0096357 +22.8233046     328.5104     72.65477      1.578     5.55      2.49293      20.4929     29.17742         6     1.554     0.560 -16.44  16
       397    227.1878   1012.6889 299.9130490 +22.7280232     4008.384     72.58075      8.284    23.03     68.36262      20.4929      86.7966       246     4.913     4.264 -71.65  19
       398    202.8571   1021.8387 299.9025078 +22.7233409     1425.001     65.86356      3.781    10.99     73.96716      20.4929     65.91343        34     2.516     1.520  -7.35  27
       399    409.9395   1013.9293 299.9694799 +22.7832322     671.1729     72.67326      2.815     6.41     3.422965      20.4929     49.09218         9     1.503     0.844 -20.40   0
