#   1 NUMBER                 Running object number                                     
#   2 X_IMAGE                Object position along x                                    [pixel]
#   3 Y_IMAGE                Object position along y                                    [pixel]
#   4 ALPHA_J2000            Right ascension of barycenter (J2000)                      [deg]
#   5 DELTA_J2000            Declination of barycenter (J2000)                          [deg]
#   6 FLUX_APER              Flux vector within fixed circular aperture(s)              [count]
#   7 FLUXERR_APER           RMS error vector for aperture flux(es)                     [count]
#   8 FLUX_RADIUS            Fraction-of-light radii                                    [pixel]
#   9 FWHM_IMAGE             FWHM assuming a gaussian core                              [pixel]
#  10 BACKGROUND             Background at centroid position                            [count]
#  11 THRESHOLD              Detection threshold above background                       [count]
#  12 FLUX_MAX               Peak flux above background                                 [count]
#  13 ISOAREA_IMAGE          Isophotal area above Analysis threshold                    [pixel**2]
#  14 A_IMAGE                Profile RMS along major axis                               [pixel]
#  15 B_IMAGE                Profile RMS along minor axis                               [pixel]
#  16 THETA_IMAGE            Position angle (CCW/x)                                     [deg]
#  17 FLAGS                  Extraction flags                                          
         1    675.0258     16.8749 300.3929267 +22.6015476     760.3838     72.28634      1.534     3.70     6.992579     20.39417     98.61772        14     1.247     0.770 -47.00   0
         2    480.4906     16.0922 300.3325548 +22.5431384     1113.172     72.45186      1.636     2.94     6.649262     20.39417     112.9441        20     1.177     1.013 -51.85   0
         3    384.2887     13.9387 300.3032908 +22.5137373     903.1321     72.35995      1.565     3.67     6.626015     20.39417     88.64682        17     1.113     1.090  86.03   0
         4    723.7922      5.3837 300.4118552 +22.6128214     563.1031     72.13889      1.417     3.49     6.550782     20.39417     73.27077        10     0.946     0.767  10.29  16
         5    155.7903      3.8238 300.2354526 +22.4424451     3853.521     68.19343      1.841     3.49     7.069545     20.39417      304.911        39     1.500     1.335  14.82  24
         6    578.1782      1.6630 300.3676665 +22.5682059     147.7042     58.12017      1.286     4.53     7.388461     20.39417     29.31774         6     1.296     0.449   6.93  24
         7    481.6800      1.5850 300.3376250 +22.5393197      251.938     57.72956      1.057     3.47      6.70351     20.39417     38.01801         5     1.019     0.341 -21.73  24
         8    185.7029   1003.5087 299.9202491 +22.7385550     1839.235     72.47023      4.327    22.93     83.26864     20.39417     49.43562        94     4.757     3.070  20.02  19
         9     69.5449   1009.7678 299.8820915 +22.7055051     5577.105     72.30475     15.765    99.19      72.2758     20.39417     161.8108      2239    17.620    15.492  33.51  27
        10     63.1147    954.8893 299.8979416 +22.6878338     5819.302     72.43349     23.868    34.64      34.1376     20.39417     1203.317      3545    23.246    13.850 -18.96  19
        11    148.7628    965.9363 299.9209806 +22.7166947      1000.38     72.28634     12.073    14.52      52.8312     20.39417     42.64531        21     2.897     2.023 -80.01   3
        12    152.9317    977.7044 299.9184497 +22.7213216     1883.124     72.41511      4.539    11.54     63.84737     20.39417     56.88391        29     2.690     1.378 -57.55   3
        13    150.5206    975.2155 299.9185093 +22.7198843     1763.786     72.30475      6.035    12.39     61.09332     20.39417     47.33313        39     3.090     1.384 -79.56   3
        14     59.9186    918.2213 299.9088720 +22.6763555     4044.949      72.2495     14.710    60.38     16.76081     20.39417     87.42812      1106    14.479     6.988 -29.97  19
        15    156.5523    999.3579 299.9125326 +22.7286202     3017.821     72.30475      5.652    24.50     83.12565     20.39417     73.99506       176     5.331     3.326  24.96  18
        16    156.0524    992.6813 299.9145488 +22.7265548     2085.123     72.32315      6.081    15.92     77.61757     20.39417     65.80502        57     4.540     1.551 -48.55   3
        17    910.1628    970.9228 300.1565535 +22.9463323     682.9455      72.2495      2.065     8.26     4.749061     20.39417     47.15099        15     1.634     1.167  39.99   0
        18    635.8302    954.2291 300.0764304 +22.8593550      6754.94     72.26792      2.153     4.91     4.476681     20.39417      370.302        55     1.683     1.569  21.36   0
        19    214.3240   1000.3801 299.9301700 +22.7462419     915.4254     72.28634      2.165     8.34     74.74458     20.39417     52.31955        20     1.622     1.311 -62.17   0
        20    513.7621    948.5369 300.0402468 +22.8211387     436.2673     72.26792      2.288     5.80     4.476079     20.39417     31.18345         7     1.360     0.698  82.71   0
        21    149.0331    947.4822 299.9270663 +22.7114809     1147.158      72.2495      6.371     8.99     35.38894     20.39417     40.55117        15     1.776     1.270  57.56   0
        22    227.4988    948.4283 299.9511660 +22.7352850    -169.6027     72.23108      1.101     4.33     26.43613     20.39417     48.28732         5     0.946     0.565 -47.14   0
        23    184.0928    985.8654 299.9254873 +22.7330098     4079.103     72.39673      8.195    21.13     67.35153     20.39417     102.2146       261     5.067     4.554 -30.35   3
        24    214.4035    946.5624 299.9476989 +22.7308224     916.3546     72.32315      3.696     4.22     27.79541     20.39417     38.65564         5     1.041     0.489 -87.58   1
        25    618.5681    987.3141 300.0602888 +22.8636847     8233.067     72.26792      2.176     6.29     4.563407     20.39417     425.1915        39     1.750     1.429  65.41   3
        26    545.3775    945.3514 300.0511319 +22.8296993     1021.077     72.28634      1.693     4.80     4.479399     20.39417     80.47065        18     1.367     0.921  86.19   3
        27    542.7969    945.0210 300.0504354 +22.8288310     873.5841     72.23108      1.735     6.28     4.478356     20.39417     64.00362        11     1.544     0.718 -76.96   3
        28    439.3057    941.2179 300.0194374 +22.7967198     660.8582     72.21265      1.487     4.35     4.585421     20.39417     64.34014         8     1.167     0.461  89.95   0
        29    436.7428    940.9958 300.0187116 +22.7958878     566.0128      72.2495      1.663     4.89      4.59254     20.39417      58.4382         9     1.583     0.427 -86.54   0
        30    368.8626    939.2607 299.9981412 +22.7750407     6573.765     72.32315      2.093     4.75     5.156066     20.39417      417.234        50     1.582     1.558 -39.64   0
        31    128.3615    939.9423 299.9230897 +22.7031172     800.5161     72.28634      3.151     3.50     28.96285     20.39417     33.62121         5     1.516     0.233  73.71   1
        32    619.1140    938.8350 300.0762274 +22.8499244     2401.908     72.26792      0.544     0.89     4.434325     20.39417     1432.465         8     0.444     0.433  75.77   0
        33    623.2832    985.1002 300.0624785 +22.8644619     9358.905     72.45186      2.462    14.20     4.558126     20.39417     439.6344        71     3.300     1.699 -12.05   3
        34    402.0889    926.0249 300.0127899 +22.7812015     427.4678      72.2495      1.834     4.92     4.832059     20.39417     40.15565         8     0.993     0.690  80.66   0
        35    915.1563    918.3876 300.1751991 +22.9327284     2122.274     72.28634      2.344     5.84     4.818659     20.39417     90.50005        35     1.638     1.486  47.73   0
        36    703.9439    907.3065 300.1129230 +22.8662832     724.4637     72.34155      1.969     6.19     4.513267     20.39417     43.66998        13     1.215     0.887  12.59   0
        37    738.7448    901.2449 300.1257448 +22.8749666     992.7646     72.32315      2.017     8.09     4.628913     20.39417     58.21964        22     1.485     1.267 -36.78   0
        38    203.4762    984.9583 299.9318117 +22.7385632     4773.649      72.2495      9.055    30.21     63.28689     20.39417     86.05638       438     7.034     4.878 -43.63  19
        39    761.0338    894.9817 300.1347319 +22.8798434     11503.45     72.26792      2.036     4.77     4.686067     20.39417     658.9493        57     1.592     1.562  47.73   0
        40    807.7782    895.2184 300.1492335 +22.8939122     576.3458     72.28634      2.090     5.99     4.785929     20.39417     27.58424         6     1.336     0.756 -73.22   2
        41    222.1647    973.5675 299.9413305 +22.7408996     7243.998     72.32315      7.567    28.76     50.43557     20.39417     165.9774       628     9.659     4.629  60.43  18
        42    340.0579    999.1801 299.9696857 +22.7836039     604.5377     72.28634      2.595     4.32     5.303119     20.39417      36.5122         7     0.738     0.720 -35.81   0
        43    717.8582    987.5150 300.0911736 +22.8934944     720.2947     72.39673      2.281     8.04     4.575794     20.39417     44.56257        15     1.417     1.274  87.38   0
        44     73.3708    886.3555 299.9234151 +22.6712479     813.9025     72.32315      3.704     7.42     11.79596     20.39417     44.05411        13     1.434     1.074 -44.85   0
        45    466.2611    883.2681 300.0466762 +22.7881591     463.5199     72.34155      1.908     5.11     4.528005     20.39417     40.92159        12     1.263     0.997   5.78   0
        46    812.2578    883.3041 300.1545050 +22.8918298     350.0968     72.35995      1.814     4.96     4.804289     20.39417     37.08842         7     1.075     0.647  13.53   0
        47    769.5769    877.2885 300.1431494 +22.8773179     1453.996     72.21265      2.045     5.19     4.722482     20.39417     72.22877        27     1.456     1.262 -55.58   0
        48    530.9194    991.8500 300.0315032 +22.8387186     2389.914     72.30475      2.166     5.45     4.639184     20.39417     149.7014        35     1.544     1.510  79.07   0
        49    621.7763    874.5198 300.0979715 +22.8322473     509.4596      72.2495      2.245     5.92     4.370624     20.39417     33.93841        10     1.270     0.775   5.21   0
        50    807.4442    870.6202 300.1571278 +22.8867429      954.855     72.34155      2.097     5.51     4.799459     20.39417      53.0132        18     1.344     1.008 -38.18   0
        51    916.2416    868.0809 300.1918967 +22.9185929     382.3032      72.2495      2.026     6.97     5.003664     20.39417     38.08308         8     1.450     0.939 -48.45   0
        52    856.4009    862.5690 300.1750174 +22.8990900     571.6605      72.2495      1.942     5.72     4.980332     20.39417     38.73252         9     1.425     0.648  -7.62   2
        53    707.4317    860.7914 300.1291353 +22.8539631     758.0964     72.28634      2.022     5.02      4.58415     20.39417     68.34418        17     1.386     1.066 -18.30   0
        54    718.7714    858.2999 300.1334809 +22.8566439     547.0813     72.19422      2.130     5.62     4.647707     20.39417     39.18196         9     1.200     0.741 -27.45   0
        55    420.0377    857.0652 300.0408009 +22.7667809     4055.298     72.26792      1.955     4.21      5.03539     20.39417     281.7415        43     1.544     1.407 -15.82   0
        56    145.2802    842.6313 299.9599902 +22.6802667     537.5402     72.28634      1.881     6.10     8.422953     20.39417     59.95681        15     1.330     1.229 -88.12   0
        57    122.5096    839.4023 299.9539584 +22.6725117     1532.751     72.19422      2.032     5.43     8.155848     20.39417      101.553        28     1.589     1.423 -64.59   0
        58    994.1928    828.9954 300.2289342 +22.9306929     2112.709     72.13889      2.166     5.40     5.015897     20.39417      123.803        32     1.533     1.367 -31.69   0
        59    948.4655    827.5527 300.2151300 +22.9165892      2161.18     72.30475      2.057     5.12     5.074428     20.39417     117.7787        34     1.565     1.414  -2.14   0
        60    653.8338    827.5984 300.1232179 +22.8283704     549.3039      72.2495      2.117     5.39     4.746161     20.39417     39.70237         8     0.969     0.848   9.19   0
        61    731.7745    821.5388 300.1494864 +22.8499747     573.9156     72.28634      1.726     5.21     4.871207     20.39417      41.3598        15     1.124     1.059 -12.50   0
        62    600.1420    815.1895 300.1105177 +22.8087208     4678.229      72.2495      1.815     3.88      4.90958     20.39417      343.304        40     1.391     1.376 -44.28   0
        63     90.2205    815.1372 299.9518052 +22.6558650     467.0199      72.2495      1.646     3.88     6.466922     20.39417     34.14703         5     1.322     0.326  59.02   0
        64    402.1483    812.1310 300.0498377 +22.7485155     511.5536     72.26792      1.648     6.73     5.282281     20.39417     40.82402        14     1.464     0.867  33.40   0
        65    150.1731    808.6915 299.9725439 +22.6719927     1389.213     72.23108      2.060     5.02     6.176304     20.39417     100.9787        26     1.475     1.359 -43.64   0
        66    620.7864    808.0158 300.1192833 +22.8128442     711.6836     72.23108      1.821     5.68     4.971937     20.39417      56.1539        18     1.357     1.152  77.34   0
        67    776.2078    795.1791 300.1719110 +22.8557058     4197.932     72.26792      1.882     3.87     4.996448     20.39417     303.0848        40     1.458     1.409 -64.48   0
        68    993.0681    795.4282 300.2394950 +22.9207040     1144.348     72.26792      1.999     6.34     5.029451     20.39417      74.9977        25     1.484     1.331  34.97   0
        69    492.7302    787.5739 300.0860288 +22.7686063     536.1497     72.28634      1.911     6.45     5.127651     20.39417     44.38925        10     1.219     0.958  20.93   0
        70    139.4968    785.0717 299.9769001 +22.6620119     1154.824     72.39673      1.945     4.70     5.609965     20.39417     78.87762        22     1.295     1.221  74.55   0
        71    623.8254    780.4256 300.1291982 +22.8058270     298.4694      72.2495      1.421     3.60     5.120403     20.39417     36.53316         5     1.005     0.371  85.10   0
        72    554.6100    780.7182 300.1075343 +22.7851765     568.6219     72.23108      1.825     5.97     5.157409     20.39417     44.40539        13     1.240     0.808  38.89   0
        73    289.1516    777.3226 300.0259769 +22.7046525     53919.23     72.28634      1.943     3.88     5.625494     20.39417     4575.487       101     1.666     1.577  15.78   0
        74    547.0457    776.5139 300.1065440 +22.7817024     1627.494     72.26792      1.772     3.93     5.180699     20.39417     138.7841        26     1.357     1.214  47.08   0
        75    959.8892    776.3026 300.2353550 +22.9052728     904.6016     72.47023      1.954     5.42     5.136227     20.39417     52.04329        21     1.284     1.190 -61.87   0
        76    576.1563    772.3894 300.1169547 +22.7892384     936.2438     72.28634      1.857     4.79      5.18524     20.39417     72.88312        21     1.324     1.134  56.08   0
        77    586.9684    770.8934 300.1208101 +22.7920474     676.1929     72.21265      1.906     5.56     5.181644     20.39417     51.23171        13     1.273     0.804  55.61   0
        78    907.0046    769.2843 300.2211314 +22.8874238      323.051     72.21265      1.531     4.48     5.219475     20.39417       30.511         5     1.029     0.555 -76.16   0
        79    692.5579    767.3457 300.1548741 +22.8226550     257.3192     72.28634      1.460     5.12      5.09199     20.39417     33.43293         9     0.937     0.791 -76.62   0
        80    730.0336    757.7369 300.1696813 +22.8311166     879.5034     72.28634      2.055     4.46     5.029111     20.39417      59.8602        17     1.305     1.031 -18.65   0
        81    338.8904    754.5735 300.0488506 +22.7130277     31913.51      72.2495      1.836     3.89     5.511798     20.39417     2614.763        74     1.521     1.497  39.92   0
        82    353.2183    755.2031 300.0531061 +22.7175025     1988.848     72.19422      1.828     3.83     5.482938     20.39417      156.124        26     1.288     1.229  -3.08   2
        83    350.6042    749.5627 300.0541252 +22.7150993     676.7691     72.32315      2.676     5.09     5.489159     20.39417     44.37268        11     1.088     0.924  73.25   3
        84    862.0439    750.7789 300.2131169 +22.8686432     2833.783     72.34155      1.903     4.27     5.241071     20.39417     171.6367        34     1.427     1.342 -43.68   0
        85    620.0942    746.8147 300.1389586 +22.7950512      896.252     72.21265      1.664     4.01     5.244151     20.39417      81.6441        19     1.247     1.044  25.33   0
        86    456.4394    746.1820 300.0881774 +22.7458425     396.5823     72.30475      1.654     4.39     5.372468     20.39417     42.39436         5     1.274     0.430  56.43   0
        87    221.1440    746.5196 300.0148254 +22.6754226      891.312     72.32315      1.786     4.74     5.558542     20.39417     88.00073        20     1.453     1.108 -28.59   0
        88     27.8806    742.0447 299.9561774 +22.6161938     345.8094     72.26792      1.636     3.87     5.297701     20.39417      43.0088         5     1.311     0.328  61.66   0
        89    467.2270    741.3047 300.0931221 +22.7476736     811.4705     72.19422      1.614     3.84       5.3781     20.39417     82.29075        19     1.188     1.061   9.11   0
        90    868.0058    738.9028 300.2188365 +22.8670135     517.9518     72.19422      1.674     6.45     5.263148     20.39417     47.59179        11     1.418     0.825  47.11   0
        91    369.4030    737.8470 300.0637845 +22.7173682     283.9461     72.26792      1.752     4.56     5.481483     20.39417     25.99962         5     1.317     0.449 -57.99   0
        92    412.9831    736.3044 300.0778544 +22.7299842     437.6148     72.19422      1.816     4.52     5.461404     20.39417     31.61289         6     0.926     0.627  41.39   0
        93     55.2252    735.4855 299.9668093 +22.6225110     598.9885      72.2495      2.129     5.29     5.327371     20.39417     45.86955        10     1.352     0.646 -52.26   0
        94    846.6431    733.0990 300.2140577 +22.8589494     415.7318     72.28634      2.052     6.24     5.242856     20.39417      41.1773        10     1.318     0.830 -26.78   0
        95    219.7956    730.8588 300.0194946 +22.6705220     452.2349      72.2495      1.523     4.86     5.553033     20.39417     55.50858         8     1.077     0.660 -41.18   0
        96    542.8683    721.6838 300.1230604 +22.7646977     520.6229     72.39673      1.941     3.63     5.424532     20.39417     40.19473         7     0.828     0.619 -22.77   0
        97    512.0189    719.8473 300.1140464 +22.7549286     682.1912     72.32315      1.811     5.18     5.419634     20.39417     49.47247        13     1.148     0.901  68.82   0
        98    928.5568    716.2022 300.2451078 +22.8786115     4573.752     72.28634      1.950     4.32     5.455427     20.39417     299.2495        44     1.495     1.473 -16.75   0
        99    420.6365    718.7605 300.0859381 +22.7272380     346.6001     72.35995      1.508     5.33     5.493464     20.39417     37.87201         6     1.093     0.733 -88.69   0
       100    533.9122    716.8359 300.1218453 +22.7606218     1292.396     72.26792      1.689     3.91     5.436006     20.39417     112.0418        21     1.209     1.129  69.90   0
       101    453.6701    716.4222 300.0969850 +22.7364638      269.156     72.30475      1.483     3.87     5.453766     20.39417     33.92972         5     0.989     0.434 -15.40   0
       102    734.2729    713.4072 300.1854086 +22.8196439     297.0442     72.23108      1.350     3.49     5.130052     20.39417       28.056         5     0.775     0.454  17.29   0
       103    916.9554    707.4759 300.2443227 +22.8726296     1751.442     72.26792      1.963     4.51     5.542005     20.39417     114.5823        25     1.317     1.250  -3.90   0
       104    280.0201    701.0837 300.0479080 +22.6800231      918.428     72.23108      1.767     4.16     5.604689     20.39417     76.31213        16     1.165     1.025  21.80   0
       105    743.5241    698.7897 300.1930429 +22.8182120     2691.214     72.26792      1.875     4.19     5.217885     20.39417      182.714        39     1.628     1.303   6.27   0
       106    948.1035    697.6993 300.2572204 +22.8791408     1563.424     72.48859      1.883     4.26     5.559142     20.39417     108.1884        26     1.338     1.261  58.44   0
       107    825.5262    685.0969 300.2230673 +22.8388260     535.1827     72.41511      1.714     5.50      5.75586     20.39417     40.16855        11     1.114     0.767  -2.43   0
       108    128.7060    684.9395 300.0060793 +22.6300324     645.5931     72.37834      1.805     4.99     5.618701     20.39417     64.18968        10     1.307     0.810  23.62   0
       109    861.7656    675.7147 300.2374212 +22.8469764     148402.3      72.2495      1.813     3.81      5.87184     20.39417     10102.02       166     1.646     1.592 -64.31   0
       110    624.3434    679.1696 300.1622623 +22.7768837     375.7871     72.30475      1.841     4.81      5.47653     20.39417     45.13225         8     1.174     0.558  70.48   0
       111   1008.4248    677.7593 300.2825287 +22.8914577     1243.105     72.32315      1.904     5.14     5.499987     20.39417     82.44031        19     1.260     1.103  64.64   0
       112    714.2547    676.0769 300.1912955 +22.8029189     740.6715     72.32315      1.781     4.49     5.270884     20.39417     52.57396        11     1.137     0.682 -16.66   0
       113    894.6102    668.8830 300.2498888 +22.8548428     433.1723      72.2495      1.633     5.56      5.87354     20.39417     43.66391        10     1.302     0.786  36.94   0
       114    547.8318    664.3131 300.1432461 +22.7496989     1678.015      72.2495      1.655     3.43     5.646511     20.39417     135.9959        24     1.229     1.118   0.85   0
       115    729.2448    661.7322 300.2006296 +22.8032834     9431.735     72.26792      1.702     3.55     5.338284     20.39417     772.8685        48     1.384     1.362 -87.60   0
       116    230.6892    656.5515 300.0470242 +22.6524499     4972.621     72.26792      1.808     3.82     5.726202     20.39417       409.84        44     1.474     1.372   5.52   0
       117    312.7538    654.6445 300.0731815 +22.6764951     1149.255     72.32315      1.716     4.53     5.613671     20.39417     107.9259        18     1.266     1.037  17.77   0
       118    188.5140    653.0693 300.0350343 +22.6388094     487.6533     72.39673      2.365     2.77     5.746638     20.39417     54.83972         6     1.092     0.528 -21.78   0
       119    521.2300    650.5651 300.1394242 +22.7377804     727.7857     72.30475      1.571     3.65      5.70336     20.39417     76.82018        14     1.018     0.966  24.02   0
       120    512.6320    642.5513 300.1393488 +22.7329022     3242.885     72.32315      1.689     3.19     5.743961     20.39417     315.2746        32     1.293     1.196  47.49   0
       121    141.3391    642.0865 300.0239279 +22.6215158     1657.305     72.37834      0.659     2.27     5.807829     20.39417     755.5986         7     0.585     0.385 -14.24   0
       122    503.0073    636.3285 300.1383718 +22.7282311     1459.378      72.2495      1.590     3.18     5.769606     20.39417     138.5091        23     1.220     1.071  27.45   0
       123    431.8830    635.6512 300.1164393 +22.7067313     199.8996     72.30475      1.164     4.48     5.646108     20.39417     34.34561         7     1.289     0.443  45.39   0
       124    896.3607    634.4410 300.2616236 +22.8454613     404.9117     72.35995      1.797     4.43     5.856591     20.39417      44.0099         6     1.256     0.444  45.33   0
       125    166.1173    632.1104 300.0348749 +22.6260781     736.6175     72.39673      1.804     4.68     5.831861     20.39417     75.47009        16     1.401     1.011   1.80   0
       126    180.7158    630.8320 300.0398311 +22.6300865     579.7079     72.26792      1.711     5.19     5.850878     20.39417     44.13572        12     1.124     1.000 -84.78   0
       127    949.8524    627.9608 300.2804224 +22.8596058     474.0175     72.26792      1.826     5.41     5.842701     20.39417      43.7098        12     1.383     0.803  19.28   0
       128    427.7505    625.8501 300.1183358 +22.7026773     1903.494     72.32315      1.826     3.66     5.654785     20.39417     142.6472        31     1.392     1.332  18.93   0
       129    237.5745    628.0109 300.0584365 +22.6463168     417.4583     72.28634      1.705     4.22     5.870835     20.39417     41.74827         6     1.039     0.489 -34.83   0
       130    206.1728    627.0687 300.0489727 +22.6366354     422.3957     72.26792      1.702     6.16     5.897458     20.39417     62.25467        12     1.320     0.809  30.91   0
       131    526.8718    626.1053 300.1491267 +22.7324411       444.89     72.39673      1.619     4.82     5.899685     20.39417     41.17534         6     1.148     0.573  72.80   0
       132   1003.6608    623.4900 300.2986712 +22.8744208     855.4384     72.37834      1.926     6.05     5.868647     20.39417     62.16269        17     1.398     1.071 -71.49   0
       133     81.5956    620.5672 300.0123383 +22.5974286     19840.53     72.26792      1.950     4.08       6.0008     20.39417     1566.785        74     1.647     1.583  48.59   0
       134    512.5405    621.2687 300.1462330 +22.7267588     966.5563     72.30475      1.821     4.30      5.89814     20.39417     78.59719        15     1.130     0.968 -71.05   0
       135      3.0849    622.3644 299.9873471 +22.5744078     602.0396     65.17973      1.712     4.28     5.989242     20.39417     60.11395         9     0.965     0.844 -12.59  24
       136    547.4478    620.4998 300.1573580 +22.7369926     380.7739     72.30475      1.651     5.66     5.992721     20.39417     33.17312         8     1.083     0.834 -44.87   0
       137    930.6761    607.8749 300.2809614 +22.8480897     1051.615     72.37834      1.723     4.19     5.848106     20.39417     75.24496        19     1.170     1.132  31.22   0
       138     27.6067    604.8226 300.0006663 +22.5767237      1594.38     72.26792      2.367     5.32     6.082589     20.39417     108.2525        31     1.577     1.515 -49.45   0
       139    797.5150    605.9134 300.2400518 +22.8076719     504.4349     72.41511      1.868     5.71     5.892415     20.39417     39.02449        12     1.228     0.748   8.08   0
       140     94.0437    605.9048 300.0209706 +22.5969503      454.585     72.30475      1.373     4.09     6.082589     20.39417     42.68439         7     0.880     0.550 -43.27   0
       141    476.0092    601.5776 300.1412487 +22.7101584      521.337     72.28634      1.704     4.97     5.893702     20.39417     40.43182        12     1.080     0.795 -89.08   0
       142    871.0391    600.8546 300.2646316 +22.8282231     853.1419     72.28634      2.056     3.66      5.84341     20.39417     76.23299        14     1.224     0.756  29.53   2
       143    866.2815    600.9618 300.2631124 +22.8268301     523.1529      72.2495      2.536     6.20     5.843266     20.39417     38.01985         8     1.196     0.903  12.00   3
       144    613.6137    597.4435 300.1854646 +22.7501799     843.1045     72.30475      0.896     3.65     6.002345     20.39417     484.9045         7     1.366     0.280  36.85   0
       145    432.7972    594.2051 300.1301848 +22.6950964     760.5902     72.10198      1.629     3.71     5.755612     20.39417     67.41796        14     1.040     0.903 -52.37   0
       146    580.7034    592.9883 300.1766553 +22.7390444     422.8617     72.19422      1.500     3.73     6.092799     20.39417     45.10473         8     1.007     0.693  -4.36   0
       147    627.6083    591.2482 300.1918383 +22.7525893     589.0251     72.30475      1.754     5.07     5.897226     20.39417     47.77054         9     0.914     0.795 -49.67   0
       148    598.5381    591.1788 300.1828007 +22.7438648     625.7842      72.2495      1.659     2.82     6.072428     20.39417     66.07864         8     0.804     0.657   8.38   0
       149    477.1129    589.8680 300.1453952 +22.7071239     962.8126     72.39673      1.681     4.26     5.947714     20.39417     79.78627        18     1.339     0.905  14.97   0
       150    910.8695    585.8184 300.2819437 +22.8358180     3408.257     72.30475      1.809     3.75      5.84359     20.39417      240.917        35     1.432     1.294 -80.66   0
       151    442.5255    585.4061 300.1360719 +22.6954820     1716.248     72.23108      1.633     3.14     5.830356     20.39417     172.7596        21     1.122     1.085   1.75   0
       152   1008.6688    583.9659 300.3130718 +22.8645482     725.9091     72.28634      1.896     6.19     5.966003     20.39417     58.33921        12     1.364     0.790  20.01   0
       153    418.0996    580.9378 300.1299163 +22.6868816     247.7341     72.35995      1.372     3.70     5.743337     20.39417     32.55314         5     1.009     0.391 -31.28   0
       154      4.4191    578.6747 300.0019492 +22.5622657     4907.713     70.15595      2.000     4.37     6.082589     20.39417     374.5303        46     1.568     1.493  15.02  24
       155    949.8914    575.9032 300.2973422 +22.8446423     375.6594     72.47023      1.658     5.77     5.876824     20.39417     33.32365         8     1.066     0.881  63.76   0
       156    305.8899    572.0292 300.0978760 +22.6507069     9385.191      72.2495      1.699     3.34      5.74013     20.39417     745.2374        49     1.418     1.337  49.19   0
       157    428.4050    569.2070 300.1369347 +22.6865976     9140.966     72.13889      1.631     3.05     5.829267     20.39417     873.2316        47     1.345     1.309 -84.85   0
       158    924.7888    560.8400 300.2943993 +22.8327978     12458.05     72.28634      1.763     3.51      5.84439     20.39417     922.2606        55     1.479     1.393 -69.62   0
       159    840.2147    563.4647 300.2671573 +22.8082441     1891.738     72.26792      1.671     3.27     5.860934     20.39417     162.6129        24     1.196     1.118  -3.53   0
       160    488.9686    558.8192 300.1591705 +22.7017517     11715.74     72.28634      1.587     3.19     6.115957     20.39417     1052.633        49     1.345     1.293  64.11   0
       161    658.4882    554.9761 300.2132424 +22.7514070     629.9189     72.23108      1.696     4.17     6.016909     20.39417     60.21343        12     1.130     0.993  46.94   0
       162    216.3950    554.3192 300.0757770 +22.6188046     1271.521     72.21265      1.686     3.78     6.013679     20.39417     121.8601        23     1.309     1.131 -31.55   0
       163    463.3455    551.8581 300.1534497 +22.6920771     499.1634     72.34155      1.738     5.63     6.045367     20.39417     41.96211        10     1.079     0.829 -11.66   0
       164    420.6830    546.9326 300.1417626 +22.6778838     4580.442     72.39673      1.627     3.15     5.880824     20.39417      448.188        35     1.279     1.229  66.98   0
       165    763.4763    547.4769 300.2484125 +22.7806786     772.5839     72.37834      1.539     3.11     5.973839     20.39417     79.42606        11     0.968     0.738  -8.56   0
       166    399.0003    545.4233 300.1355009 +22.6709556     1168.685     72.21265      1.578     3.35     5.837502     20.39417     117.6738        20     1.115     1.081 -60.70   0
       167    153.1255    544.7676 300.0591962 +22.5971017     651.1393     72.28634      1.521     4.66     5.945626     20.39417     70.43223        14     1.348     0.809 -11.30   0
       168    840.6530    542.7542 300.2740190 +22.8024183     1550.685     72.32315      1.695     3.61      5.85648     20.39417     126.8372        24     1.234     1.158 -28.13   0
       169    537.3055    534.5569 300.1821065 +22.7092533     206591.7     72.28634      1.610     2.96     6.271806     20.39417     22419.17       197     1.574     1.492 -28.72   0
       170    360.7549    540.4940 300.1251937 +22.6580830     363.1007     72.30475      1.714     5.71     5.797396     20.39417     35.73438         8     1.124     0.908 -53.67   0
       171    720.9211    539.5733 300.2377084 +22.7656680     756.3962     72.28634      1.594     3.51     6.058674     20.39417     82.48007        17     1.101     0.998  38.02   0
       172    223.4646    534.3226 300.0844688 +22.6151790     3527.713     72.37834      1.726     3.34     6.038329     20.39417     351.0264        37     1.355     1.336  42.82   0
       173    403.1996    531.6960 300.1412653 +22.6682686     248.9578     72.15734      1.071     3.89     5.899052     20.39417     38.95856         5     0.897     0.483 -47.61   0
       174    789.7008    530.4938 300.2621059 +22.7836433     628.0097     72.47023      2.414     6.51     5.933555     20.39417     44.22453        11     1.333     0.893 -45.82   0
       175    427.9469    514.9918 300.1543946 +22.6708802     2887.268     72.28634      1.685     3.10     6.008235     20.39417      247.761        33     1.534     1.153 -80.21   0
       176    272.7343    517.6364 300.1052171 +22.6251472     492.7174     72.28634      1.760     4.42     5.927169     20.39417     45.62185         7     1.162     0.541 -23.68   0
       177    878.0517    515.3862 300.2945734 +22.8057371     64.26141     72.32315      1.090     3.43     5.805251     20.39417     36.75065         5     0.787     0.432  20.04   0
       178    839.3991    511.9578 300.2836269 +22.7931847     441.4715     72.28634      1.939     6.62     5.848312     20.39417     29.42931        10     1.511     0.815  32.11   0
       179    745.0839    503.8753 300.2568330 +22.7626342     324.0118     72.37834      1.279     3.28     6.005302     20.39417     44.99986         6     0.750     0.564 -34.55   0
       180    824.9725    501.2015 300.2826183 +22.7857736     1803.128     72.23108      1.683     3.29      5.87867     20.39417     159.1936        27     1.380     1.105  70.35   0
       181    696.1450    498.7253 300.2432451 +22.7465052     2546.449     72.30475      1.607     3.37     6.191677     20.39417     228.0978        31     1.372     1.202 -68.21   0
       182     56.5189    498.9652 300.0440231 +22.5549956     347.1927     72.23108      1.420     3.78      6.02473     20.39417     32.92385         6     0.825     0.498  86.93   0
       183    335.2080    498.4179 300.1309006 +22.6383403     308.7894     72.23108      1.590     3.42     6.027487     20.39417     26.61053         5     0.770     0.439  20.87   0
       184    600.9072    495.3067 300.2146678 +22.7170126     369.6521     72.45186      1.492     4.97     6.358493     20.39417     46.78386        10     0.992     0.891 -55.73   0
       185    483.4591    494.6860 300.1782759 +22.6816684     700.6999     72.39673      1.413     2.99     6.153592     20.39417     81.10899        13     0.946     0.854  43.91   0
       186    953.6171    492.8764 300.3254636 +22.8218695     1144.947     72.28634      1.656     4.27     5.875558     20.39417     96.33877        21     1.348     1.037  74.21   0
       187    939.2435    492.2824 300.3211701 +22.8173985     913.2305      72.2495      2.549     4.30     5.849878     20.39417     57.58918        14     1.219     0.888  32.96   0
       188    825.3279    491.3735 300.2859197 +22.7830528     2311.557     72.28634      1.822     3.77     5.879446     20.39417     206.4692        32     1.550     1.138  69.19   0
       189    863.4968    486.5511 300.2993932 +22.7930867     4271.032     72.34155      1.641     3.08     5.771347     20.39417     407.2088        38     1.335     1.262 -66.00   0
       190    578.3302    489.5797 300.2094911 +22.7086068     582.5721     72.26792      1.372     3.89     6.284925     20.39417     60.51987         9     1.107     0.555  12.13   2
       191    578.5429    485.7528 300.2107996 +22.7075702     470.3661     72.34155      1.874     5.79     6.294497     20.39417     39.11083        11     1.244     0.758 -87.13   3
       192    364.8983    488.9201 300.1432265 +22.6445042     324.7899     72.41511      1.646     3.59     6.097264     20.39417     34.88062         5     0.624     0.610 -40.33   0
       193    417.4815    488.5235 300.1597278 +22.6601390     388.0045     72.39673      1.467     3.70     6.071413     20.39417     34.30914         6     0.923     0.427 -18.42   0
       194    524.7311    481.8819 300.1952892 +22.6903460     384.4239     72.39673      1.690     4.12     6.133121     20.39417     42.95018         6     1.143     0.424 -58.77   0
       195    955.0650    477.3045 300.3309706 +22.8178219     811.9467     72.39673      1.620     3.91     5.881459     20.39417     73.91164        13     1.166     0.868 -26.69   0
       196     95.3450    476.3686 300.0634300 +22.5601418     944.4995     72.30475      1.945     4.46     5.939068     20.39417     89.60088        21     1.327     1.183 -32.69   0
       197    756.2905    470.4960 300.2711635 +22.7563878      231.705     72.47023      1.234     3.41     5.989505     20.39417     41.80134         5     0.756     0.445  21.91   0
       198     88.2144    467.0583 300.0642345 +22.5553310     382.4536     72.26792      1.753     4.01     5.966035     20.39417     35.82098         5     0.888     0.518  38.75   0
       199    695.8101    461.0728 300.2553630 +22.7355767     513.0436     72.28634      1.671     4.82     6.212019     20.39417     44.89716         8     0.963     0.711  62.94   0
       200    584.4666    458.9811 300.2213355 +22.7016463     354.9319     72.26792      1.607     3.54     6.283254     20.39417     45.92621         5     1.003     0.525 -14.94   0
       201    636.8848    456.6562 300.2384270 +22.7166692     722.1981     72.37834      1.504     3.16     6.357859     20.39417       97.176        14     1.073     0.871  56.20   0
       202    615.9844    454.8118 300.2325113 +22.7098825     166.5108     72.23108      1.190     3.93      6.37284     20.39417     26.32896         6     0.960     0.462  35.61   0
       203    425.9826    455.0265 300.1732477 +22.6530572     173.5001     72.30475      1.282     3.69     6.102217     20.39417     24.33864         5     0.627     0.626  56.78   0
       204    951.5357    449.6310 300.3388518 +22.8088029     571.9734     72.30475      1.718     3.61     5.916908     20.39417     57.14207         8     0.911     0.720 -37.62   0
       205    697.5331    449.1290 300.2597768 +22.7326573     899.2007     72.32315      1.656     3.76     6.190743     20.39417     86.14108        13     1.077     0.903 -42.66   0
       206    854.7946    445.5158 300.3099981 +22.7786773     1035.844     72.21265      1.718     3.57     5.875386     20.39417     86.80418        16     1.141     0.973  -6.87   0
       207    839.3593    441.3719 300.3065274 +22.7728669     728.7171     72.30475      1.614     4.48     5.907035     20.39417     59.35711        14     1.177     0.896  79.28   0
       208    819.7473    442.1978 300.3001411 +22.7672365     355.4933      72.2495      1.376     3.72     5.929144     20.39417     36.17312         7     1.020     0.501  24.93   0
       209    583.4081    439.5705 300.2273056 +22.6957482     3111.699     72.28634      1.554     2.77     6.241227     20.39417     346.7138        27     1.178     1.082  54.80   0
       210    943.9672    438.3506 300.3401508 +22.8032928     560.0081     72.32315      1.689     5.94      5.92547     20.39417     54.79723        11     1.162     0.992  79.06   0
       211    423.4505    426.3226 300.1817747 +22.6440483     457.4016     72.28634      1.467     2.91     6.097525     20.39417     53.31223         8     0.899     0.597  71.60   0
       212    994.6873    418.7493 300.3623449 +22.8128226     1267.233     72.28634      1.669     3.93     6.003528     20.39417     113.6615        19     1.214     1.066   2.20   0
       213    866.7682    418.8407 300.3223914 +22.7745846     585.6768     72.34155      1.798     3.93     5.939821     20.39417     51.24001         8     0.920     0.625  -0.18   0
       214    953.0785    417.7223 300.3496895 +22.8000818     945.4325     72.39673      1.629     3.54     5.965849     20.39417     97.70411        17     1.168     0.982  46.40   0
       215    693.8859    413.5734 300.2701790 +22.7213394     1145.553     72.28634      1.509     2.88     6.168883     20.39417     146.5219        18     1.159     0.942 -76.41   0
       216    489.7525    413.8592 300.2064696 +22.6603175     598.5544     72.34155      1.850     4.69     6.066687     20.39417     54.26006        12     1.216     0.804 -45.49   0
       217    198.0160    411.5334 300.1164051 +22.5722792     739.4987     72.26792      1.952     4.17     6.245953     20.39417     62.25448        14     1.155     0.957 -77.71   0
       218    260.2867    407.1764 300.1371944 +22.5896803     3678.262     72.23108      1.617     3.13     6.323304     20.39417      415.556        31     1.285     1.177  25.88   0
       219    993.5124    406.1037 300.3660820 +22.8088317      4421.34     72.47023      1.741     3.66     6.004422     20.39417     381.6788        35     1.342     1.299 -72.68   0
       220    207.5892    401.9100 300.1225061 +22.5723820     7610.293     72.23108      1.671     3.26     6.297829     20.39417     768.7888        42     1.357     1.306  47.56   0
       221    712.7020    403.2250 300.2794039 +22.7239937     197.5324     72.23108      1.268     3.80     6.079935     20.39417     34.94349         5     0.886     0.468 -43.23   0
       222    973.4863    397.2876 300.3626913 +22.8003047     1946.418     72.41511      1.660     3.01     5.988293     20.39417      190.448        24     1.217     1.108  41.78   0
       223    348.4135    396.2297 300.1681761 +22.6129282      4897.13     72.28634      1.597     2.94      6.27217     20.39417     531.3949        38     1.335     1.212  72.30   0
       224    592.5782    393.0647 300.2452552 +22.6851200     18719.11     72.26792      1.527     2.90     6.220746     20.39417     1925.785        55     1.324     1.275  78.92   0
       225    610.0370    393.0612 300.2506975 +22.6903447     791.9457     72.30475      2.099     7.74     6.259457     20.39417     51.50321        15     1.655     1.013 -54.72   0
       226    212.5514    380.5749 300.1309724 +22.5677380     255.8652     72.28634      1.422     4.04     6.350178     20.39417     47.68565         6     0.946     0.493  -2.38   0
       227    926.1871    376.1422 300.3547893 +22.7800719     861.8917      72.2495      1.780     3.89     5.963487     20.39417     73.13157        16     1.129     1.005 -38.54   0
       228    463.5152    375.0003 300.2109060 +22.6412902     261.3463     72.15734      1.274     4.20     6.112053     20.39417     36.79676         5     0.728     0.690   0.14   0
       229    147.2441    372.9332 300.1131356 +22.5459791     2123.035     72.26792      1.666     3.72     6.240287     20.39417      195.034        29     1.359     1.237  53.37   0
       230    533.2578    362.4489 300.2367043 +22.6585596     6871.438     72.34155      1.582     2.88     6.099036     20.39417     714.8495        43     1.355     1.204  77.45   0
       231    947.1443    363.2041 300.3655284 +22.7826164     1194.711      72.2495      1.640     3.72      5.97946     20.39417     125.0277        21     1.204     1.175  16.88   0
       232    248.0240    361.7170 300.1481280 +22.5729438     717.1094      72.2495      1.584     4.33      6.40282     20.39417     82.47621        13     1.281     0.818  65.01   0
       233    793.4506    354.8523 300.3202821 +22.7342387     393.6043     72.32315      1.259     2.33     5.953204     20.39417     47.92823         5     0.702     0.460 -69.02   0
       234    106.1001    355.0618 300.1061371 +22.5285187     489.1133     72.35995      1.473     2.51     6.240691     20.39417     56.24998         8     0.798     0.647 -27.39   0
       235    737.5358    351.8652 300.3038125 +22.7166501     1088.531     72.34155      1.470     2.60      6.00994     20.39417     138.0018        17     1.088     0.904  55.97   0
       236    646.9619    352.9273 300.2752286 +22.6898528     504.5377      72.2495      1.384     3.19     6.108938     20.39417     58.29935        10     0.935     0.723  53.28   0
       237    439.9098    348.7075 300.2120843 +22.6266637     6177.089     72.45186      1.545     3.04     6.183561     20.39417     659.8176        39     1.270     1.222  54.55   0
       238    928.9651    343.9118 300.3661137 +22.7716266     565.9653     72.26792      1.406     3.33     5.975018     20.39417     64.38692         9     0.951     0.649  11.93   0
       239    831.9819    343.1980 300.3360829 +22.7424122     1383.933     72.19422      1.585     3.19     5.986199     20.39417       128.64        20     1.214     0.996 -78.05   0
       240    424.3060    337.0258 300.2110144 +22.6186336     477.2706     72.23108      1.641     5.44     6.215831     20.39417     61.22068        11     1.291     0.829  41.18   0
       241    507.1868    335.6736 300.2372684 +22.6430561     343.8446     72.30475      1.111     2.08     6.125856     20.39417     70.05585         7     0.746     0.614  19.56   0
       242    804.9175    331.1680 300.3315428 +22.7308543     526.1979     72.28634      1.602     4.03     5.956558     20.39417       50.401        10     1.106     0.707 -56.77   0
       243    327.4537    327.8600 300.1838324 +22.5869998      2597.02     72.34155      1.604     3.03     6.344385     20.39417     286.7893        27     1.206     1.160 -67.93   0
       244     45.8736    325.0838 300.0971344 +22.5018629     1030.911     72.39673      2.069     4.30     6.373385     20.39417     80.35483        21     1.262     1.179 -52.37   0
       245    296.7849    317.2465 300.1777290 +22.5747654     29903.25     72.30475      1.633     3.07     6.410688     20.39417     3177.877        77     1.455     1.372  59.52   0
       246    831.5195    315.0190 300.3450801 +22.7341649     1471.111     72.28634      1.642     3.13     6.089888     20.39417     151.0697        25     1.240     1.165  66.29   0
       247    787.1610    312.7802 300.3319690 +22.7202513     274.0065     72.32315      1.276     5.70     6.011376     20.39417     40.81852         7     1.150     0.797 -42.39   0
       248    746.8863    304.3068 300.3221565 +22.7057645     514.2441     72.47023      1.451     3.26     6.245187     20.39417     68.66962         9     0.923     0.801 -51.68   0
       249    171.3527    303.4606 300.1431707 +22.5332385     313.8773     72.32315      1.504     3.81     6.402824     20.39417     44.28117         9     0.900     0.851  80.55   0
       250    395.6862    302.1399 300.2134183 +22.6000352     497.0934     72.39673      1.483     4.40     6.247843     20.39417     46.77547        11     1.028     0.842 -32.79   0
       251    707.2500    297.2245 300.3120939 +22.6918683     1954.692     72.30475      1.557     2.94     6.155565     20.39417     196.2413        26     1.206     1.151  25.71   0
       252    515.7441    292.3023 300.2540028 +22.6331449     370.0165     72.37834      1.323     3.13     6.199415     20.39417     55.94114         8     0.892     0.646 -18.90   0
       253    922.3870    290.7653 300.3813012 +22.7543619     621.8939     72.26792      1.480     3.06     6.026951     20.39417     76.76183        10     0.933     0.768 -21.92   0
       254    369.0903    281.6336 300.2117882 +22.5861771     2123.287     72.26792      1.697     3.59     6.288652     20.39417     184.3071        29     1.507     1.088  72.89   0
       255    581.2714    280.6638 300.2781953 +22.6494085      363.933     72.32315      1.331     2.94     6.257671     20.39417      46.7744         5     0.721     0.459 -11.79   0
       256    808.2673    274.7952 300.3508734 +22.7156339     654.8778     72.26792      1.505     4.31      6.09919     20.39417     61.43841        11     1.029     0.784  53.75   0
       257    690.8368    272.5219 300.3149885 +22.6798504      367.187      72.2495      1.402     3.48     6.108577     20.39417     55.77608         6     0.908     0.558 -68.10   0
       258    445.0313    261.2840 300.2420357 +22.6030592     1169.543     72.28634      1.397     2.91     6.270719     20.39417     121.0801        19     1.140     0.885 -35.13   0
       259    252.4888    260.9514 300.1822012 +22.5453195     228.1165     72.26792      1.410     4.11     6.436206     20.39417     34.26863         5     1.160     0.415  75.11   0
       260    530.6105    258.9477 300.2694521 +22.6280011      391.425     72.28634      1.469     3.85     6.272694     20.39417     39.17996         5     0.791     0.572   6.20   0
       261    956.7939    257.4283 300.4028527 +22.7550539     475.4137     72.28634      1.617     4.01     6.267295     20.39417     47.45258         6     1.160     0.397 -32.04   0
       262    689.8700    253.1346 300.3209746 +22.6739830     2181.149     72.32315      1.489     2.92     6.160705     20.39417     232.3549        26     1.193     1.104 -44.75   0
       263    951.0903    247.6885 300.4042311 +22.7505444     3291.827     72.45186      1.676     3.09     6.331337     20.39417      331.279        30     1.322     1.197 -75.32   0
       264   1011.9686    242.6377 300.4248740 +22.7672921     373.6109     72.28634      1.573     5.33     6.532166     20.39417     47.66243         9     1.146     0.900  73.10   0
       265   1020.7251    235.6600 300.4298708 +22.7679008     1600.408     69.75642      1.697     3.60     6.637889     20.39417     158.5878        24     1.275     1.212 -42.60  24
       266    397.8691    236.5161 300.2353802 +22.5818197      639.205     72.39673      1.589     3.98     6.359702     20.39417     82.85423        14     1.246     0.906  79.33   0
       267     72.9351    230.7289 300.1361476 +22.4828601     1338.991     72.32315      1.878     4.52     6.521319     20.39417     111.4051        30     1.560     1.358 -37.43   0
       268    103.6417    231.0068 300.1456063 +22.4921371     611.9857     72.30475      1.701     4.25     6.438515     20.39417     58.16958        12     1.163     0.838  19.32   0
       269    967.0811    228.2958 300.4155115 +22.7497423     495.0988     72.43349      1.680     4.62     6.552573     20.39417     41.98113         8     0.973     0.622  -9.44   0
       270    810.3655    224.9517 300.3676922 +22.7019162     207.5385     72.32315      1.269     4.10     6.455295     20.39417     33.36939         5     1.048     0.459  24.21   0
       271    156.7569    222.6538 300.1648348 +22.5056440      633.972     72.30475      2.181     6.42     6.423739     20.39417     56.40598        15     1.429     0.927  45.11   0
       272    951.5129    221.0522 300.4130007 +22.7430021     286.2986     72.32315      1.394     4.59     6.543742     20.39417     46.58198         7     1.065     0.562  11.72   0
       273     12.8910    220.0140 300.1209535 +22.4617956     389.7315     72.23108      1.849     3.60     6.784402     20.39417     34.96355         5     0.810     0.490 -27.10   0
       274    833.0864    217.2524 300.3772768 +22.7064953     365.1436     72.32315      1.478     3.09     6.474492     20.39417     37.14794         7     0.724     0.677  -1.00   0
       275    761.6214    214.6962 300.3558135 +22.6843856     551.1075     72.19422      1.352     3.02     6.417548     20.39417     85.56451        13     1.041     0.885 -74.82   0
       276    351.5567    214.1082 300.2282261 +22.5615129     499.0568     72.28634      1.649     4.59     6.424706     20.39417     44.36421         8     0.924     0.656 -34.52   0
       277    859.6037    203.6887 300.3899481 +22.7105210     2132.334     72.19422      1.621     3.07     6.501274     20.39417     219.6134        25     1.192     1.133 -88.36   0
       278    278.1457    200.6175 300.2097488 +22.5356570      2163.43     72.26792      1.634     2.98     6.438883     20.39417     227.7427        28     1.254     1.202  71.80   0
       279    757.7386    195.3262 300.3608831 +22.6776495      561.327     72.32315      1.557     4.47     6.414383     20.39417     62.77233         9     1.049     0.726  66.44   0
       280    356.1328    195.8434 300.2355725 +22.5576307     1026.061     72.26792      1.570     3.31     6.421573     20.39417     105.6184        17     1.242     0.824 -16.63   0
       281    108.1114    196.4027 300.1582155 +22.4835310     269.0685     72.21265      1.275     4.84     6.502011     20.39417     41.53301         7     1.061     0.627 -15.86   0
       282    865.3180    192.9738 300.3952052 +22.7091453     345.4674     72.26792      1.488     4.27     6.510136     20.39417     34.38496         7     0.772     0.672 -69.23   0
       283    290.9314    187.7376 300.2179039 +22.5357817     287.8025     72.34155      1.561     3.83      6.42947     20.39417     31.57414         5     0.848     0.497  53.71   0
       284    172.9841    188.0597 300.1810982 +22.5005601     855.3663      72.2495      1.841     3.33     6.503759     20.39417     86.52103        12     1.127     0.770 -40.10   0
       285    710.8468    184.9544 300.3496227 +22.6606388     1791.339     72.32315      1.611     3.28     6.335446     20.39417     179.2361        25     1.231     1.110 -63.05   0
       286    775.9167    184.4420 300.3700814 +22.6799536     643.9921      72.2495      1.704     5.70     6.428626     20.39417     58.75037        13     1.306     0.839 -59.27   0
       287    194.5770    181.4106 300.1899713 +22.5051144     627.0035     72.28634      1.711     4.16     6.512194     20.39417     57.88067        12     1.036     0.986 -53.84   0
       288    982.4229    177.7928 300.4366759 +22.7397872     778.2783     72.26792      1.549     4.85     6.899247     20.39417      87.4744        14     1.261     0.929  72.86   0
       289    714.8237    176.7264 300.3535303 +22.6594604     816.9092     72.34155      1.563     2.83     6.349038     20.39417     84.19733        13     0.950     0.850 -71.88   0
       290    635.4118    175.7617 300.3290850 +22.6354280     1175.093     72.28634      1.422     2.98     6.304383     20.39417     143.9397        18     1.101     1.002 -26.40   0
       291    456.2888    172.2705 300.2744034 +22.5808281     400.7572     72.45186      1.431     3.55     6.369528     20.39417     52.85722         6     0.757     0.660 -55.52   0
       292    830.7016    167.4328 300.3926854 +22.6914413     1444.959     72.26792      1.565     2.79     6.482196     20.39417     176.8901        19     1.132     1.029 -51.02   0
       293    561.4556    167.5004 300.3087137 +22.6109250     899.4395     72.37834      1.491     2.88     6.378541     20.39417     112.3184        15     1.085     0.843  56.50   0
       294    842.8765    166.7138 300.3967169 +22.6948749     848.8161     72.41511      1.685     2.94     6.495711     20.39417     95.33083        17     1.127     0.936  -7.65   0
       295    889.7665    165.7263 300.4116679 +22.7086112      408.306     72.26792      1.395     3.82     6.551281     20.39417      35.6214         5     0.904     0.462  45.94   0
       296    121.8969    140.4937 300.1806259 +22.4715900      707.299     72.47023      7.433     6.61     6.719168     20.39417     38.70185        11     1.785     0.687 -31.06   3
       297    113.9830    145.5920 300.1765121 +22.4706856     990.5872     72.23108      7.410    10.36     6.681736     20.39417     61.53418        23     3.071     0.974 -23.70   3
       298     89.5914    161.3612 300.1638153 +22.4679137     2068.599     72.30475      6.708    16.85     6.630463     20.39417     100.4813        89     6.937     1.138 -33.47   2
       299    103.1852    152.7785 300.1708247 +22.4695178     1023.586     72.26792      5.266     6.21     6.636081     20.39417     59.54282        14     1.909     0.567 -29.83   3
       300   1003.8808    157.3136 300.4500142 +22.7403042     1528.615     72.43349      1.694     3.64     7.158285     20.39417     165.6962        24     1.337     1.190  81.00   0
       301    959.6229    156.8282 300.4363550 +22.7269342     1010.767     72.28634      1.545     3.26     6.835443     20.39417     89.61903        16     1.081     0.916 -23.57   0
       302    193.8373    149.6092 300.2000497 +22.4957509     642.5588     72.30475      1.448     3.79     6.583416     20.39417     73.58471        11     1.015     0.810 -30.35   0
       303     55.2468    144.0788 300.1587375 +22.4526612     2407.972     72.28634      2.015     4.28      6.97407     20.39417     210.2904        36     1.597     1.305  31.04   0
       304    878.6713    141.7666 300.4159727 +22.6983955     623.1982     72.28634      1.446     3.62     6.513282     20.39417     88.13482        14     1.106     0.883 -58.31   0
       305      5.3384    141.4804 300.1440634 +22.4369671     366.8553     72.23108      1.478     4.62     7.303941     20.39417     46.58395         8     1.108     0.619 -13.90  16
       306    212.7949    137.4286 300.2098960 +22.4979249     5635.961     72.26792      1.734     3.32     6.566778     20.39417     557.1438        40     1.446     1.271  67.20   0
       307    136.6733    130.7950 300.1883653 +22.4732266     607.7063     72.23108      8.164     6.90      6.76949     20.39417     36.34869        11     2.087     0.639 -31.85   2
       308    196.3051    128.5786 300.2076339 +22.4904437     612.2914     72.19422      1.573     3.51     6.637348     20.39417     65.78156         9     0.927     0.791  25.32   0
       309   1011.7885    125.3830 300.4628337 +22.7334719     18143.34      72.2495      1.826     3.40     7.244804     20.39417     1649.869        64     1.607     1.406 -70.73   0
       310    857.0438    119.3604 300.4164869 +22.6854780     3424.237     72.37834      1.634     3.32      6.44656     20.39417      383.228        33     1.393     1.189  87.77   0
       311    960.7179    118.3637 300.4491651 +22.7161849     2678.942      72.2495      1.735     3.11     6.835214     20.39417     264.0619        33     1.351     1.279  78.34   0
       312    174.9907    105.1878 300.2085835 +22.4773376     1014.186     72.17578     11.618    13.13     6.826142     20.39417     56.93473        40     4.319     1.110 -32.85   2
       313    188.0729     96.5999 300.2154364 +22.4787851     1005.051     72.15734      4.485     5.62     6.777571     20.39417     49.27967        13     1.178     0.975 -60.86   2
       314    160.6347    114.6212 300.2010604 +22.4757515     1156.458     72.30475      7.154    10.80     6.848263     20.39417     54.22876        31     3.596     0.904 -36.43   3
       315    195.7411     90.9833 300.2196422 +22.4794659     899.0425      72.2495      6.407     9.81     6.727999     20.39417     51.17825        15     3.091     0.868 -26.52   2
       316    406.2675    114.8465 300.2774381 +22.5493415     517.8076     72.26792      1.644     3.83     6.466844     20.39417     56.69669         9     1.051     0.633 -14.56   0
       317    330.5911    106.1904 300.2566812 +22.5242037     657.6307     72.17578      1.476     4.16     6.467055     20.39417     68.40105        10     1.157     0.617 -28.95   0
       318    334.8813    104.9712 300.2584118 +22.5251371     364.2965     72.30475      1.703     3.65     6.471937     20.39417     39.28865         5     0.663     0.577  -1.84   0
       319     96.9926    103.6042 300.1848361 +22.4535289     664.6357     72.12044      1.502     3.37     6.995924     20.39417     69.42369         9     0.944     0.654 -57.48   0
       320    457.7703    101.5839 300.2977764 +22.5609380     1685.015     72.28634      1.653     3.35      6.43074     20.39417     183.6906        24     1.242     1.125 -83.20   0
       321    385.8947    102.5379 300.2750832 +22.5397044     525.6364     72.37834      1.335     3.26     6.490375     20.39417     68.46873         6     0.929     0.491   6.46   0
       322    519.7442    101.3368 300.3171625 +22.5794095     373.7487     72.34155      1.207     3.10     6.444944     20.39417     36.54237         5     0.737     0.448 -15.02   0
       323    201.2884     97.2458 300.2193387 +22.4829271     541.8044     72.26792      1.741     4.28     6.691413     20.39417     42.99801         9     0.947     0.646 -20.12   0
       324    746.2835     91.3573 300.3910120 +22.6442974     307.3505      72.2495      1.272     3.14     6.397256     20.39417     55.36154         6     0.920     0.614 -65.34   0
       325   1022.0621     82.8440 300.4798286 +22.7242899     3394.548     64.52299      1.660     3.26     7.440319     20.39417       301.44        33     1.431     1.239 -83.82  24
       326    231.8492     81.4090 300.2339797 +22.4875220     6140.003     72.30475      1.747     3.17     6.528502     20.39417     631.9763        46     1.435     1.357  67.32   0
       327    204.3123     75.2037 300.2274222 +22.4774947     412.1815     72.21265      1.608     4.70     6.682569     20.39417     36.75671         7     0.875     0.799 -48.67   0
       328    866.8132     72.4468 300.4347394 +22.6748905     124.2091     72.30475      1.383     5.07     6.375501     20.39417     27.57908         5     0.991     0.734  85.42   0
       329     83.2010     81.2479 300.1877918 +22.4429730     696.9421     72.28634      1.620     4.69     7.154149     20.39417     64.15684        12     1.414     0.640  -7.91   0
       330    477.9008     66.8776 300.3152937 +22.5569762     6376.411     72.41511      1.612     3.03     6.494629     20.39417     608.7208        45     1.446     1.250  77.08   0
       331    363.6401     66.8924 300.2797049 +22.5227915     622.4847     72.28634      1.487     3.44      6.54553     20.39417     63.25615        12     0.986     0.849 -88.67   0
       332    861.2368     79.6193 300.4306751 +22.6752888     303.6733     72.30475      1.528     4.04     6.384173     20.39417      38.7266         7     0.854     0.680  69.57   0
       333    730.4081     57.0553 300.3971769 +22.6296755     880.8784     72.28634      1.892     4.71     6.436627     20.39417     64.46516        15     1.206     0.990  85.42   0
       334    822.9253     55.8416 300.4264272 +22.6569884     533.5104     72.26792      1.555     3.42     6.340932     20.39417     55.92416        11     1.034     0.808  -2.42   0
       335    170.8975     50.7519 300.2249492 +22.4604611     475.4606     72.32315      1.842     4.75     6.927148     20.39417     57.21915         9     1.150     0.740 -18.12   0
       336    529.8206     49.7380 300.3370225 +22.5675770     462.5089      72.2495      1.693     4.30     6.832355     20.39417     45.46127         9     1.004     0.797  39.17   0
       337    606.2883     47.0050 300.3617374 +22.5896634     6209.683     72.19422      1.597     2.99     6.933156     20.39417     617.6317        43     1.450     1.209  82.90   0
       338    381.3094     45.7667 300.2920515 +22.5220020      1545.06     72.26792      1.627     3.25      6.57742     20.39417     149.4335        26     1.272     1.222  68.22   0
       339    647.6122     44.7561 300.3753471 +22.6013753     750.8949     72.28634      1.430     3.40     6.859738     20.39417     91.42664        14     1.076     0.885 -20.63   0
       340    663.4749     40.4670 300.3816819 +22.6048846     654.1945     72.35995      1.672     3.89     6.863821     20.39417     75.89564        12     1.112     0.853 -51.02   0
       341    130.4855     38.4488 300.2163645 +22.4448258     731.2051     72.26792      1.591     3.90     7.143023     20.39417     68.94283        13     1.224     0.703 -13.43   0
       342    932.8970     38.3557 300.4664093 +22.6848265     469.9053     72.30475      1.394     4.53     6.480059     20.39417     55.07137         8     0.991     0.588  19.94   0
       343    702.1853     35.9101 300.3952276 +22.6151489     607.1509     72.23108      1.576     4.89     6.658526     20.39417     65.71462        10     1.217     0.758 -58.43   0
       344    188.8514     36.6798 300.2350939 +22.4617893     452.8605     72.28634      1.729     3.98     6.809247     20.39417     26.76434         6     1.079     0.420 -11.77   0
       345    650.5339     31.8626 300.3804354 +22.5985378     2827.594     72.32315      1.633     3.02     6.964053     20.39417     271.6559        33     1.461     1.146  71.14   0
       346    664.9738     30.5241 300.3853707 +22.6024708     783.8829     72.30475      1.682     3.60     6.929941     20.39417       76.748        13     1.077     0.876 -17.63   2
       347    291.4043     32.7960 300.2682651 +22.4913669     327.8853     72.12044      1.348     3.33     6.553623     20.39417     44.19338         5     0.765     0.421 -66.73   0
       348    737.0975     23.5762 300.4101105 +22.6220373     1628.793     72.21265      1.674     3.30     6.407659     20.39417     153.5871        25     1.322     1.137  46.88   0
       349    897.1274     22.4723 300.4603919 +22.6695606     194.1437     72.34155      1.330     4.61     6.338215     20.39417     31.51128         6     1.024     0.590  64.04   0
       350    985.4504   1015.9085 300.1654155 +22.9818081     745.2161     72.30475      0.721     2.72     5.372096     20.39417     302.6867         6     0.582     0.377   6.20   0
       351    717.4877   1013.3221 300.0826625 +22.9007965     483.2187     72.43349      2.140     5.22     4.595323     20.39417     28.63379         7     0.892     0.864  -3.01   0
       352     53.8259     16.0619 300.1997770 +22.4154389     494.6472     72.28634      1.539     4.33     7.328184     20.39417     58.41501         9     1.234     0.681  -3.90   0
       353    280.5115   1012.3566 299.9468673 +22.7695290     565.1375     72.28634      1.475     4.57     14.99314     20.39417     56.58364         9     1.209     0.490  84.95   0
       354    766.3734     13.1009 300.4226348 +22.6277745     483.4219     72.23108      1.605     3.33     6.349434     20.39417     53.58928         8     0.913     0.662  19.51   0
       355    115.6772   1008.6252 299.8968067 +22.7190173     1329.931     72.30475      3.002    11.64     92.30579     20.39417     64.63171        19     2.771     1.363 -69.54  18
       356    119.3100   1010.6749 299.8972696 +22.7206951     133.6666     72.45186      2.341     4.22     94.14182     20.39417     42.31493         5     1.101     0.461  -4.72   0
       357    133.0116   1008.4468 299.9022551 +22.7241662     283.0116     72.30475      1.547     6.00     91.38777     20.39417     32.78803         9     1.191     0.851 -32.28   0
