#   1 NUMBER                 Running object number                                     
#   2 X_IMAGE                Object position along x                                    [pixel]
#   3 Y_IMAGE                Object position along y                                    [pixel]
#   4 ALPHA_J2000            Right ascension of barycenter (J2000)                      [deg]
#   5 DELTA_J2000            Declination of barycenter (J2000)                          [deg]
#   6 FLUX_APER              Flux vector within fixed circular aperture(s)              [count]
#   7 FLUXERR_APER           RMS error vector for aperture flux(es)                     [count]
#   8 FLUX_RADIUS            Fraction-of-light radii                                    [pixel]
#   9 FWHM_IMAGE             FWHM assuming a gaussian core                              [pixel]
#  10 BACKGROUND             Background at centroid position                            [count]
#  11 THRESHOLD              Detection threshold above background                       [count]
#  12 FLUX_MAX               Peak flux above background                                 [count]
#  13 ISOAREA_IMAGE          Isophotal area above Analysis threshold                    [pixel**2]
#  14 A_IMAGE                Profile RMS along major axis                               [pixel]
#  15 B_IMAGE                Profile RMS along minor axis                               [pixel]
#  16 THETA_IMAGE            Position angle (CCW/x)                                     [deg]
#  17 FLAGS                  Extraction flags                                          
         1    860.5535     17.3948 300.4334628 +22.6231917      2156.48     72.37782      1.490     2.58     4.898648     20.42519      253.506        24     1.198     1.026  55.01   0
         2    243.6202     12.5600 300.2429962 +22.4370488       1137.3     72.43314      1.658     2.79     4.480393     20.42519     126.3978        15     1.026     0.875  49.69   0
         3    808.9402     10.0654 300.4197527 +22.6056354      865.956     72.43314      1.353     2.36     4.820157     20.42519     133.5101        13     1.051     0.793 -84.98   0
         4    515.1136      8.8449 300.3286450 +22.5173125     469.5251     72.37782      2.401     6.91     4.666923     20.42519     43.90641         9     1.769     0.756 -21.90  16
         5    231.1346      8.2006 300.2405279 +22.4320550     280.5903     72.39626      1.241     2.34     4.265051     20.42519     53.51858         5     0.720     0.640 -34.72   0
         6     50.7716      3.5654 300.1859881 +22.3766673     367.5207     67.27301      2.846     4.91     4.772625     20.42519     25.87226         5     1.105     0.619  64.75  16
         7    566.3192      2.2711 300.3467133 +22.5307571     350.0366     61.55272      1.386     3.93     4.767981     20.42519     42.93513         5     0.887     0.497  43.95  24
         8    258.9221      2.4196 300.2510391 +22.4387204     351.8034     62.22143      1.685     4.41     4.637659     20.42519     45.13227         7     1.086     0.673  -1.23  24
         9    309.0402   1004.8453 299.9411083 +22.7414760     9234.864     72.46999     10.124    31.77     27.17734     20.42519     180.3894       867    11.523     5.179  61.72  19
        10    617.1000   1021.3440 300.0315740 +22.8386719      2354.37     67.76731      1.881     4.44     3.062965     20.42519     160.3874        30     1.422     1.268  -6.46  24
        11    269.9699   1016.4368 299.9251912 +22.7330683     5386.672      72.4147      9.207    25.03     47.22067     20.42519     101.2763       441     6.392     5.770  19.18  19
        12    290.3911   1015.4554 299.9318583 +22.7389186     6530.091     72.39626      8.750    28.48     40.35495     20.42519     113.4138       521     6.726     5.934  28.88  27
        13    243.7548   1019.2809 299.9161178 +22.7260118     3056.149     72.37782      6.516    25.26     56.80122     20.42519     76.86629       174     5.412     3.636 -34.86  27
        14    237.6326   1007.8655 299.9179298 +22.7209011     2515.127     72.39626      5.545    16.46     53.14227     20.42519     61.75715        85     3.326     2.385  85.52  19
        15    234.3536    998.9146 299.9198233 +22.7173505     1286.342     72.37782      5.341    11.31     49.69605     20.42519     52.20115        30     2.397     1.485  83.36   3
        16    143.7900   1017.0869 299.8857705 +22.6953622     3969.384     72.34093     11.272    38.07     48.69792     20.42519      92.0043       461     8.418     4.778  10.85  27
        17    144.6322    983.7053 299.8968940 +22.6860475     4005.047     72.37782     25.782    81.20     33.24726     20.42519     97.71515      3003    19.306    13.701 -36.07  27
        18    314.0276    977.8400 299.9514459 +22.7352303     277.5767     72.45156      1.332     2.47     17.94817     20.42519     106.4865         9     0.960     0.916 -59.05   0
        19    487.8249    955.7833 300.0126749 +22.7810712     556.2495      72.4147      1.811     5.19     3.238326     20.42519     43.23452        11     1.276     0.872 -83.57   0
        20    146.0546    947.1282 299.9092358 +22.6759904     3866.029     72.39626     22.757    53.81     15.06947     20.42519     318.6057       971    13.278     6.052 -37.88  19
        21      1.9788    952.6907 299.8626817 +22.6343128     1180.732     59.92626      1.464     3.15     2.676856     20.42519     141.4006        17     1.292     0.794 -89.28  24
        22   1001.2384    947.7384 300.1752109 +22.9327554     2185.436     72.39626      2.015     4.94     2.866766     20.42519     109.0502        36     1.527     1.447  66.03   0
        23    630.3375    974.4153 300.0509663 +22.8291792      1421.76     72.35938      1.727     4.08     3.041807     20.42519     113.0031        23     1.273     1.158  80.16   0
        24    651.5853    945.2263 300.0670787 +22.8271779     424.4591      72.4147      2.181     5.61     2.985263     20.42519      32.6064         8     1.286     0.691  -4.80   0
        25    499.1452    944.4676 300.0198786 +22.7812223     408.1584     72.43314      1.774     6.04     3.250599     20.42519     33.44202         9     1.188     0.863 -47.68   0
        26    683.4399    941.4733 300.0782185 +22.8356568     312.8871     72.37782      1.688     5.69     2.957447     20.42519     27.85984         6     0.992     0.921 -29.98   0
        27    198.3432    985.8933 299.9128698 +22.7028044     1345.645     72.45156      8.599    13.11     44.86985     20.42519     40.23058        21     2.557     1.871  33.61   2
        28    790.8204    936.7774 300.1131923 +22.8665163     775.9786     72.39626      2.330     6.07     3.199649     20.42519     44.93241        11     1.606     0.644  76.88   2
        29    602.0189    977.6277 300.0411054 +22.8216044     450.1574     72.39626      1.850     4.51     3.055845     20.42519     32.52451         6     1.156     0.499  51.21   0
        30    824.7853    930.9023 300.1256861 +22.8750155     962.0473     72.28554      1.790     5.71     3.275242     20.42519     59.27739        19     1.320     1.101 -49.33   0
        31     34.3803    927.7743 299.8808471 +22.6369047      596.247     72.39626      2.190     5.99     3.285494     20.42519     50.12812        10     1.313     0.905  75.95   0
        32    847.0473    924.4394 300.1347257 +22.8798358     11203.33     72.43314      1.847     3.95     3.308376     20.42519     664.0365        57     1.490     1.478  87.55   0
        33    216.3576    985.1420 299.9187121 +22.7079985     1539.184     72.37782      4.447     9.45      44.5813     20.42519     42.50288        20     1.688     1.476  86.08   2
        34    893.6044    925.1226 300.1490131 +22.8939919       348.77     72.30401      1.665     4.18     3.324195     20.42519     34.35268         5     1.143     0.436  77.91   0
        35    158.6515    916.0477 299.9232595 +22.6708634     1238.804     72.43314      8.825     7.60     6.021191     20.42519     54.30853        31     1.878     1.534 -85.58   1
        36    552.2476    912.1163 300.0469275 +22.7878746     565.0024     72.39626      2.163     4.83     3.135765     20.42519     43.68214         9     1.050     0.875  74.34   0
        37    898.9060    912.0421 300.1549210 +22.8918256     501.1763      72.4147      1.972     5.31     3.367045     20.42519     33.77699         8     1.031     0.773 -12.21   0
        38    855.5844    906.4851 300.1432269 +22.8772407     1454.571     72.35938      1.799     4.30     3.355227     20.42519     94.30843        22     1.234     1.148  26.11   0
        39    148.6298    907.5670 299.9229046 +22.6654229     842.2582      72.4147      6.377     6.47     5.616878     20.42519     55.83807        14     1.660     1.005  -9.99   0
        40    707.5944    903.5513 300.0980773 +22.8320180     657.1019     72.37782      2.107     3.99     3.117719     20.42519     54.49892        11     0.964     0.851 -79.46   0
        41    721.9830    983.7438 300.0764680 +22.8593497     6836.749     72.35938      1.895     4.00     2.993522     20.42519     420.6537        47     1.531     1.388  28.44   0
        42    893.5644    900.0442 300.1571591 +22.8867789     839.2947     72.45156      2.244     5.16     3.402544     20.42519     63.47871        18     1.395     1.061  17.94   0
        43   1002.7285    897.1280 300.1921410 +22.9186668      312.746     72.45156      1.771     5.87     3.487971     20.42519     35.43887         7     1.449     0.883  69.96   0
        44    941.9714    891.6563 300.1749771 +22.8988826     503.8911     72.39626      1.740     5.25     3.471667     20.42519     40.40087        14     1.156     0.920  55.65   0
        45    793.2377    889.8488 300.1292118 +22.8537692     696.9865      72.4147      1.991     5.45     3.283506     20.42519     60.25251        16     1.371     1.303 -62.36   0
        46    524.2961    970.9378 300.0190924 +22.7963632     1122.013     72.48841      1.866     3.93     3.098921     20.42519     82.74238        23     1.240     1.196  66.61   0
        47     53.3597    888.3252 299.8995716 +22.6312983     343.1473     72.37782      1.554     5.13     3.768928     20.42519     40.73987         8     1.002     0.743 -57.18   0
        48    804.9706    887.4056 300.1336620 +22.8565861     531.3038     72.39626      1.541     4.19     3.303132     20.42519     48.91215        11     1.051     0.886  24.61   0
        49    506.0490    886.5660 300.0408618 +22.7666823     4155.271     72.43314      1.617     3.22     3.343962     20.42519     369.2701        35     1.268     1.244 -14.34   0
        50    549.5403    874.5930 300.0582901 +22.7762954     286.1798     72.35938      1.578     3.49     3.301431     20.42519     40.92972         5     0.917     0.544  45.73   0
        51    284.1198    875.3936 299.9754739 +22.6968747     449.3082     72.32246      1.683     4.70     4.851045     20.42519     40.55761         6     1.363     0.460  -7.33   0
        52    231.3320    872.0040 299.9601688 +22.6800566     719.3994     72.37782      1.584     4.27     5.867253     20.42519     68.77266        16     1.225     0.978  11.99   0
        53    454.8369    968.9089 299.9981416 +22.7749360     6514.407     72.37782      1.804     3.79     3.483809     20.42519      495.507        42     1.418     1.360  -4.29   0
        54    208.3589    869.2426 299.9539275 +22.6723681     1544.586     72.48841      1.853     4.35      5.38506     20.42519     116.2276        25     1.420     1.192 -12.18   0
        55    740.4980    856.9719 300.1234759 +22.8285152     470.0852     72.34092      1.678     3.14     3.326265     20.42519     36.48252         6     0.777     0.500 -88.26   0
        56    510.0788    855.9567 300.0520711 +22.7591087     254.2482     72.37782      1.922     4.41     3.371799     20.42519     34.17374         5     1.078     0.513  52.00   0
        57    818.1628    850.9257 300.1496376 +22.8500678     632.3694     72.34092      1.668     5.16     3.364803     20.42519     47.98982        16     1.290     0.918 -30.34   0
        58    240.5554    850.8149 299.9699261 +22.6767491     434.2922      72.4147      1.605     4.64     4.621405     20.42519     61.28785        10     1.242     0.831 -17.34   0
        59    686.1219    844.7179 300.1105261 +22.8086903     4712.498     72.50682      1.559     3.12     3.346872     20.42519     427.1931        31     1.240     1.165 -61.05   0
        60    175.6825    845.6602 299.9514428 +22.6557963     426.8796     72.50682      1.633     3.98     4.695615     20.42519     45.40139        10     1.013     0.843 -25.03   0
        61    488.2841    841.8065 300.0498913 +22.7485095     617.5699     72.32246      1.504     3.31     3.378704     20.42519     72.26434        13     1.045     0.838  79.25   0
        62    236.1690    838.5815 299.9725409 +22.6719242     1292.127     72.37782      1.679     3.40     4.517426     20.42519     122.0111        23     1.213     1.147   9.98   0
        63    706.5887    837.2213 300.1193378 +22.8126763     779.5689     72.37782      1.577     4.25     3.360289     20.42519      67.3587        15     1.126     1.018  -1.91   0
        64    255.3829    835.2538 299.9795948 +22.6767373      466.927     72.37782      1.748     5.80     4.361868     20.42519     50.89332         9     1.364     0.798  45.16   0
        65    623.0148    827.9233 300.0963383 +22.7849422     411.5911      72.4147      1.553     4.11     3.394473     20.42519     44.22529         7     1.008     0.555  55.15   0
        66    862.1393    824.5444 300.1719210 +22.8556768     4329.488     72.46999      1.662     3.30     3.520609     20.42519     314.5005        34     1.331     1.199 -67.65   0
        67    270.8724    818.7151 299.9897871 +22.6766432     439.8999     72.50682      1.532     4.40     4.121941     20.42519     51.08396        10     1.122     0.808 -45.41   0
        68    579.0651    816.8526 300.0862570 +22.7685822     622.4706     72.43314      1.532     4.36     3.369167     20.42519     57.50288        13     1.024     0.954  16.24   0
        69    225.4828    814.8467 299.9769373 +22.6619098     964.9124     72.37782      1.640     3.87      4.29058     20.42519     98.51028        16     1.143     1.025 -19.61   0
        70    640.5464    810.5331 300.1074513 +22.7852088     526.6119      72.4147      1.694     4.29     3.408419     20.42519     46.51169         9     0.905     0.813  17.12   0
        71    375.1599    806.9988 300.0260211 +22.7045799     53349.02      72.4147      1.563     3.04     3.853332     20.42519     5401.012        97     1.446     1.394  43.69   0
        72    632.9448    806.0557 300.1065405 +22.7816437     1573.002     72.43314      1.479     3.01     3.415108     20.42519     152.8533        22     1.176     1.077   4.72   0
        73    349.7754    804.3774 300.0189796 +22.6962105     189.1113     72.35938      1.169     3.66     3.896216     20.42519     33.21032         5     0.952     0.405  83.40   0
        74    303.6208    804.7606 300.0045046 +22.6824694     468.7751     72.43314      1.643     4.58     3.917516     20.42519     43.09444        11     1.129     0.869 -38.52   0
        75     28.2934    802.2937 299.9197626 +22.5991100     779.6313     72.56203      2.035     6.46     3.567145     20.42519     69.18365        13     1.582     0.742 -33.12   0
        76    661.9480    801.8337 300.1169437 +22.7891300     846.0189      72.4147      1.441     3.46     3.419144     20.42519     87.96741        15     1.075     0.953  58.24   0
        77     61.6153    801.6431 299.9303217 +22.6089289     771.3505      72.4147      1.632     3.02     3.857912     20.42519      98.5729        13     1.093     0.822  42.45   0
        78    672.9174    800.3561 300.1208398 +22.7919955     655.8306     72.35938      1.456     3.38     3.429333     20.42519     73.01086        12     0.994     0.847 -68.67   0
        79    992.8057    797.5516 300.2214323 +22.8870897     237.4657     72.37782      1.460     5.23     3.902716     20.42519     38.95153         7     1.401     0.552  31.97   0
        80    778.0498    796.7313 300.1547634 +22.8224794     502.2001     72.39626      1.544     5.94     3.398549     20.42519     53.34014        12     1.236     0.995  78.73   0
        81    815.7837    786.9339 300.1697055 +22.8309790     816.1774     72.37782      1.633     4.28     3.468778     20.42519     90.92258        17     1.237     1.045  40.37   0
        82    424.8763    784.2513 300.0488797 +22.7129710     31096.68     72.39626      1.540     2.90      3.72426     20.42519      2951.11        75     1.398     1.318  72.24   0
        83    439.1284    784.7909 300.0531376 +22.7174017     1904.645     72.37782      1.464     2.94     3.653118     20.42519     188.3318        23     1.111     1.096  11.28   0
        84    947.9268    780.1738 300.2130896 +22.8686474     2779.182     72.39626      1.660     3.32     3.841692     20.42519     197.3168        29     1.271     1.205  57.64   0
        85    977.4763    778.4833 300.2228525 +22.8770177     365.7313     72.48841      1.727     5.27     3.882186     20.42519     29.85186         7     1.018     0.772  44.70   0
        86    435.8674    778.9332 300.0540276 +22.7147425     640.6697     72.45156      1.702     3.90       3.6757     20.42519     58.77613        10     0.965     0.744  20.10   0
        87    705.9435    776.0770 300.1390187 +22.7949287     1006.521     72.43314      1.521     3.41     3.625508     20.42519      85.9914        20     1.161     1.045 -64.73   0
        88    542.3195    776.4784 300.0879475 +22.7459723     487.1219     72.52523      1.937     5.55     3.346275     20.42519     39.50043         9     1.077     0.808   5.96   0
        89    307.3263    775.7996 300.0150723 +22.6752738     895.0446     72.26707      1.641     3.06     3.809258     20.42519     94.04037        14     1.030     0.898  -8.30   0
        90    552.9698    771.0278 300.0930342 +22.7476025     892.6227     72.39626      1.565     3.65     3.389986     20.42519     83.36275        13     1.127     0.782 -45.67   0
        91    111.9031    771.5172 299.9557344 +22.6153891     604.4951     72.56203      1.745     3.69     3.904574     20.42519     58.59272        10     1.014     0.950 -10.77   0
        92    954.1603    767.9459 300.2190087 +22.8670029     455.4911     72.39626      1.534     3.95       3.8669     20.42519     58.19606        11     1.009     0.858  -3.47   0
        93    454.4456    766.9634 300.0636983 +22.7168814     371.4189     72.43314      1.752     4.70     3.633281     20.42519     34.49674         7     1.293     0.485  42.83   0
        94    498.9844    766.3696 300.0777486 +22.7300721     438.9467     72.39626      1.675     3.84     3.495566     20.42519     45.77164         5     0.908     0.465  -9.63   0
        95    141.0527    765.4962 299.9667469 +22.6224132     489.0243     72.46999      1.737     5.37     3.944463     20.42519     35.45012        10     1.055     0.772 -19.31   0
        96    707.3264    765.1960 300.1429869 +22.7922192     364.9588     72.32246      1.732     5.42     3.715121     20.42519     32.34103         5     1.184     0.701  12.61   0
        97    931.6506    762.5274 300.2137527 +22.8587001     380.9523     72.39626      1.457     4.91     3.857821     20.42519     35.28843         9     1.056     0.646  82.40   0
        98    304.8442    760.4511 300.0192901 +22.6701260      558.578     72.43314      1.550     4.55     3.755181     20.42519     55.90255        10     0.987     0.782 -65.06   0
        99    628.2226    750.9780 300.1229771 +22.7644166      514.501     72.39626      1.570     3.28     3.897551     20.42519     48.21687        10     0.914     0.728  -9.61   0
       100    636.2012    750.4277 300.1256400 +22.7666513     176.0101     72.35938      1.267     4.50     3.899205     20.42519      31.5531         5     1.173     0.491   3.37   0
       101    598.1589    748.9081 300.1142907 +22.7548065     589.8186     72.39626      1.458     3.85     3.836994     20.42519     65.16506        10     0.953     0.741 -59.29   0
       102    506.6805    748.4246 300.0859769 +22.7272305     345.6676     72.37782      1.227     3.39     3.539784     20.42519     41.36715         5     1.031     0.323 -69.89   0
       103   1014.4290    745.4702 300.2451088 +22.8786064     4492.409     72.39626      1.769     3.66     3.904384     20.42519     327.6144        38     1.377     1.299  70.91   0
       104    619.8832    746.6147 300.1217992 +22.7606631     1483.659     72.35938      1.469     2.84     3.944049     20.42519     180.8261        18     1.069     0.924  -2.81   0
       105    539.5426    745.4847 300.0971590 +22.7362436     242.7457     72.50682      1.461     4.77      3.38922     20.42519     42.12439         7     0.921     0.785 -39.24   0
       106    701.2362    741.6008 300.1487607 +22.7836183     196.8101     72.37782      0.982     2.23     3.908335     20.42519     42.37941         5     0.670     0.479 -12.68   0
       107   1002.9494    737.0078 300.2442798 +22.8727351     1795.345     72.39626      1.745     3.55     3.900592     20.42519     133.4333        26     1.241     1.215 -11.88   0
       108    365.6666    730.7284 300.0478635 +22.6798488      827.971     72.43314      1.426     2.95     3.742578     20.42519     107.6011        13     1.007     0.896  70.11   0
       109    829.3302    728.0931 300.1930558 +22.8181408     2614.367     72.52523      1.625     3.08     3.801326     20.42519     231.6746        30     1.435     1.114   2.10   0
       110     51.7490    718.3763 299.9543239 +22.5820926     852.1208      72.4147      1.659     4.51      3.35304     20.42519     79.93842        19     1.366     1.113 -12.82   0
       111    214.7081    714.8425 300.0060975 +22.6299929     605.7162     72.39626      1.524     3.68     3.940273     20.42519     70.09128        12     1.146     0.756 -81.67   0
       112    911.5260    714.1302 300.2232122 +22.8387656     603.6053     72.46999      1.798     2.88     4.038195     20.42519     64.30817         8     0.876     0.622  32.34   0
       113    947.6602    705.0942 300.2374140 +22.8469982     146691.4     72.48841      1.618     3.12      4.04322     20.42519     11687.97       166     1.556     1.516  71.43   0
       114    710.3699    708.9507 300.1622183 +22.7769814     254.0569      72.4147      1.199     4.27     4.099277     20.42519     47.93804         7     0.762     0.683 -50.40   0
       115    799.8204    705.3970 300.1912381 +22.8027764     785.6849     72.34092      1.555     3.32     3.785782     20.42519     89.86701        15     1.088     0.936  61.36   0
       116    980.5260    698.3741 300.2498457 +22.8549155     397.8828      72.4147      1.450     3.91     3.947822     20.42519     44.47754         6     0.905     0.483   1.86   0
       117    633.8762    693.8511 300.1433060 +22.7497107      1638.59     72.39626      1.368     2.72      4.33876     20.42519     205.1538        19     1.072     0.935  88.93   0
       118    815.1520    691.2640 300.2006086 +22.8033126     9274.653      72.4147      1.484     2.70     3.896098     20.42519     901.6042        45     1.258     1.237  87.14   0
       119    296.9348    693.0448 300.0387401 +22.6484142     299.2555     72.39626      1.296     4.43     3.808227     20.42519     37.65543         6     0.793     0.703 -72.73   0
       120    316.6498    686.3508 300.0470448 +22.6524089     4988.416     72.43314      1.485     2.66     3.840197     20.42519     557.7343        34     1.189     1.151  59.13   0
       121    398.8134    684.3844 300.0732343 +22.6764944     1051.491     72.34092      1.509     2.85     3.863441     20.42519     131.6953        19     1.144     0.962 -86.82   0
       122     30.4881    684.8143 299.9586285 +22.5660863     1744.944     72.34092      1.846     2.99     3.162579     20.42519     201.9597        26     1.357     1.183  -7.31   0
       123    274.5611    681.9866 300.0353783 +22.6385282     569.7325      72.4147      1.612     3.38     3.891942     20.42519      55.7646         8     0.832     0.725  55.77   0
       124    607.0789    680.1912 300.1394025 +22.7377535     751.6414     72.35938      1.534     3.08     4.444393     20.42519     84.16438        12     1.003     0.794 -31.98   0
       125    598.5464    672.1060 300.1393739 +22.7328736     3130.552     72.45156      1.385     2.46     4.510448     20.42519     389.5097        27     1.147     1.040  39.78   0
       126    588.7982    665.8080 300.1383860 +22.7281423     1416.765     72.21162      1.400     2.63     4.559999     20.42519     183.2946        20     1.088     0.990  55.71   0
       127      6.6505    666.1903 299.9572784 +22.5535897      359.413     72.39626      1.412     2.20     2.986392     20.42519     46.65606         5     0.705     0.446 -72.03   0
       128    982.6250    663.8586 300.2617179 +22.8456264     481.3174     72.39626      1.788     4.21     4.034165     20.42519     42.50933         7     0.905     0.559   7.47   0
       129    252.0518    661.8948 300.0349103 +22.6260098     653.5362     72.46999      1.488     2.98     4.021697     20.42519     70.74451        12     0.952     0.822 -62.06   0
       130    266.4541    660.4335 300.0398619 +22.6299120     641.5627      72.4147      1.650     3.05     3.964425     20.42519     65.04833        10     0.894     0.819  20.82   0
       131    291.9819    657.3547 300.0487980 +22.6366879     590.6931      72.4147      1.340     2.95     3.874173     20.42519     73.58792        10     0.980     0.672 -35.37   0
       132    323.0488    657.0944 300.0585414 +22.6459339     437.6203     72.45156      1.458     2.50     3.939485     20.42519     48.35604         6     0.760     0.631 -10.80   0
       133    612.9509    656.1042 300.1490581 +22.7325982     475.8456     72.45156      1.448     4.76     4.608891     20.42519     57.21225         8     0.997     0.669  29.14   0
       134    513.5928    655.5009 300.1183288 +22.7026308     1940.359     72.28554      1.474     2.69     4.497889     20.42519     216.7531        19     1.016     1.004 -53.72   0
       135    167.5712    650.4354 300.0123798 +22.5973716     19906.26      72.4147      1.639     2.94     4.080299     20.42519     2102.525        65     1.422     1.335  41.26   0
       136    598.5643    650.9708 300.1462475 +22.7268106     1095.219      72.4147      1.435     2.61      4.64894     20.42519     120.2807        17     1.128     0.845 -74.45   0
       137     88.5594    651.9714 299.9873350 +22.5740990     707.4981      72.4147      1.621     3.54     4.172963     20.42519     86.72171        12     1.087     0.794  42.00   0
       138    633.8690    649.9853 300.1575590 +22.7371130     351.6422      72.4147      1.263     2.31     4.658129     20.42519     54.21094         5     0.762     0.478 -30.23   0
       139    352.1071    642.3771 300.0723590 +22.6504279     350.6079     72.32246      1.567     4.16     4.102987     20.42519     35.47391         5     0.803     0.616  74.93   0
       140    681.3889    638.3274 300.1761438 +22.7480117     243.0301      72.4147      1.218     3.50     4.710326     20.42519     45.96216         5     0.741     0.479  80.55   0
       141   1016.6622    637.0117 300.2810565 +22.8481085      968.067     72.35938      1.495     3.65     4.177346     20.42519     93.05209        15     1.161     0.898  17.09  16
       142    113.7095    634.7870 300.0007304 +22.5767185     1521.543     72.34093      1.889     4.96     4.224553     20.42519     107.9711        25     1.505     1.163 -71.87   0
       143    883.2451    635.1372 300.2400690 +22.8075959     546.5032      72.4147      1.704     3.12     4.253887     20.42519     53.09143         8     0.875     0.720  33.04   0
       144    179.6306    634.9794 300.0211486 +22.5965567     424.7972     72.39626      1.628     4.33     4.078795     20.42519     58.22915         9     1.206     0.614  41.32   0
       145    561.9561    631.3136 300.1412394 +22.7101896     483.0706     72.37782      1.527     3.13      4.79509     20.42519     58.80642         7     0.819     0.687  78.07   0
       146    957.1978    629.6110 300.2649186 +22.8281666     876.7699     72.21162      2.349     3.89     4.336493     20.42519     65.26167        12     1.039     0.852 -37.44   2
       147    354.7831    630.5544 300.0770324 +22.6478377     384.5601      72.4147      1.457     3.45     4.183006     20.42519     35.30928         5     0.744     0.463  17.99   0
       148    700.8222    628.3276 300.1854451 +22.7509654     238.0623      72.4147      1.349     2.50     4.629349     20.42519     40.51559         5     0.725     0.441 -16.14   0
       149    518.7230    623.7718 300.1302347 +22.6950604     755.9311     72.39626      1.258     2.94     4.646501     20.42519     93.17951        11     0.919     0.761  48.69   0
       150    666.6627    622.2557 300.1767800 +22.7389815     393.0742     72.45157      1.281     2.89     4.888197     20.42519       69.611         8     0.936     0.573  19.25   0
       151    713.9780    620.7399 300.1920078 +22.7527297     510.4733     72.37782      1.299     2.69     4.567056     20.42519     70.56633        10     0.883     0.724 -88.26   0
       152    684.3297    620.5782 300.1828267 +22.7437958      687.939      72.4147      1.601     3.77     4.811594     20.42519     63.53559        12     1.178     0.740 -41.67   0
       153    563.1010    619.4993 300.1454344 +22.7071408     1048.292     72.63559      1.571     2.80     4.866278     20.42519     112.6645        16     1.013     0.958  45.83   0
       154    996.6433    615.1436 300.2819192 +22.8358265      3285.48     72.39626      1.554     2.76     4.426451     20.42519      295.136        31     1.200     1.197  -9.77   0
       155    528.5067    615.0320 300.1361189 +22.6954849     1674.368     72.32246      1.383     2.64     4.762118     20.42519     207.1597        21     1.134     0.976  27.74   0
       156    893.7896    612.3017 300.2507754 +22.8041942     306.5643     72.28554      1.209     3.86     4.316143     20.42519      36.7089         8     0.903     0.650   7.76   0
       157     90.3408    608.5714 300.0019883 +22.5621855     5033.013     72.39626      1.678     3.16     4.364987     20.42519     531.7505        41     1.376     1.325 -10.72   0
       158    557.6107    605.8710 300.1481532 +22.7015814     221.2337     72.39626      1.213     3.46     4.912845     20.42519     39.90123         7     0.883     0.585  10.54   0
       159    391.8085    601.7924 300.0978914 +22.6506887       8987.3      72.2486      1.398     2.42     4.335581     20.42519     1216.982        44     1.220     1.148  45.15   0
       160    514.2471    598.8393 300.1369421 +22.6865600      8927.64     72.43314      1.368     2.42     4.628733     20.42519     1076.359        41     1.216     1.105  56.14   0
       161    153.0244    601.3797 300.0237973 +22.5789336     433.7229     72.39626      2.078     3.39     4.073996     20.42519      34.9118         5     0.762     0.611  85.80   0
       162    279.2990    595.2228 300.0650413 +22.6150541     418.9412     72.34093      1.958     5.03     3.991819     20.42519     41.99774         8     1.074     1.036  73.44   0
       163    158.3640    594.9265 300.0275526 +22.5786846     292.3031     72.34093      1.292     4.28     4.080976     20.42519     38.75934         7     0.770     0.678 -68.10   0
       164    926.0142    592.8854 300.2671290 +22.8082700     1893.881     72.34092      1.454     2.88     4.419415     20.42519     220.0962        23     1.096     1.054 -18.42   0
       165   1010.6036    590.1741 300.2943853 +22.8328319     12305.75     72.35938      1.561     2.93     4.603548     20.42519      1106.03        50     1.316     1.279  72.59   0
       166    574.8920    588.4084 300.1592051 +22.7017486     11504.45     72.30401      1.358     2.42     4.869825     20.42519     1489.159        43     1.188     1.107  71.77   0
       167    302.3669    583.7845 300.0759284 +22.6186917     1505.013     72.37782      1.549     3.35     4.096045     20.42519     143.3772        22     1.331     1.021  81.03   0
       168    744.2056    584.0921 300.2133294 +22.7512630     519.0294     72.30401      1.253     4.07     4.421393     20.42519     68.68906         9     1.052     0.632  69.97   0
       169    460.0433    582.6798 300.1253259 +22.6656664     297.4246     72.37782      1.232     2.68      4.35304     20.42519     48.47115         7     0.726     0.658   4.57   0
       170      3.3489    580.8220 299.9839866 +22.5281172     2442.086     66.39411      1.678     3.78     4.510412     20.42519     246.7078        28     1.315     1.174  38.48  24
       171    549.2798    581.3152 300.1535375 +22.6920327     405.3374     72.54364      1.237     3.92     4.778862     20.42519     63.05323         8     0.922     0.735   4.13   0
       172    506.4996    576.6599 300.1417362 +22.6778688     4342.842     72.48841      1.355     2.42     4.508903     20.42519     596.2341        28     1.131     1.029  51.67   0
       173    849.3396    576.5598 300.2485334 +22.7806052      829.912     72.39626      1.387     3.00     4.305063     20.42519      97.8192        14     1.037     0.864 -19.08   0
       174    484.8314    574.9719 300.1355421 +22.6708868     1228.436     72.39626      1.374     2.29     4.379705     20.42519      178.197        16     0.964     0.883  32.39   0
       175    239.0364    574.4683 300.0592677 +22.5970195     784.1248     72.39626      1.404     2.82     4.088477     20.42519     87.97354        11     0.949     0.727 -78.50   0
       176    926.3098    572.0728 300.2739825 +22.8023774     1600.215     72.56203      1.584     3.20     4.437369     20.42519     150.9241        23     1.185     1.119 -49.76   0
       177    172.9592    572.5299 300.0393625 +22.5766383     165.3831     72.35938      1.258     6.06      4.17099     20.42519     29.29487         6     1.466     0.705  28.98   0
       178    623.1389    564.1367 300.1821091 +22.7092424       198524     72.43314      1.360     2.40     4.981782     20.42519     24814.36       204     1.453     1.443  31.15   0
       179    806.7990    569.1594 300.2376810 +22.7657315     779.1069      72.4147      1.261     4.03     4.296567     20.42519     105.6481        13     1.177     0.772  54.57   0
       180    446.6494    570.2521 300.1251959 +22.6580820      276.384     72.43314      1.330     3.40     4.343595     20.42519     32.29034         5     0.736     0.456 -75.76   0
       181    309.2239    564.1044 300.0844528 +22.6151004     3447.042     72.28554      1.416     2.67     4.220847     20.42519     397.6582        27     1.157     1.061  72.94   0
       182    874.9022    560.2963 300.2617834 +22.7835912     496.7131     72.58044      1.461     2.78     4.385994     20.42519     62.19577         9     0.843     0.755  55.02   0
       183    489.1694    560.2619 300.1416701 +22.6679641     319.1233      72.4147      1.887     3.44     4.383747     20.42519     29.85149         5     0.977     0.350 -46.26   0
       184    893.9234    558.4728 300.2683046 +22.7887662     293.0222     72.46999      1.174     3.81     4.412551     20.42519     38.34995         6     0.837     0.499  -1.65   0
       185    513.7465    544.4857 300.1544420 +22.6708034     2810.309     72.45157      1.492     2.47     4.453171     20.42519     325.9755        26     1.148     1.027  80.59   2
       186    357.8905    546.7637 300.1052176 +22.6247203     536.8016     72.37782      1.509     3.06     4.335581     20.42519     52.54932         7     0.740     0.652  23.38   0
       187    963.8279    544.7321 300.2945610 +22.8057589     262.3586     72.37782      1.368     3.69     4.630132     20.42519     43.52917         7     0.870     0.583 -25.12   0
       188    670.4233    541.8586 300.2040684 +22.7170172     367.9895     72.39626      1.930     3.01      5.07266     20.42519     43.00085         5     0.727     0.463 -72.00   0
       189    925.6085    540.7839 300.2839275 +22.7931750     327.6942     72.32246      1.312     4.45      4.46138     20.42519     46.59229         9     1.092     0.804  -5.21   0
       190    831.2771    533.3531 300.2569391 +22.7627779     415.6618     72.39626      1.555     3.22     4.447239     20.42519     57.53345         9     1.039     0.615 -47.18   0
       191    910.7779    530.4892 300.2826479 +22.7857734     1640.924     72.32246      1.456     2.83     4.455129     20.42519     209.7486        24     1.298     0.995  87.47   0
       192     40.5914    529.0959 300.0123506 +22.5244579     868.0869     72.28554      1.807     4.15     4.473206     20.42519     79.00836        16     1.209     0.950  47.15   0
       193    781.9429    528.2789 300.2432152 +22.7465374     2587.382     72.43314      1.358     2.43     4.472795     20.42519     315.2787        21     1.014     0.982  80.94   0
       194    141.8813    528.4269 300.0440302 +22.5546597     392.0032     72.37782      1.533     3.45     4.409216     20.42519     37.11383         5     0.758     0.453 -19.06   0
       195    991.5440    525.3046 300.3095136 +22.8084766     258.4331     72.45157      1.133     3.43     4.674957     20.42519     44.07491         5     0.765     0.444 -68.76   0
       196    686.9341    525.0582 300.2146667 +22.7171397     487.0327     72.43314      1.329     2.50     4.857101     20.42519     74.95662         9     0.758     0.757 -55.14   0
       197    569.1716    524.0833 300.1783182 +22.6815610     676.0815     72.39626      1.298     2.88     4.677029     20.42519     84.16913        12     0.996     0.753  34.10   0
       198   1023.8369    521.2754 300.3208932 +22.8169904     225.6629      55.2674      1.325     3.41     4.753489     20.42519     47.30907         5     1.088     0.309  78.77  24
       199    911.0139    520.6293 300.2859239 +22.7830103     2168.873      72.4147      1.598     3.66     4.458834     20.42519     214.9462        27     1.638     0.956  80.27   0
       200    664.2232    517.6967 300.2099851 +22.7082183     720.4399     72.32246      1.868     6.33     4.906054     20.42519     71.48917        13     1.760     0.640 -87.46   0
       201    450.1610    518.6847 300.1430369 +22.6443297     264.0909     72.37782      1.140     3.11     4.332915     20.42519     43.93129         6     0.800     0.625 -24.62   0
       202    949.1859    515.8839 300.2993655 +22.7930810     4108.968     72.35938      1.417     2.61     4.521274     20.42519     508.2734        30     1.151     1.115 -42.07   0
       203    502.9339    517.3525 300.1598895 +22.6597702     367.1745      72.4147      1.245     2.89     4.405262     20.42519      60.4796         5     0.902     0.346  48.08   0
       204    590.2252    515.6272 300.1876181 +22.6854437     213.2184     72.35938      1.055     3.38     4.761166     20.42519     33.81487         5     0.745     0.444 -18.62   0
       205    686.7781    512.3871 300.2187333 +22.7134529     205.3627     72.37782      1.032     2.90     4.787461     20.42519     50.47817         7     0.847     0.695  58.75   0
       206    609.4362    512.0078 300.1947741 +22.6901627     364.7862     72.39626      1.430     2.93     4.834469     20.42519     54.29163         6     0.765     0.656 -61.54   0
       207    181.2298    506.1763 300.0634818 +22.5600803     848.1878     72.39626      1.376     2.71     4.292267     20.42519     116.0467        15     1.003     0.889  23.29   0
       208    447.0166    500.1123 300.1480900 +22.6380542     299.5624     72.32246      1.380     4.62     4.331386     20.42519     35.45393         7     1.048     0.577 -52.81   0
       209    228.9472    498.6133 300.0807670 +22.5722243     238.8482     72.43314      1.125     4.41     4.039645     20.42519     35.33295         6     0.876     0.631  38.75   0
       210    173.3424    496.2307 300.0642604 +22.5548601     459.1305      72.4147      1.412     3.55     4.359519     20.42519     53.98825         7     0.960     0.569  14.72   0
       211    781.2585    490.3185 300.2553300 +22.7354249     363.4129     72.45157      1.126     2.36     4.481509     20.42519     60.93733         9     0.828     0.657 -71.62   0
       212    670.2643    488.1925 300.2214476 +22.7015532     310.0526     72.37782      1.208     2.49     4.709275     20.42519      55.1801         7     0.812     0.583 -56.31   0
       213    722.4943    486.4620 300.2382762 +22.7167083     755.4389     72.48841      1.315     2.51     4.532916     20.42519     110.2022        14     0.986     0.798  44.65   0
       214    895.7350    482.5663 300.2935223 +22.7674933     239.2069     72.39626      1.409     4.26     4.474118     20.42519     33.57407         5     1.132     0.457  56.09   0
       215    783.3350    478.6129 300.2597781 +22.7326834     809.2987     72.34093      1.223     2.77     4.483516     20.42519     110.2273        14     1.033     0.825 -68.39   0
       216    940.5544    474.6970 300.3100499 +22.7786565     950.4432      72.4147      1.411     2.98     4.474952     20.42519     117.8407        16     1.057     0.927  31.06   0
       217    924.7604    471.2826 300.3062346 +22.7729443     512.4674     72.35938      1.194     3.49     4.475381     20.42519      70.8531         9     0.895     0.767 -35.95   0
       218    899.3414    472.1242 300.2980373 +22.7655722     214.7847     72.45156      1.195     3.82     4.475842     20.42519     38.73296         5     0.888     0.471 -85.97   0
       219    905.5438    471.2668 300.3002491 +22.7671837     308.4225     72.45157      1.116     3.71     4.475762     20.42519     46.97134         5     0.945     0.418   9.90   0
       220    130.1818    470.6371 300.0591603 +22.5345674     215.3211     72.39626      1.032     3.64      4.49342     20.42519     29.37092         5     1.008     0.379  85.65   0
       221    669.1773    469.1361 300.2272970 +22.6957528     3108.249     72.37782      1.298     2.36     4.662465     20.42519     409.4206        22     1.001     0.962  82.38   0
       222    144.9396    461.1424 300.0668279 +22.5362702     396.2601     72.46999      1.402     4.97     4.517204     20.42519     47.44357         7     0.917     0.763   1.94   0
       223    675.0305    456.8174 300.2331195 +22.6939677     255.7565     72.37782      1.199     4.76     4.654487     20.42519      41.9352         7     0.918     0.713  -2.55   0
       224    509.2233    456.2184 300.1816978 +22.6440993      299.507     72.39626      1.251     3.81     4.519364     20.42519     48.29852         8     1.011     0.663 -89.56   0
       225    952.3655    447.9566 300.3224151 +22.7745069     560.5253     72.45156      1.394     2.82     4.465577     20.42519     61.56776        11     0.942     0.739 -15.15   0
       226    688.5119    445.0372 300.2411427 +22.6946230     222.7426     72.37782      1.204     2.32      4.61588     20.42519     43.97558         6     0.743     0.496  83.51   0
       227    779.8061    443.1191 300.2702032 +22.7214263     1048.329     72.32246      1.252     2.46     4.483516     20.42519     141.0915        13     0.872     0.838  85.72   0
       228    575.6904    443.6928 300.2064513 +22.6604251     394.4963     72.56203      1.128     2.38     4.646616     20.42519     67.63841         9     0.815     0.689  -7.30   0
       229    283.6378    441.1591 300.1164213 +22.5721365       623.89     72.48841      1.366     2.47     4.555037     20.42519     81.91774        10     0.929     0.641  34.37   0
       230    123.8174    439.4702 300.0673013 +22.5237144       303.46      72.4147      1.751     4.70     4.583468     20.42519     32.09459         6     0.948     0.662  77.06   0
       231    346.1504    436.9218 300.1372338 +22.5896662     3626.547     72.39626      1.355     2.56     4.708317     20.42519     447.1824        28     1.151     1.020  61.34   0
       232    293.3653    431.7293 300.1225068 +22.5723466     7508.427     72.39626      1.394     2.39     4.601796     20.42519     974.1725        33     1.169     1.096  56.09   0
       233    797.6224    431.8108 300.2794257 +22.7235141     137.7033     72.39626      1.166     3.47     4.483516     20.42519     27.61334         5     0.767     0.453  73.77   0
       234    671.6266    431.1771 300.2403840 +22.6855809     337.9363     72.37782      1.353     3.41     4.660279     20.42519     33.73818         5     0.751     0.448 -72.36   0
       235    434.1801    425.9444 300.1681773 +22.6129080     4859.381     72.37782      1.331     2.42     4.645852     20.42519     640.6534        31     1.139     1.013  64.68   0
       236    678.3575    422.6233 300.2452571 +22.6851401     18475.54     72.45157      1.310     2.30     4.646214     20.42519     2490.416        55     1.278     1.119  65.65   0
       237    696.3129    422.3169 300.2509485 +22.6904323     881.6617     72.50682      2.073     7.64     4.596577     20.42519     68.58132        19     1.745     0.937 -35.36   0
       238    875.1487    413.0492 300.3096765 +22.7413447     346.6404     72.43314      1.250     3.11     4.483879     20.42519     46.16929         8     0.828     0.644 -45.61   0
       239    298.3535    409.7331 300.1311978 +22.5675276     371.3614     72.39626      1.229     2.94     4.661946     20.42519      50.3953         8     0.875     0.634  84.07   0
       240   1012.2126    405.2035 300.3549575 +22.7801368     762.3063     72.23011      1.422     3.60     4.401539     20.42519     86.27394        16     1.176     0.962 -36.24   0
       241    548.6414    404.2354 300.2108411 +22.6409836     384.8089     72.45157      1.391     4.12     4.669649     20.42519     44.75644         6     0.715     0.679  17.94   0
       242    233.0394    402.7757 300.1131525 +22.5459434     2032.755     72.43314      1.387     2.64     4.489075     20.42519     245.0662        23     1.153     0.954  69.34   0
       243    618.9883    392.0867 300.2366832 +22.6585758     6711.122     72.34092      1.341     2.17     4.665026     20.42519     978.4398        35     1.220     1.021  74.67   0
       244    334.0437    391.3860 300.1482503 +22.5729617     658.9297      72.4147      1.526     3.08     4.816012     20.42519     78.83812        11     1.000     0.755  76.60   0
       245    313.0327    390.7885 300.1419110 +22.5664901     71.54128     72.37782      1.200     3.97     4.750862     20.42519      30.8977         5     0.864     0.522 -59.32   0
       246    191.2256    384.4656 300.1061001 +22.5281470     503.7542     72.37782      1.450     4.47     4.505166     20.42519     63.30595        10     1.081     0.760  59.13   0
       247    879.3927    383.7681 300.3205044 +22.7341985     313.2758     72.39626      1.232     4.62      4.49508     20.42519       55.059         7     1.175     0.516 -49.73   0
       248     38.7523    382.3200 300.0594293 +22.4817952     1408.179      72.4147      1.629     3.15     4.744477     20.42519     149.7024        24     1.228     1.129  26.78   0
       249    732.6442    382.2141 300.2752824 +22.6897936     516.2025      72.4147      1.411     3.73     4.508593     20.42519     80.16682        11     1.067     0.780  75.51   0
       250    823.1990    381.0256 300.3038813 +22.7165789     863.2567     72.34093      1.099     2.72     4.519878     20.42519     132.1801        13     0.950     0.813 -74.50   0
       251      7.5845    380.0410 300.0504903 +22.4717905     1520.095      72.4147      2.041     5.76     4.717873     20.42519     108.3502        29     1.744     1.174 -59.28  16
       252    525.6138    378.3621 300.2120723 +22.6266494     6153.908      72.4147      1.330     2.29      4.67955     20.42519     773.4291        39     1.204     1.105  75.18   0
       253    917.5555    372.8201 300.3359541 +22.7424802     1385.628     72.45156      1.445     2.59     4.491683     20.42519     153.5227        15     0.964     0.887  76.17   0
       254   1014.9038    373.1220 300.3662107 +22.7717173     568.0983     72.52523      1.270     2.35     4.395191     20.42519     95.93377         9     0.779     0.719 -13.38   0
       255    510.3026    367.0486 300.2109793 +22.6188105     513.2912     72.43314      1.244     2.13     4.688635     20.42519     78.15645         7     0.717     0.618 -82.61   0
       256     16.7241    367.1407 300.0575149 +22.4708309     537.5129     72.45156      1.752     3.06     4.842601     20.42519     67.55682         8     0.927     0.774  30.78   0
       257    592.8179    365.0833 300.2373002 +22.6429750     515.2376     72.35938      1.679     2.22     4.663819     20.42519     71.73409         6     0.824     0.455 -52.21   0
       258     36.8907    363.7769 300.0648690 +22.4759156     1008.482     72.32246      1.630     4.76     4.879558     20.42519     136.6233        18     1.390     0.982  37.13   0
       259    871.4972    364.2033 300.3243938 +22.7262092     348.5418     72.30401      1.315     2.29     4.504907     20.42519     43.26462         5     0.705     0.468 -70.38   0
       260    573.3654    362.7227 300.2320109 +22.6364674     385.5719     72.35938      1.320     3.42     4.666166     20.42519     41.49509         5     0.734     0.460 -75.68   0
       261    890.0832    360.5698 300.3313663 +22.7307309     537.2541      72.4147      1.318     3.51     4.501959     20.42519     68.84358         9     1.000     0.789 -15.71   0
       262    413.1602    357.5918 300.1838244 +22.5869764     2448.818      72.4147      1.338     2.49     4.813253     20.42519      317.164        22     1.123     0.885  54.16   0
       263    131.7258    355.0301 300.0971650 +22.5018524     955.3946      72.4147      1.471     2.97     4.690055     20.42519     108.6007        17     1.231     0.854  61.77   0
       264    760.7965    352.4115 300.2937252 +22.6896618     307.3214     72.21162      1.303     3.13     4.534021     20.42519     37.20074         5     0.739     0.440 -21.84   0
       265    382.5417    346.9837 300.1777433 +22.5747511     29322.66     72.37782      1.383     2.38     4.892608     20.42519     3906.272        71     1.356     1.178  63.54   0
       266    917.2344    344.5679 300.3450236 +22.7342610     1298.749      72.4147      1.293     2.32     4.523167     20.42519      195.684        17     1.059     0.890 -53.24   0
       267    872.4309    342.2387 300.3318134 +22.7201741     366.6065     72.39626      1.345     3.41     4.569833     20.42519     43.03489         5     0.734     0.457  70.66   0
       268     78.8572    334.8256 300.0872978 +22.4801957      4965.73     72.39626      1.537     3.01      4.96784     20.42519     526.0842        36     1.300     1.182  54.19   0
       269    956.5834    333.1552 300.3609955 +22.7427620     413.6916      72.4147      2.379     5.96     4.498597     20.42519     35.44624         6     1.629     0.614 -39.30   0
       270    832.4371    333.3254 300.3222415 +22.7056338     585.5724     72.34093      1.300     2.90       4.6656     20.42519     62.93592         8     0.855     0.712  28.97   0
       271    480.9644    332.3122 300.2131228 +22.6000390     523.5491     72.37782      1.339     2.59     4.740983     20.42519     73.31451         7     0.796     0.651  81.07   0
       272    256.8022    333.2480 300.1431032 +22.5331084     346.9747     72.37782      1.229     3.61     4.655091     20.42519     51.76386         8     1.017     0.554  31.80   0
       273     13.3687    330.7095 300.0682948 +22.4593699     212.2462     72.34093      1.291     4.04     4.984436     20.42519     35.34903         5     0.981     0.475 -84.26   0
       274    792.9456    326.7728 300.3120621 +22.6919220     1919.489     72.39626      1.386     2.17     4.708011     20.42519     294.3495        25     1.141     1.069  47.74   0
       275    601.0728    321.2867 300.2540832 +22.6328645     225.9469     72.52523      1.049     3.31     4.475598     20.42519     40.34033         6     0.885     0.464  38.82   0
       276   1008.1813    319.9915 300.3813575 +22.7544249     572.1578     72.35938      1.268     2.89     4.425486     20.42519     73.09407         9     0.909     0.631  32.07   0
       277      1.2824    319.6341 300.0681354 +22.4525659     350.0216     56.01121      1.196     2.95     4.999001     20.42519     56.05941         6     0.872     0.450 -89.36  24
       278    454.7867    311.3063 300.2117940 +22.5861589     2137.185     72.32246      1.597     3.00      4.82063     20.42519      260.153        24     1.289     0.978  57.27   0
       279    667.0706    309.6927 300.2783948 +22.6493063     351.4685     72.52523      1.447     3.09     4.407556     20.42519      38.5493         5     0.955     0.566  71.43   0
       280    893.8773    304.1692 300.3508523 +22.7156506     471.3051     72.37782      1.280     2.59     4.715197     20.42519     73.10779         7     0.818     0.558 -45.18   0
       281    776.2469    301.8626 300.3149425 +22.6797596     466.9408      72.4147      1.396     4.21     4.730489     20.42519     46.80055        10     0.975     0.863 -59.50   0
       282     27.8947    301.8683 300.0821632 +22.4554504     773.7411     72.54364      2.026     4.02     5.003258     20.42519     59.88109        11     1.196     0.675 -33.37   2
       283    744.1958    301.0541 300.3052197 +22.6699271     340.1624     72.37782      1.240     2.54     4.505729     20.42519     58.38044         5     0.643     0.558  -5.96   0
       284    530.7337    291.0241 300.2420077 +22.6030923     1559.078     72.37782      1.214     5.20     4.442964     20.42519     490.8859        15     1.050     0.727  68.70   0
       285    103.0619    291.1707 300.1089806 +22.4749252      245.651      72.4147      1.281     4.39     4.925074     20.42519     45.91215         6     0.929     0.589 -16.55   0
       286    914.0598    283.8024 300.3637524 +22.7158374      309.749     72.37782      1.324     4.42     4.720819     20.42519     38.45874         7     0.970     0.574  16.75   0
       287    775.5093    282.5115 300.3209914 +22.6739757     2151.841     72.56203      1.297     2.42     4.791302     20.42519     290.9163        23     1.083     1.047  17.79   0
       288      8.5873    267.9685 300.0871651 +22.4399297     72793.59     72.37782      1.658     3.07     5.177935     20.42519     7642.245       126     1.625     1.459  49.74  24
       289    483.8147    266.2696 300.2354378 +22.5819200     680.7816      72.4147      1.218     2.55     4.750949     20.42519     102.4968        11     0.913     0.749  63.36   0
       290    189.3381    260.7254 300.1456639 +22.4920568      765.279     72.43314      1.763     4.14     4.594393     20.42519     77.00191        13     1.196     0.868  72.51   0
       291    158.8434    260.7364 300.1361843 +22.4829161     1345.266     72.39626      1.693     3.96      4.60599     20.42519     125.0229        20     1.280     1.001 -34.68   0
       292    896.1565    254.0887 300.3678115 +22.7019321     327.6062     72.39626      1.477     2.97      4.85305     20.42519     41.96654         5     0.838     0.635  28.01   0
       293    242.5732    252.7293 300.1648034 +22.5057217     519.9119     72.39626      1.483     3.19     4.707068     20.42519     57.58013        11     0.932     0.846 -11.56   0
       294    918.7580    246.5714 300.3772960 +22.7065371     164.4789      72.4147      1.137     3.48     4.825039     20.42519     33.06799         5     0.745     0.470  15.43   0
       295    847.0302    244.0513 300.3557555 +22.6843361     629.4456     72.43314      1.344     2.53     4.948634     20.42519     96.04814        10     0.884     0.742  52.03   0
       296    437.5208    243.9089 300.2282879 +22.5616226     290.1281     72.54364      1.221     2.31     4.847935     20.42519     60.70894         8     0.772     0.650  -7.51   0
       297    937.8814    237.1354 300.3863191 +22.7095485     274.4072     72.50682      1.239     3.74     4.811536     20.42519     41.27883         6     0.918     0.458  35.71   0
       298    945.1332    233.1049 300.3898876 +22.7105603     2035.495     72.52523      1.374     2.69     4.800745     20.42519     233.9629        22     1.121     0.981 -84.85   0
       299    193.1374    226.0619 300.1580883 +22.4832426     233.7822     72.43314      1.406     3.81     4.666207     20.42519     48.18149         8     0.977     0.761  87.63   0
       300    441.7804    225.4183 300.2356108 +22.5575867     1139.246     72.39626      1.579     4.09     4.818992     20.42519     106.5627        18     1.193     0.990  23.57   0
       301    843.5884    224.7220 300.3609530 +22.6777472      606.512     72.37782      1.422     3.13      4.96394     20.42519      81.1242        11     1.003     0.770 -64.82   0
       302    363.7206    230.2618 300.2097587 +22.5355842      2158.13     72.46999      1.374     2.64     4.921585     20.42519     268.1057        25     1.132     1.064  39.62   0
       303    258.3655    217.5889 300.1811105 +22.5003644     739.2773     72.37782      1.318     3.29     4.848428     20.42519      83.5707        12     1.068     0.745  47.87   0
       304    796.3350    214.4758 300.3495513 +22.6606516     1790.658     72.46999      1.469     2.52     4.955563     20.42519     199.0415        22     1.134     1.029 -42.57   0
       305    228.0271    213.7349 300.1729301 +22.4901628     256.8492     72.37782      1.271     5.10     4.756906     20.42519      33.1889         8     1.153     0.638  77.73   0
       306    110.7150    214.6299 300.1361859 +22.4552469     261.0148     72.39626      1.254     4.65     4.910643     20.42519     36.43193         6     0.925     0.714 -78.46   0
       307    861.2923    214.1668 300.3698945 +22.6800127     554.0593     72.34093      1.233     2.72     4.951221     20.42519     63.73145         8     0.805     0.630 -55.10   0
       308    280.0095    210.9757 300.1899840 +22.5049532     434.5322     72.39626      1.333     3.60      4.95823     20.42519     79.55354        12     1.069     0.865 -45.68   0
       309    569.7292    206.9779 300.2814094 +22.5906245     387.9319      72.4147      1.177     2.82       4.4424     20.42519     47.66981         7     0.761     0.612  74.88   0
       310    800.4647    205.9450 300.3536051 +22.6594352     724.0682     72.45156      1.341     2.56     4.946713     20.42519     87.45615        11     0.911     0.725  50.15   0
       311    720.8746    205.2422 300.3290372 +22.6353988     1165.389     72.37782      1.293     2.52     4.798682     20.42519     166.4667        17     1.074     0.823  37.64   0
       312    647.1123    196.8708 300.3087798 +22.6108998     1038.712     72.56203      1.423     2.35     4.657729     20.42519     140.2956        16     0.987     0.963 -37.71   0
       313    916.3283    196.6995 300.3927156 +22.6914661     1487.013     72.54364      1.415     2.66     4.922151     20.42519     190.0107        15     0.949     0.914 -44.20   0
       314    928.3311    195.8884 300.3967207 +22.6948259     784.5392     72.56203      1.347     2.73      4.91652     20.42519     99.07457        12     0.886     0.825 -89.10   0
       315    974.6541    194.8932 300.4114871 +22.7084060     211.4432     72.45156      1.152     3.14     4.820949     20.42519     40.27901         5     0.803     0.463  36.55   0
       316     18.2943    185.2999 300.1169916 +22.4191120      318.325     72.58044      2.069     2.44     5.175635     20.42519     51.17198         6     0.689     0.624 -31.89   0
       317     68.9114    183.1243 300.1334175 +22.4336664     583.2357     72.52523      1.654     2.45     5.035392     20.42519     63.98318         8     0.770     0.672  53.62   0
       318    279.1734    179.1106 300.2000581 +22.4955501     871.0002     72.35938      1.401     2.82      5.06032     20.42519     107.7195        13     1.005     0.800  46.18   0
       319    141.0025    174.0598 300.1587525 +22.4526793     2176.374     72.37782      1.450     2.69     4.923995     20.42519     236.3939        25     1.168     1.079  22.00   0
       320    964.2698    170.9702 300.4160078 +22.6984159     788.8926     72.39626      1.414     4.59     4.913033     20.42519     80.08282        14     1.311     0.778  39.42   0
       321     90.8057    170.9216 300.1441753 +22.4367279     594.2197     72.32246      1.480     2.64     4.974579     20.42519        73.57         8     0.810     0.651 -43.84   0
       322    298.4629    167.3005 300.2098851 +22.4979393     5742.314     72.48841      1.409     2.46     5.083549     20.42519     635.3405        34     1.244     1.046  72.55   0
       323     82.4223    161.5890 300.1445973 +22.4315346     1315.819     72.39626      1.575     2.83     4.977125     20.42519     161.5092        21     1.146     1.102  29.89   0
       324     44.3310    163.0931 300.1322783 +22.4205447     312.8865     72.52523      1.499     2.80     5.010903     20.42519     41.47472         6     0.735     0.622 -36.46   0
       325    281.8295    158.2119 300.2076607 +22.4903432      626.118     72.39626      1.430     2.30     5.117569     20.42519     85.23879        11     0.835     0.785 -70.44   0
       326    942.4587    148.8776 300.4163714 +22.6855321     3515.214     72.43314      1.429     2.67     4.947076     20.42519      407.023        31     1.267     1.080 -86.40   0
       327    492.0674    143.9730 300.2776704 +22.5492508     584.1987     72.37782      1.311     2.84     4.664759     20.42519     82.93206        11     0.967     0.759 -86.90   0
       328    606.3625    141.8852 300.3139230 +22.5828881     240.2194     72.37782      1.104     1.76     4.821587     20.42519     56.50574         5     0.670     0.443 -68.11   0
       329    416.1082    135.8666 300.2566654 +22.5241633      496.495     72.54364      1.280     2.22      4.82122     20.42519     75.92757         8     0.777     0.636  55.44   0
       330    420.0511    134.6467 300.2582875 +22.5249942     601.6554     72.43314      1.716     3.37     4.807417     20.42519     58.47299         8     0.956     0.607 -13.28   1
       331    471.3663    131.6439 300.2752264 +22.5395057     550.9359     72.45157      1.691     4.22     4.654929     20.42519     60.70761        10     1.136     0.843 -54.94   0
       332    182.1970    133.0645 300.1848455 +22.4532561     602.9608     72.39626      1.395     3.21     4.976203     20.42519     67.70867        10     0.903     0.752 -21.68   0
       333    543.3125    131.3027 300.2977270 +22.5609606     1691.381     72.58044      1.284     2.30     4.720807     20.42519     207.8464        17     0.957     0.883  50.30   0
       334    605.3605    130.4881 300.3173064 +22.5793117     434.2791     72.37782      1.508     2.42     4.827575     20.42519     57.72762         7     0.783     0.628  25.28   0
       335    287.0516    126.5817 300.2195399 +22.4828222     507.4434     72.37782      1.413     3.03     5.100787     20.42519     62.08263         8     0.848     0.750  15.95   0
       336    831.8333    120.7542 300.3910066 +22.6443276     248.9641     72.43314      1.309     3.26     4.896286     20.42519     51.68369         6     0.977     0.590 -83.45   0
       337    977.5731    115.2932 300.4382104 +22.6863797     333.6107     72.34093      1.888     3.49     4.938501     20.42519     33.45327         5     0.782     0.450 -71.17   0
       338    317.4136    111.1378 300.2339873 +22.4874843     5996.991     72.35938      1.425     2.54     5.036616     20.42519     630.9941        35     1.257     1.081  72.54   0
       339    823.7131    111.9491 300.3913309 +22.6393642     333.4768     72.39626      1.364     2.36     4.883222     20.42519     52.03844         7     0.697     0.664  45.39   0
       340    168.4290    110.6465 300.1878349 +22.4426904     721.8656     72.43314      1.595     3.08     4.928146     20.42519     84.31147        15     1.050     0.909  76.52   0
       341    946.5656    108.4421 300.4307629 +22.6751286     351.5953     72.45157      1.608     3.38     4.945885     20.42519     52.06457         6     0.824     0.559  50.36   0
       342     12.4089    107.4039 300.1404197 +22.3949841      714.916     72.23011      1.671     3.88     5.057528     20.42519     65.22089        13     1.070     0.906 -17.42   0
       343    332.9402    102.4758 300.2416235 +22.4896484     300.7177     72.45156      1.081     2.14     5.001878     20.42519     53.82763         6     0.727     0.492   9.14   0
       344     79.0503    101.5897 300.1630021 +22.4132954     499.1958      72.4147      1.874     4.46     4.943123     20.42519     43.17848         9     1.010     0.757  -8.78   0
       345    563.4754     96.4621 300.3152987 +22.5569851     6262.526     72.45157      1.393     2.45     4.800287     20.42519     781.2154        37     1.240     1.109  83.72   0
       346    448.9291     96.1049 300.2797671 +22.5225702     570.9945     72.50682      1.361     2.98     4.618038     20.42519     74.25085        11     0.979     0.731  70.91   0
       347    620.7226     91.4107 300.3347586 +22.5726782      222.371     72.37782      1.383     3.40     4.847624     20.42519     31.63575         5     0.754     0.444 -20.27   0
       348    757.3616     87.8549 300.3784678 +22.6125702     200.7432     72.39626      1.060     2.81     4.881972     20.42519     55.12524         6     0.758     0.596  17.95   0
       349    815.9482     86.0121 300.3973199 +22.6295795     668.5349     72.43314      1.417     3.56     4.865106     20.42519     91.93842        12     1.165     0.724  85.84   0
       350    908.5034     85.1208 300.4264570 +22.6570273     459.1075     72.50682      1.310     1.93     4.924614     20.42519      62.9002         6     0.707     0.500  89.57   0
       351    256.4776     80.2732 300.2250472 +22.4603559     415.9358     72.50682      1.479     3.08     4.945854     20.42519     52.67693         7     0.827     0.641 -13.86   0
       352    691.8593     76.5618 300.3617248 +22.5897106     6184.919      72.4147      1.377     2.43     4.855006     20.42519     875.6414        39     1.259     1.110  78.43   0
       353    614.8087     79.0666 300.3369189 +22.5673581     370.3437     72.39626      1.200     2.50     4.834065     20.42519     61.31407         8     0.810     0.622  39.86   0
       354    466.7683     75.6261 300.2919562 +22.5220286     1479.176     72.39626      1.304     2.38     4.562628     20.42519     209.8571        18     1.055     0.946 -83.58   0
       355    732.9283     73.9505 300.3753636 +22.6012562     929.7106     72.39626      1.472     2.95     4.877015     20.42519     111.0885        16     1.102     0.831  71.26   0
       356    802.4345     71.3322 300.3978677 +22.6213117     337.7037     72.39626      1.328     3.34     4.836187     20.42519     46.13729         5     0.725     0.453  69.29   0
       357    748.8595     69.9234 300.3816320 +22.6048677     690.0841     72.45156      1.431     2.98     4.866096     20.42519     84.21198        10     0.957     0.717   7.22   0
       358   1018.8570     67.4885 300.4665837 +22.6849782     396.7727     72.45156      1.268     2.47     4.481913     20.42519     62.68481         9     0.816     0.693  70.65  16
       359    215.5323     67.9408 300.2163171 +22.4445420     831.2836     72.43314      1.742     3.22     4.700854     20.42519     82.06011        11     1.052     0.669  40.69   0
       360    787.1444     65.7366 300.3949172 +22.6151250     436.0561     72.45156      1.190     2.15      4.84015     20.42519     65.36067         7     0.695     0.628  11.57   0
       361    736.0436     61.3763 300.3804100 +22.5985727     2773.761     72.45156      1.398     2.54     4.859674     20.42519     366.9472        24     1.118     1.042  83.37   0
       362    751.2563     60.1939 300.3855325 +22.6027870     877.0047     72.37782      1.715     4.04     4.852327     20.42519     83.77285        15     1.254     0.869  57.78   0
       363    377.0434     61.9397 300.2684797 +22.4912152     466.3915     72.39626      1.490     3.40     4.685978     20.42519     52.43112         6     0.770     0.557 -50.04   0
       364     29.6957     55.9037 300.1624812 +22.3853796     756.2289     72.58044      1.672     3.30     5.046591     20.42519     90.59018        16     1.103     0.956  46.66   0
       365    822.4945     53.0188 300.4100550 +22.6220487     1361.649     72.32246      1.406     2.87     4.859139     20.42519      165.753        22     1.231     1.023 -86.66   0
       366    982.2987     51.2958 300.4604311 +22.6693793     329.3869     72.58044      1.808     5.80     4.480412     20.42519     33.41938         5     1.169     0.810  44.83   0
       367    760.5350     46.3052 300.3929250 +22.6015702      763.912     72.52523      1.329     2.52     4.832612     20.42519     82.22107        13     0.942     0.779 -81.15   0
       368    566.0593     45.3761 300.3326626 +22.5430726     1105.384     72.39626      1.388     2.94     4.784324     20.42519      157.199        15     1.113     0.886  70.29   0
       369    469.7745     43.7087 300.3032370 +22.5137550     703.6681     72.34093      1.378     3.38     4.543779     20.42519     89.27123        13     1.129     0.806 -73.61   0
       370    138.8143     45.3876 300.1997858 +22.4150698     566.8005     72.32246      1.545     4.45       4.4713     20.42519      52.4866         8     0.976     0.576  15.93   0
       371    852.2647     42.4568 300.4227565 +22.6279211     380.6562     72.45157      1.312     3.62     4.899145     20.42519     38.98996         9     0.942     0.692 -27.86   0
       372    809.3307     34.3365 300.4120083 +22.6127343     638.7731     72.43314      1.393     2.86     4.830797     20.42519     70.83531        11     0.955     0.736  82.02   0
       373    241.2343     33.6213 300.2354293 +22.4423850     3807.041      72.4147      1.514     2.63     4.578212     20.42519      445.718        32     1.262     1.126  67.08   0
       374     33.4932     33.9717 300.1707685 +22.3802200     257.4542     72.32246      1.466     4.22     5.024959     20.42519     38.62435         6     1.033     0.491  84.15   0
       375    663.7221     30.5584 300.3678730 +22.5680568     439.0954     72.37782      1.444     3.17     4.811743     20.42519     56.12008         7     0.939     0.499  60.74   0
       376    802.8393     26.1950 300.4126242 +22.6084492      871.584      72.4147      1.400     2.99     4.818429     20.42519     104.2047        14     1.035     0.844  58.27   0
       377    357.3280     25.8831 300.2740340 +22.4749467     1348.854     72.52523      1.468     2.84     4.494612     20.42519     138.6428        17     1.034     0.935  49.56   0
       378    768.2245     25.6916 300.4020019 +22.5979430     408.1246     72.34093      1.687     3.40     4.811657     20.42519     43.55814         5     0.954     0.351  42.53   1
       379    289.6730     25.7691 300.2530328 +22.4546436      311.618     72.39626      1.258     2.68     5.078749     20.42519     43.02319         6     0.693     0.640 -23.05   0
       380    583.8301     23.3051 300.3453480 +22.5420487     399.2348     72.30401      1.738     5.13     4.772705     20.42519     38.24675         9     1.009     0.745  47.13   0
       381    840.3440     21.2851 300.4259032 +22.6182624     598.0666     72.48841      1.451     4.66      4.87026     20.42519     65.30117        13     1.376     0.626  60.03   0
       382    763.8663     21.1208 300.4021254 +22.5953236     540.0944     72.50682      1.388     3.79     4.805999     20.42519     74.41191         9     1.059     0.658 -75.34   0
       383    803.8112   1017.1545 300.0910849 +22.8934836     669.3484     72.39626      1.946     8.28     2.868405     20.42519     37.53809        20     1.468     1.304  77.51  16
       384    566.5272     16.0676 300.3423071 +22.5347862      516.916     72.45156      1.505     2.90     4.772995     20.42519     61.67449         9     0.886     0.734 -40.34   0
       385    703.5164   1016.6174 300.0600190 +22.8632436      8299.83     72.35938      1.907     4.24     3.024302     20.42519     460.8013        46     1.473     1.432 -82.90  19
       386    709.3481   1014.4708 300.0625337 +22.8643771     9290.032     72.39626      1.958     4.39     3.010321     20.42519     537.5912        52     1.591     1.466 -86.32  19
       387    178.7662   1015.5328 299.8971425 +22.7054212     538.5026     72.39626      2.239     3.46     63.44547     20.42519     33.26512         5     0.776     0.445  20.84   0
       388    568.1183   1005.8683 300.0213638 +22.8195341     399.3052     72.50682      1.857     5.75     3.058214     20.42519     33.95834         6     1.164     0.799  45.40   0
       389     52.4195   1003.0457 299.8619606 +22.6638939       1149.4     72.43314      4.270     8.24     3.292732     20.42519     59.64054        18     1.616     1.175  68.91   0
       390    995.6251   1001.1205 300.1560896 +22.9464019     820.3512     72.37782      2.504     7.23     1.926235     20.42519     49.95017        10     1.715     0.853  77.23   2
