#   1 NUMBER                 Running object number                                     
#   2 X_IMAGE                Object position along x                                    [pixel]
#   3 Y_IMAGE                Object position along y                                    [pixel]
#   4 ALPHA_J2000            Right ascension of barycenter (J2000)                      [deg]
#   5 DELTA_J2000            Declination of barycenter (J2000)                          [deg]
#   6 FLUX_APER              Flux vector within fixed circular aperture(s)              [count]
#   7 FLUXERR_APER           RMS error vector for aperture flux(es)                     [count]
#   8 FLUX_RADIUS            Fraction-of-light radii                                    [pixel]
#   9 FWHM_IMAGE             FWHM assuming a gaussian core                              [pixel]
#  10 BACKGROUND             Background at centroid position                            [count]
#  11 THRESHOLD              Detection threshold above background                       [count]
#  12 FLUX_MAX               Peak flux above background                                 [count]
#  13 ISOAREA_IMAGE          Isophotal area above Analysis threshold                    [pixel**2]
#  14 A_IMAGE                Profile RMS along major axis                               [pixel]
#  15 B_IMAGE                Profile RMS along minor axis                               [pixel]
#  16 THETA_IMAGE            Position angle (CCW/x)                                     [deg]
#  17 FLAGS                  Extraction flags                                          
         1    416.7917     14.1187 300.3033748 +22.5138230     896.0284     72.38991      1.380     3.58     6.239223     20.43902     124.7154        14     1.064     0.864 -28.90   0
         2    756.2095      5.1839 300.4120129 +22.6128051     619.1904     72.01962      1.277     2.77     6.047471     20.43902     82.70016        10     0.921     0.693 -45.18  16
         3    188.0648      4.0605 300.2354636 +22.4424595     3707.366     69.21799      1.563     3.10     6.100144     20.43902      378.668        33     1.391     1.169  57.44  24
         4    148.8032   1007.9682 299.8972957 +22.7188399     1917.467     72.42683      3.485    16.05     89.42362     20.43902     55.81482        44     3.117     2.297 -55.38  18
         5    266.1527   1014.9394 299.9315192 +22.7560495     2444.419     72.48219      6.171    27.12     38.57409     20.43902     59.22615       156     6.236     3.275 -72.01  19
         6    216.8705    986.7572 299.9253612 +22.7331825     4294.301     72.40837      8.649    33.34     66.93623     20.43902      79.8207       341     6.973     4.785 -83.24  19
         7    250.6443   1000.1675 299.9315019 +22.7471608     3098.229     72.50063      7.259    25.70     49.73838     20.43902     79.40394       190     6.725     2.726  -5.98  19
         8    237.0025    985.2843 299.9321014 +22.7388002     5956.296     72.37144     11.114    45.57     53.57906     20.43902     108.0295       618    10.044     5.737 -51.98  19
         9    254.6241    974.3583 299.9411367 +22.7409536     8667.979     72.50063     11.889    37.99     32.16499     20.43902     185.8027       948    12.801     4.985  62.44  19
        10    104.4947   1011.7288 299.8822986 +22.7066211     4117.995     72.55592     14.113    71.52     89.88012     20.43902     139.1226      1447    14.540     9.761  37.77  27
        11     93.6601    943.1592 299.9012382 +22.6837126     5978.083     72.44529     28.514   118.65     23.91155     20.43902     1325.897      4829    21.989    17.764 -77.23  18
        12    750.1309    987.0000 300.0913111 +22.8931608     693.8996     72.38991      2.111     5.65     4.248569     20.43902     49.67741        11     1.136     0.791  29.34   2
        13      2.5434    981.9173 299.8603157 +22.6674773      1385.96     62.90438     13.509    16.61    -18.03784     20.43902     49.16601        45     3.307     2.320  62.36  27
        14    181.5736    968.2892 299.9203936 +22.7172967      1192.66     72.40837      5.632     8.91     54.91561     20.43902     41.43742        18     2.451     0.904  40.87   2
        15    182.9162    978.1004 299.9176192 +22.7205127     1755.057     72.61118      5.577    16.14     63.24589     20.43902      58.8298        41     3.739     1.937  45.84   3
        16    178.8340    999.0670 299.9095286 +22.7252994     856.5842     72.44529      1.961     6.42     81.43063     20.43902     44.06874        13     1.946     0.595  38.14   3
        17    515.0153    976.6297 300.0214346 +22.8197023     447.2074     72.44529      2.047     3.88      3.96743     20.43902     28.79199         5     0.892     0.483   0.40   0
        18      3.6721   1001.3943 299.8543299 +22.6733983     2402.776     67.75404      5.310    17.46     -24.6323     20.43902     60.75079        79     3.338     2.538  57.83  27
        19    943.3659    971.5627 300.1565934 +22.9466297     838.0995     72.50063      2.098     7.85     4.755884     20.43902     45.02375        18     1.409     1.225 -45.67   0
        20      5.0085   1016.1400 299.8499474 +22.6780255     3391.866     71.77792      9.040    37.81    -29.17497     20.43902     75.61946       380     7.783     5.930 -14.84  27
        21      7.6582    993.8636 299.8580184 +22.6724364     2619.084     72.50063     10.573    25.73    -17.82896     20.43902     63.09705       161     5.342     3.442  18.22  19
        22    161.8286    956.3530 299.9181374 +22.7079500     1820.728     72.46374      6.605    15.60     48.38578     20.43902     45.95184        63     3.234     2.092  39.02   2
        23    668.3940    954.3603 300.0764567 +22.8592928     6843.683     72.48219      1.915     4.37     4.339047     20.43902     395.2288        44     1.485     1.471  -5.71   0
        24    547.9954    949.0004 300.0406938 +22.8216623     387.3912     72.26053      1.531     5.00     3.828161     20.43902     34.85091         6     1.179     0.601 -34.07   0
        25    259.4262    947.5476 299.9513522 +22.7347053      531.459     72.46374      1.953     6.40     17.57022     20.43902     48.88723        11     1.461     0.788  54.44   0
        26    178.9764    948.1152 299.9261487 +22.7107329     557.6857     72.42683      3.095     3.72     38.57978     20.43902     36.08018         5     1.005     0.397 -59.83   0
        27    187.9015   1001.6151 299.9115190 +22.7287507     1554.841     72.35297      4.470    15.92     83.19085     20.43902     58.66113        49     5.363     1.314  -0.03  19
        28    576.9749    945.0995 300.0509887 +22.8292308      1641.63     72.38991      1.896     4.19     3.872094     20.43902     112.5871        27     1.423     1.210 -12.80   0
        29    470.7595    941.4849 300.0190886 +22.7963482     1078.556     72.40837      1.790     5.61     4.214301     20.43902     86.66239        20     1.363     1.088  27.83   0
        30    401.3060    939.4653 299.9981257 +22.7749417     6609.848     72.57434      1.887     4.36     4.704822     20.43902     481.4289        44     1.472     1.398 -14.62   0
        31    190.7441    990.6404 299.9159735 +22.7264570     1697.791     72.42683      6.315    13.73     73.41686     20.43902     52.73942        40     3.097     1.694 -51.20   3
        32    187.6474    996.7158 299.9130340 +22.7272697     2522.274     72.44529      5.243    23.19     78.89495     20.43902     72.55226       101     4.652     3.210  38.57  19
        33     25.4176   1000.9806 299.8612208 +22.6798068     619.3202     72.42683      2.461     3.49    -1.202663     20.43902     28.55291         5     1.811     0.195 -54.15   1
        34    503.8666   1001.2409 300.0099554 +22.8234208     314.8682     72.40837      1.561     3.79     4.020992     20.43902     35.92298         5     0.940     0.438 -47.79   0
        35    433.9162    926.1006 300.0126233 +22.7808863     534.2874     72.61118      1.737     4.72     4.505739     20.43902     43.99043        11     1.066     0.998  71.83   0
        36    947.7713    918.3500 300.1752798 +22.9326654     2092.662     72.46374      2.047     5.25     4.789317     20.43902     106.3006        34     1.542     1.431 -64.18   0
        37    372.9214    999.1799 299.9698649 +22.7835584     424.3976     72.44529      1.735     3.82     4.960184     20.43902      36.3456         5     0.805     0.520  53.39   0
        38    736.2760    907.4230 300.1128810 +22.8661623     894.9307     72.48219      2.246     6.54     4.544621     20.43902     51.45073        19     1.682     0.931  59.32   0
        39    771.3250    901.4838 300.1257384 +22.8749596     1118.317     72.53749      1.893     5.25     4.576531     20.43902     83.27158        24     1.412     1.249 -76.39   0
        40    548.8427    902.3807 300.0561224 +22.8085369     266.3333     72.46374      1.572     5.05     4.183784     20.43902     33.21197         5     1.013     0.713 -71.92   0
        41    221.8661    898.7166 299.9555531 +22.7094336     870.6595     72.55592      6.881     6.86     9.751121     20.43902     32.39879         8     2.008     0.656  48.84   0
        42    793.5698    895.1048 300.1347483 +22.8797931     11442.86     72.37144      1.848     4.20      4.59279     20.43902     690.5274        53     1.489     1.430 -45.19   0
        43      2.9486    973.2094 299.8632744 +22.6651031      1373.33     64.74751     12.309    17.14    -14.38566     20.43902     49.21316        52     3.948     2.067  54.06  27
        44    838.1679    894.6389 300.1488059 +22.8930213     441.3848     72.48219      1.841     6.14     4.638544     20.43902     40.43538         8     1.399     0.757 -63.39   2
        45    104.8249    886.5229 299.9231288 +22.6708241     1190.563     72.46374      6.371     5.49     8.872447     20.43902     67.15336        19     1.609     1.065  36.86   0
        46    563.5262    991.9651 300.0315525 +22.8386480     2489.538     72.42683      1.955     4.27     3.796724     20.43902     150.3781        36     1.500     1.409 -19.68   0
        47    650.1665    987.3795 300.0600344 +22.8633065     8753.689     72.44529      2.038     5.17     4.031754     20.43902     506.5257        52     1.641     1.466  21.54   3
        48    499.2474    883.4551 300.0468333 +22.7882373     366.3134     72.48219      1.639     3.54     4.442425     20.43902     45.15641         7     0.944     0.624  48.84   0
        49    802.0490    877.0759 300.1432558 +22.8771562     1448.831     72.44529      1.878     4.16     4.579432     20.43902     102.8418        23     1.297     1.162  36.29   0
        50    654.2426    874.5172 300.0980183 +22.8321310     412.4377     72.40837      1.566     6.02     4.564683     20.43902     32.75626         9     1.358     0.751 -19.98   0
        51    841.0000    871.0063 300.1573754 +22.8870825     570.8178     72.24202      1.634     4.38     4.544034     20.43902     48.68791         9     1.135     0.620 -85.22   3
        52    839.0000    870.0027 300.1570781 +22.8861951     493.1671       72.205      1.535     4.69     4.541579     20.43902     45.38847         8     1.232     0.507 -70.22   3
        53    888.5458    862.0912 300.1751032 +22.8987647     587.1837     72.50063      1.750     6.47     4.492487     20.43902     50.02339        13     1.127     1.044  57.48   0
        54    739.9073    861.2053 300.1290447 +22.8539797     724.6581     72.33449      1.576     5.92     4.545207     20.43902     75.00875        13     1.193     0.862  46.93   0
        55    751.2156    857.9271 300.1336358 +22.8564266     498.1625     72.44529      1.570     4.87     4.549139     20.43902     52.26966        12     1.131     0.793  84.73   0
        56    452.5661    857.1427 300.0408563 +22.7666910     4300.258     72.46374      1.770     3.82     4.633295     20.43902      324.804        37     1.351     1.329 -59.89   0
        57    231.1376    846.3098 299.9754788 +22.6971830     346.4941     72.53749      1.190     3.89     6.161993     20.43902     42.29469         5     1.237     0.350 -46.76   0
        58    496.7035    845.6058 300.0583498 +22.7766119      321.093     72.35297      1.428     3.78     4.613595     20.43902     42.22637         5     0.943     0.434 -80.24   0
        59    177.7188    842.7947 299.9600098 +22.6801520     922.2704     72.37144      2.426     5.36     7.199017     20.43902     80.17911        20     1.577     1.149  -4.77   0
        60    154.8548    839.6974 299.9539080 +22.6724051     1715.499     72.53749      1.888     4.24      7.24446     20.43902     153.3256        30     1.470     1.327  72.44   0
        61    980.9390    827.7280 300.2151023 +22.9165649     2110.606     72.48219      1.896     4.89     4.902365     20.43902     123.1519        29     1.428     1.284  60.89   0
        62    686.4950    827.8517 300.1232438 +22.8283977     437.0829     72.51906      1.632     3.46     4.640324     20.43902     38.36264         5     1.001     0.346  -4.89   0
        63    764.4165    821.4385 300.1496163 +22.8499030     616.0094     72.46374      1.779     5.47     4.553785     20.43902     51.44584        15     1.259     0.960   8.89   0
        64    187.4729    820.8530 299.9701768 +22.6767843     432.8582     72.44529      1.469     4.89     6.087263     20.43902     42.78683         9     1.123     0.602  59.85   0
        65    632.6144    815.3848 300.1105083 +22.8086723     4844.956     72.38991      1.655     3.57     4.590079     20.43902     436.3474        35     1.272     1.241 -85.30   0
        66    655.5862    984.8168 300.0625568 +22.8641957     9477.171     72.38991      1.978     4.93     4.075282     20.43902     516.5356        48     1.565     1.428  29.63   3
        67    434.8651    812.5443 300.0498473 +22.7485851      604.892     72.50063      1.436     3.37     4.885989     20.43902     66.25256        14     0.994     0.925  26.27   0
        68    182.6578    808.8427 299.9725842 +22.6718951     1394.249     72.42683      1.796     4.56     5.602706     20.43902     122.8728        25     1.370     1.142  40.12   0
        69    653.1258    807.7108 300.1193942 +22.8126154     643.5884     72.61118      1.492     3.39     4.637481     20.43902     69.64799        14     1.021     0.931 -44.33   0
        70    202.2022    806.2214 299.9795139 +22.6770051     458.7066     72.38991      1.692     4.70     5.420672     20.43902     44.41911         8     1.175     0.661 -43.92   0
        71    560.5017    802.7488 300.0921525 +22.7834330     907.2766     72.51907      0.740     0.99     4.677175     20.43902     339.8943         5     0.559     0.423  15.19   0
        72    569.6971    798.6005 300.0963653 +22.7849980     235.0187       72.316      1.598     4.10     4.656936     20.43902     27.05431         5     0.993     0.484   4.83   0
        73    808.6639    795.1890 300.1719462 +22.8556191     4199.948     72.38991      1.711     3.62      4.57744     20.43902     311.7292        33     1.320     1.259 -78.38   0
        74    216.6984    789.7571 299.9893743 +22.6766298     304.0383     72.44529      1.606     5.26     5.247653     20.43902     50.05677         7     1.213     0.644  -2.79   0
        75    525.9130    787.7729 300.0862490 +22.7687671     584.7387     72.44529      1.511     3.03     4.716158     20.43902      72.7291        10     0.926     0.730  63.82   0
        76    171.9113    785.5500 299.9768148 +22.6619905     965.3624     72.44529      1.771     4.32     5.252108     20.43902     115.2205        17     1.231     1.154  36.57   0
        77    598.8855    784.1470 300.1101563 +22.7895957     9137.219     72.46374      0.717     1.53     4.614727     20.43902     4126.893        12     0.716     0.461 -66.80   0
        78    586.6851    780.8395 300.1074310 +22.7849899     690.7993     72.42683      1.899     4.86     4.648788     20.43902      53.4595        16     1.150     1.096  -4.08   0
        79    321.6176    777.5253 300.0259875 +22.7045826     53806.25     72.44529      1.716     3.73     5.087328     20.43902     4921.032        89     1.460     1.422  20.03   0
        80    579.6049    776.6939 300.1065733 +22.7816779     1661.534     72.33449      1.621     3.29     4.672022     20.43902     167.5699        20     1.175     1.056  42.05   0
        81    992.3476    776.1226 300.2354414 +22.9051525     785.1945     72.46374      1.666     4.96     5.098988     20.43902     63.16356        13     1.182     0.868 -11.66   0
        82    294.8600    775.5784 300.0182955 +22.6960008     133.5258     72.40837      1.555     5.21     5.123643     20.43902     27.51434         5     1.001     0.766 -84.69   0
        83    250.2010    775.5316 300.0044185 +22.6825958     495.4377     72.40837      1.861     4.14     5.201962     20.43902     45.64458         9     1.076     0.634  30.53   0
        84    608.6481    772.8639 300.1168656 +22.7892816     1023.867     72.46374      1.624     3.60     4.622482     20.43902     98.80831        16     1.128     0.973  21.76   0
        85    619.5161    771.1729 300.1208012 +22.7920527     580.8058     72.44529      1.534     5.95     4.649071     20.43902     56.65804        13     1.152     0.865   4.70   0
        86      8.1629    771.8774 299.9303625 +22.6089489     685.9435     72.40837      1.694     4.15     4.930969     20.43902     84.79549         9     1.183     0.641  45.25   0
        87    939.4731    768.8472 300.2213087 +22.8872292     241.2052     72.44529      1.466     4.74     5.048164     20.43902     30.18006         6     1.034     0.618  21.43   0
        88    724.9271    767.2739 300.1549167 +22.8225162     447.2939     72.50063      1.539     5.11     4.645941     20.43902     53.92372        10     1.353     0.591  73.37   0
        89    519.8068    764.6204 300.0918738 +22.7602905     174.9095     72.42683      1.365     3.55     4.732005     20.43902     33.27409         5     1.429     0.255  40.73   0
        90    762.3180    757.7573 300.1696657 +22.8309841     728.1444     72.40837      1.519     3.91     4.664733     20.43902       70.481        14     1.092     0.887  30.97   0
        91    371.3860    754.7881 300.0488650 +22.7129790     31558.35     72.37144      1.629     3.19     5.010962     20.43902     3559.658        67     1.370     1.344  24.15   0
        92    385.7429    755.3202 300.0531601 +22.7174357     1951.974     72.48219      1.614     3.22     5.009625     20.43902     201.0944        26     1.194     1.170  22.13   0
        93    894.5890    750.9937 300.2131108 +22.8686582      2853.68       72.316      1.701     3.73      4.98757     20.43902     214.7239        29     1.288     1.192 -51.45   0
        94    382.7046    749.4111 300.0541352 +22.7148290     682.5054     72.37144      1.706     5.95     5.002236     20.43902     60.21452        14     1.115     1.031   6.97   1
        95    652.4587    746.9510 300.1389387 +22.7949680     804.3177     72.50063      1.497     3.16     4.766267     20.43902     95.52684        16     1.065     0.948  58.09   0
        96    489.0972    746.9514 300.0880545 +22.7460141     590.9647     72.48219      1.877     5.15     4.720725     20.43902     53.21022         9     0.944     0.826  77.05   0
        97    546.7866    743.7049 300.1070748 +22.7623714     284.5247     72.37144      2.000     7.16      4.77259     20.43902      30.5729         7     1.522     0.944 -73.07   0
        98    499.5989    741.6736 300.0930399 +22.7476464     900.4258     72.33449      1.629     3.40     4.735837     20.43902     92.30735        14     1.082     0.852  31.42   0
        99     58.6243    742.1031 299.9557204 +22.6155484     504.4621     72.35297      1.720     5.11     4.945639     20.43902     50.86083         9     1.205     0.614  12.65   0
       100    900.5877    738.4742 300.2190516 +22.8668573     560.8514     72.46374      1.762     5.13      5.17576     20.43902     54.82265        12     1.096     0.977  -0.48   0
       101    445.5153    736.7963 300.0777864 +22.7300363     444.4599     72.37144      1.424     3.58     4.867728     20.43902     68.64138         9     1.183     0.597  51.70   0
       102    401.7751    738.0043 300.0637782 +22.7172718     427.2948     72.40837      1.726     5.83     4.988107     20.43902     40.92976         8     1.056     0.907 -53.12   0
       103    253.8203    746.6062 300.0149463 +22.6753820     836.0417     72.42683      1.668     4.41      5.19479     20.43902     79.98216        18     1.265     1.013 -50.34   0
       104     87.0836    736.1132 299.9665124 +22.6223670     528.7769     72.55592      1.849     5.32     4.935415     20.43902     59.41889        10     1.319     0.669 -23.29   0
       105    878.0374    733.6122 300.2135981 +22.8587073     561.8413     72.42683      1.752     4.09     4.951496     20.43902     40.44882         9     0.919     0.691  69.23   0
       106    251.5965    731.0841 300.0192994 +22.6702615     522.0081     72.37144      1.494     3.64       5.2106     20.43902     57.89674        10     1.021     0.661 -25.53   0
       107    574.5855    721.2212 300.1230410 +22.7642461      566.527     72.42683      1.740     5.65     4.770988     20.43902     46.78295        10     1.034     0.868  19.16   0
       108    544.6696    719.5891 300.1142536 +22.7548129     763.4897     72.44529      1.558     3.38     4.791969     20.43902     91.38407        13     1.115     0.834  -4.07   0
       109    960.9841    716.2669 300.2451119 +22.8785606     4575.294     72.42683      1.734     3.65     5.393474     20.43902     341.4394        35     1.335     1.290  82.40   0
       110    566.4518    717.1536 300.1218295 +22.7606409      1227.34     72.48219      1.390     2.94     4.780841     20.43902     139.4715        18     1.095     0.913  54.75   0
       111    486.1957    717.0739 300.0968618 +22.7365672     370.4157     72.37144      1.358     4.94     4.825546     20.43902     39.41966         8     1.277     0.540 -25.73   0
       112    648.1263    712.0333 300.1489379 +22.7836422     329.3365     72.42683      1.409     3.93     4.891366     20.43902     37.46778         5     0.859     0.515  29.71   0
       113    949.4442    707.6487 300.2443124 +22.8726286     1688.448     72.48219      1.737     3.87     5.477121     20.43902     122.0022        28     1.315     1.215  56.27   0
       114    312.3253    701.1614 300.0479159 +22.6798825     767.7728     72.40837      1.448     3.27     5.219881     20.43902     93.67094        14     1.071     0.862  33.24   0
       115    980.7300    697.9533 300.2572253 +22.8792091     1687.517     72.42683      1.717     4.71     5.400369     20.43902     122.5025        29     1.383     1.277   8.67   0
       116    775.9892    698.8228 300.1930833 +22.8181496     2625.186     72.44529      1.668     3.72     5.122331     20.43902     236.2141        32     1.485     1.157   6.41   0
       117    160.9786    685.5022 300.0059312 +22.6300103     667.4564     72.37144      1.794     4.58     5.253475     20.43902      59.7241        14     1.221     0.948 -52.62   0
       118    857.9294    684.7201 300.2232170 +22.8386374     548.3136     72.55592      1.550     4.68     5.420932     20.43902     48.03514        12     1.187     0.740  39.83   0
       119    440.8972    684.8245 300.0932388 +22.7137327     236.3905     72.35297      1.432     4.03     5.046034     20.43902      32.5912         5     0.751     0.692 -17.24   0
       120    894.2382    675.8533 300.2374232 +22.8469617     149142.9     72.44529      1.615     3.37      5.57623     20.43902     12234.74       154     1.483     1.465 -79.13   0
       121    656.6262    679.4043 300.1621902 +22.7768173     415.8441     72.40837      1.271     3.90     5.084776     20.43902     41.40429        10     0.925     0.801 -35.45   0
       122    746.4308    676.2261 300.1912119 +22.8028048     848.8691     72.44529      1.454     3.25     5.226111     20.43902     85.68305        15     1.111     0.956  27.61   0
       123    926.7603    668.8702 300.2498377 +22.8546923     482.5194     72.40837      1.790     5.08     5.643819     20.43902     43.21694         8     1.141     0.639  37.19   0
       124    580.3818    664.6639 300.1432259 +22.7497417     1752.382     72.40837      1.489     2.74     4.978712     20.43902     223.9207        20     1.121     0.999  41.81   0
       125    761.7130    661.9483 300.2006154 +22.8032801     9381.953     72.48219      1.490     3.06     5.355559     20.43902     1005.205        41     1.261     1.174  79.14   0
       126    243.3804    663.2499 300.0387869 +22.6483328     280.0392     72.42683      1.334     4.28     5.359286     20.43902     30.49996         5     0.950     0.549 -37.39   0
       127    263.1804    656.8451 300.0470268 +22.6524308     4865.859     72.48219      1.565     2.96     5.362955     20.43902      589.903        33     1.272     1.186  32.68   0
       128    345.2849    654.8621 300.0732157 +22.6764741     1080.553     72.57434      1.417     2.91     5.343534     20.43902     145.1456        18     1.095     0.972  54.71   0
       129    221.0004    652.8418 300.0352078 +22.6386361     474.5137     72.46374      1.468     4.27     5.403696     20.43902     61.22553         7     0.977     0.532 -11.15   0
       130    553.8365    650.3088 300.1396218 +22.7376658     783.0032     72.42683      1.420     3.43     5.272361     20.43902      90.1716        14     1.025     0.991  -7.58   0
       131    545.1299    642.6656 300.1393934 +22.7328622     3174.142     72.48219      1.426     2.70     5.409398     20.43902     384.1931        28     1.137     1.115  71.88   0
       132    535.4032    636.4708 300.1383767 +22.7281689     1527.327     72.38991      1.571     2.82     5.503192     20.43902      182.729        21     1.145     1.017  78.43   0
       133    463.8360    635.8951 300.1162783 +22.7065592     270.3427     72.44529      1.240     2.62     5.267316     20.43902     47.89668         5     0.761     0.494 -41.79   0
       134    928.8862    634.3640 300.2617132 +22.8454114     464.5875     72.42683      1.422     4.92     5.850433     20.43902     51.25196        10     1.163     0.837 -30.82   0
       135    446.4631    633.4744 300.1116561 +22.7006580     334.4771     72.48219      1.273     3.75     5.279845     20.43902     31.31628         6     0.956     0.423 -18.02   0
       136    198.8497    632.4533 300.0349428 +22.6261441      595.088     72.48219      1.436     3.58     5.484614     20.43902       71.685        13     1.105     0.856 -59.91   0
       137    213.0026    630.6393 300.0399336 +22.6298668     630.2981     72.48219      1.631     4.01     5.490439     20.43902     69.54885        15     1.209     0.983  30.32   0
       138    982.1854    628.0952 300.2803800 +22.8595650     413.2231     72.37144      1.477     5.15     5.920559     20.43902     53.75019        10     1.156     0.802  39.65   0
       139    269.7829    628.2406 300.0583737 +22.6462006     420.1132     72.46374      1.479     3.02     5.410511     20.43902     51.58747         5     0.885     0.422   4.96   0
       140    238.9674    627.8528 300.0489144 +22.6368513     468.9171     72.46374      1.235     2.44     5.474347     20.43902     75.71855         7     0.809     0.599 -16.25   0
       141    559.4951    626.8768 300.1489973 +22.7326318     377.6082     72.55592      1.319     3.01     5.722623     20.43902     66.53471         8     0.909     0.809 -21.99   0
       142    460.1624    626.1230 300.1183094 +22.7026524     1710.738     72.40837      1.402     2.73     5.319736     20.43902     185.2685        22     1.069     1.032  32.88   0
       143    114.1045    620.8874 300.0123508 +22.5974154     19978.54     72.62958      1.678     3.23      5.51696     20.43902     2255.825        61     1.445     1.366  26.73   0
       144     35.1746    622.3550 299.9873417 +22.5741667     792.4896     72.46374      1.933     4.80     5.183548     20.43902      64.3988        15     1.187     1.050 -60.58   0
       145    580.4163    620.5261 300.1575772 +22.7370757      341.219     72.44529      1.403     4.90     5.840083     20.43902     40.52494         8     0.958     0.710 -48.23   0
       146    963.0652    607.8292 300.2809980 +22.8480160     1107.681     72.46374      1.618     4.19     6.050338     20.43902     93.92443        17     1.305     0.932  46.13   0
       147     60.2311    605.3056 300.0006668 +22.5767898     1675.067     72.37144      2.259     5.10     5.399571     20.43902     121.4754        32     1.705     1.264 -81.41   0
       148    829.9888    605.6013 300.2402108 +22.8075352     442.0328     72.26053      1.407     4.54     5.533556     20.43902     60.39004        11     1.147     0.778  81.67   0
       149    545.2255    621.5497 300.1462835 +22.7268267     1013.049     72.46374      1.364     3.87     5.820507     20.43902     119.9836        16     1.199     0.927 -59.12   0
       150    508.5454    602.2143 300.1411414 +22.7102842     448.2867     72.44529      1.235     2.87     5.775428     20.43902     67.79441         8     0.789     0.744 -79.83   0
       151    903.5116    600.6463 300.2647517 +22.8281235     770.9851     72.42683      1.833     3.88     5.828002     20.43902     73.12112        14     1.217     0.777  30.31   2
       152    899.1628    600.0623 300.2635849 +22.8266538     477.0563     72.46374      1.573     5.08     5.794094     20.43902     50.23417         9     0.981     0.767  13.56   3
       153    300.8067    601.2147 300.0768045 +22.6477428     331.3264     72.35297      1.892     4.82     5.385502     20.43902     31.41316         5     1.284     0.513 -26.04   0
       154    465.1816    594.3358 300.1301982 +22.6950288     786.5345     72.40837      1.369     2.61     5.539113     20.43902     84.97725        11     0.926     0.701  66.04   0
       155    613.2004    593.2669 300.1766455 +22.7390669     535.6951     72.38991      1.481     5.26     6.186421     20.43902     51.75973        10     1.050     0.765  40.95   0
       156    660.2851    591.5093 300.1918872 +22.7526653     492.8922     72.61118      1.363     3.57     6.067612     20.43902     71.34567        10     1.128     0.615  -4.24   0
       157    631.0535    591.1056 300.1829099 +22.7437937     633.6628     72.51906      1.499     2.32     6.150826     20.43902      81.5043         9     0.766     0.729  76.05   0
       158    509.4963    590.1209 300.1453659 +22.7070961     986.6596     72.55592      1.481     2.97     5.889344     20.43902     112.1758        14     0.974     0.888 -17.46   0
       159    943.3594    585.8343 300.2819948 +22.8357945     3403.104     72.50063      1.606     3.30     6.011864     20.43902     288.6344        30     1.283     1.180 -74.02   0
       160    475.0565    585.6625 300.1360901 +22.6954970     1745.898     72.50063      1.396     2.62     5.650043     20.43902       225.63        19     1.079     0.908  18.65   0
       161    839.9825    583.0334 300.2506585 +22.8040416      405.258     72.42683      1.548     4.82     5.530754     20.43902      39.9753         9     0.848     0.778  12.24   0
       162     36.9033    579.0317 300.0019508 +22.5622563     4964.454     72.40837      1.736     3.47     5.554797     20.43902     459.8383        38     1.423     1.302  47.59   0
       163    504.2386    576.4313 300.1481753 +22.7015893     257.6327     72.44529      1.250     3.44     5.980042     20.43902     34.66839         5     0.732     0.468  16.82   0
       164    982.3847    575.8550 300.2974133 +22.8446069     308.6052     72.42683      1.425     3.44     6.078496     20.43902     42.44415         5     0.985     0.347   3.77   0
       165    338.3878    572.3182 300.0978837 +22.6507112      9254.69     72.42683      1.444     2.60     5.358306     20.43902     1175.817        39     1.241     1.132  56.49   0
       166    460.8554    569.4143 300.1369460 +22.6865760     9091.866     72.42683      1.390     2.69     5.720458     20.43902     1130.864        37     1.148     1.124  65.71   0
       167    430.2056    569.6039 300.1273425 +22.6774468      262.968     72.27902      1.375     3.44     5.497349     20.43902     25.28115         5     0.751     0.456 -17.11   0
       168    872.5925    563.6116 300.2671376 +22.8082223     1998.266     72.33449      1.585     2.84     5.578922     20.43902     208.1949        23     1.155     1.046  80.60   0
       169    706.8499    565.6870 300.2147865 +22.7591922     288.9404     72.44529      1.230     3.44     5.829723     20.43902     34.67054         5     0.795     0.430  15.01   0
       170    957.2477    560.9490 300.2944115 +22.8327977      12651.8     72.48219      1.559     3.20     6.030614     20.43902     1156.783        49     1.324     1.254 -68.79   0
       171    521.4349    559.0043 300.1591906 +22.7017360     11642.03     72.44529      1.383     2.61     6.274244     20.43902     1468.187        39     1.166     1.109  64.16   0
       172    691.1555    554.9944 300.2133680 +22.7514199     335.4865     72.44529      1.201     2.91     5.959408     20.43902     71.98359        10     0.903     0.743 -16.51   0
       173    248.6833    554.3364 300.0758154 +22.6186631     1380.795     72.53749      1.534     3.22     5.450657     20.43902     158.0283        20     1.169     1.008  59.74   0
       174    495.7393    552.0203 300.1534570 +22.6920321     433.3851     72.38991      1.408     3.55     6.156672     20.43902     57.74329         7     0.855     0.705 -88.32   0
       175    796.1152    547.4396 300.2485406 +22.7806781     818.2734     72.42683      1.352     2.69     5.530413     20.43902     104.5519        12     0.903     0.809  52.99   0
       176    453.0862    547.1371 300.1417624 +22.6778507     4566.167     72.55592      1.379     2.74     5.805845     20.43902     488.2529        29     1.149     1.060  36.09   0
       177    431.5627    545.5782 300.1355680 +22.6709542     1303.047     72.46374      1.433     2.48     5.585563     20.43902     176.6111        18     1.093     0.928  66.73   0
       178    185.6311    544.9843 300.0592426 +22.5970785     679.4573     72.44529      1.419     3.13     5.527602     20.43902      102.191        13     1.052     0.861  30.65   0
       179    872.9244    542.8207 300.2739939 +22.8023456     1702.874     72.44529      1.575     3.41     5.548141     20.43902     150.3829        21     1.176     1.072 -37.48   0
       180    569.7444    534.7608 300.1821106 +22.7092438     206321.7     72.44529      1.405     2.57     6.490733     20.43902     29227.16       190     1.429     1.370 -14.94   0
       181    393.3694    541.2814 300.1250747 +22.6582763     511.0985     72.44529      2.210     4.27     5.414669     20.43902     44.11605         7     0.980     0.634   0.47   0
       182    753.5974    539.7773 300.2377733 +22.7657455     938.0396     72.38991      1.391     2.54      5.62252     20.43902     118.5051        14     0.985     0.808 -54.23   0
       183    255.8374    534.4688 300.0844927 +22.6151042     3661.751     72.42683      1.565     2.85     5.463087     20.43902     443.0602        30     1.219     1.170  20.53   0
       184    822.0133    531.1932 300.2618925 +22.7837623     637.7906     72.33449      1.513     3.65     5.443458     20.43902     68.64845         9     1.131     0.567  34.15   0
       185    304.7097    517.1158 300.1053318 +22.6247696     414.7871     72.59276      1.445     3.57     5.512858     20.43902     54.60332         9     1.057     0.856  46.66   0
       186    910.2106    515.8266 300.2943913 +22.8057467      233.001     72.44529      1.682     3.85     5.786436     20.43902     32.56253         5     0.991     0.430 -44.18   0
       187    460.4045    515.0038 300.1544759 +22.6708148     2710.826     72.27902      1.442     2.53     5.863448     20.43902     332.2068        24     1.079     1.040  21.77   0
       188    871.5113    512.0671 300.2835407 +22.7930822     368.7081     72.55592      1.536     3.32     5.410678     20.43902      44.5374         9     0.994     0.674  -5.66   0
       189    777.5007    504.2172 300.2567735 +22.7626826     358.1181     72.35297      1.354     2.81     5.441077     20.43902     53.15885         8     0.846     0.635  32.11   0
       190    857.3924    501.3866 300.2826054 +22.7857856      1750.93     72.33449      1.506     2.76     5.292006     20.43902     212.5103        22     1.152     1.041  53.37   0
       191    744.0100    501.6097 300.2471793 +22.7519061     371.4955     72.33449      1.278     3.61     5.628805     20.43902     42.31196         6     0.799     0.487  -2.45   0
       192    728.5898    498.9456 300.2432376 +22.7465235     2471.433     72.44529      1.322     2.60     5.720285     20.43902     307.9062        21     1.068     0.956  87.25   0
       193     88.3574    499.0056 300.0439296 +22.5547215     254.9893     72.46374      1.200     2.43     5.561831     20.43902     62.85719         6     0.870     0.483 -45.20   0
       194    633.2479    495.7334 300.2145677 +22.7170509     518.8726     72.44529      1.568     3.46     6.148153     20.43902     60.82677        10     1.039     0.783  55.03   0
       195    937.7873    496.0244 300.3094250 +22.8083072     306.3914     72.44529      1.315     4.27     5.965947     20.43902     35.12812         7     0.729     0.711  -6.41   0
       196    515.8430    495.0064 300.1782319 +22.6816784     798.6577     72.46374      1.475     2.86     6.072434     20.43902     104.5792        13     0.986     0.831   9.25   0
       197    985.9593    493.1176 300.3253999 +22.8218878     1347.742     72.40837      1.472     3.36     5.982239     20.43902     144.6993        21     1.184     1.037 -54.67   0
       198    971.4487    492.4696 300.3210823 +22.8173591     927.4081     72.44529      1.821     3.98     5.975192     20.43902     67.71673        10     1.084     0.703  -9.97   0
       199    857.7344    491.3281 300.2859782 +22.7829965     2253.217     72.48219      1.776     4.52     5.244709     20.43902     231.4865        32     1.770     1.008  76.65   0
       200    611.1131    488.2593 300.2100980 +22.7082745      865.746     72.53749      2.209     7.57     6.126675     20.43902     64.94626        16     1.869     0.859  87.85   0
       201    397.2693    489.3163 300.1431625 +22.6445222     275.4055     72.55592      1.290     4.78     5.758633     20.43902     40.33063         8     0.976     0.753  65.12   0
       202    895.8704    486.5493 300.2994250 +22.7930375     4306.388     72.44529      1.478     2.74     5.581288     20.43902      522.382        28     1.174     1.093 -67.19   0
       203    449.3321    488.0496 300.1597808 +22.6597561     432.8283     72.44529      1.386     4.31      5.82106     20.43902     49.42736         7     1.004     0.628 -77.79   0
       204    633.8585    483.0004 300.2188923 +22.7135751     152.1212     72.40837      1.217     3.80     6.084528     20.43902     26.88184         5     0.821     0.506 -28.45   0
       205    556.7579    482.6292 300.1949936 +22.6903779     404.1167     72.46374      1.271     2.78     6.130047     20.43902     43.39145         7     0.797     0.602 -26.12   0
       206    987.7238    477.0569 300.3311656 +22.8177974     730.7388     72.48219      1.522     3.39     5.954422     20.43902     91.57756        14     1.038     0.949 -10.99   0
       207    127.8515    476.5530 300.0634965 +22.5601171     1031.539     72.48219      1.679     3.40     5.583871     20.43902     91.85054        17     1.128     0.967 -38.50   0
       208    756.9708    474.7794 300.2599316 +22.7480753     164.0071     72.44529      1.637     4.37     5.544203     20.43902     27.27171         5     1.416     0.383   6.66   0
       209    788.7821    470.9402 300.2710960 +22.7564952     325.5985     72.42683      1.048     2.02     5.384201     20.43902     61.83065         5     0.724     0.468 -30.09   0
       210    394.2567    470.3110 300.1483953 +22.6381615     228.4012     72.48219      1.093     3.82      5.80737     20.43902     37.12782         6     0.739     0.646 -61.51   0
       211    983.7426    466.6448 300.3333039 +22.8136119     290.9383     72.48219      1.159     3.43     5.943782     20.43902     39.14225         5     0.765     0.444  16.59   0
       212    728.0700    461.0085 300.2553933 +22.7354648     379.6327     72.42683      1.255     3.28     5.719072     20.43902     51.94779        10     0.902     0.746  81.31   0
       213    616.7292    458.7674 300.2214230 +22.7014824     393.7365     72.44529      1.687     4.57     6.021534     20.43902     50.05163         8     1.263     0.525  39.66   0
       214    336.8040    459.3472 300.1340743 +22.6177993     412.1689     72.44529      1.478     4.93      5.76264     20.43902     38.87088         7     1.048     0.656 -26.74   0
       215    669.0615    456.8579 300.2383495 +22.7166043     824.7297     72.50063      1.354     2.93     6.016673     20.43902      101.324        13     0.965     0.841  43.96   0
       216    983.8322    449.3906 300.3389338 +22.8086769     593.8514     72.42683      1.409     3.33     5.924629     20.43902     79.38074        10     0.964     0.821  84.68   0
       217    730.0502    449.1397 300.2598638 +22.7326464      911.057     72.50063      1.367     2.84     5.704707     20.43902     108.3781        11     0.935     0.716  79.16   0
       218    887.3472    445.5255 300.3100859 +22.7786918     1016.371     72.44529      1.392     2.69     5.470165     20.43902     135.5381        16     1.103     0.885 -40.92   0
       219    845.8568    443.9879 300.2976442 +22.7658318     383.4639     72.44529      1.921     4.84     5.357391     20.43902     30.42486         7     1.067     0.622 -89.49   0
       220    871.5432    441.9401 300.3063203 +22.7729310     658.2974     72.51906      1.501     2.88     5.312222     20.43902     80.05533        13     0.995     0.817  -3.85   0
       221    851.9070    442.4017 300.3000460 +22.7671866     373.3521     72.35297      1.577     2.27     5.325579     20.43902      56.2118         5     0.718     0.425 -24.93   0
       222    615.8279    439.7211 300.2273254 +22.6957396     3210.594     72.46374      1.360     2.42     5.975356     20.43902     462.9281        25     1.091     0.973  39.75   0
       223     91.6897    431.0727 300.0670185 +22.5362232     267.6472     72.61118      1.329     4.16     6.002182     20.43902      36.5782         5     0.815     0.606  -9.85   0
       224    976.4140    438.6942 300.3400916 +22.8033811     510.8517     72.37144      1.694     3.83     5.913989     20.43902     60.64474        11     1.051     0.852 -59.97   0
       225    455.4991    426.9202 300.1815460 +22.6440447     407.9304     72.57434      1.431     4.81     5.797669     20.43902     53.11331         9     0.953     0.792 -63.68   0
       226    387.3400    427.3042 300.1602036 +22.6237375     271.6761     72.51907      1.227     4.58     5.799621     20.43902     44.65099         5     0.813     0.732 -84.48   0
       227    899.0479    418.6891 300.3224477 +22.7744771     608.9656     72.42683      1.416     3.28      5.59695     20.43902     70.97403        10     0.979     0.651  53.79   0
       228    985.5271    417.7232 300.3497432 +22.8000769     896.4189     72.51907      1.457     2.88     5.891644     20.43902     119.3377        16     1.087     0.922  18.96   0
       229    635.8417    415.9297 300.2412842 +22.6948956     248.0905     72.40837      1.105     3.51     5.917333     20.43902     33.02921         6     0.755     0.566  51.69   0
       230    726.4367    413.6598 300.2702550 +22.7213666     1193.919     72.46374      1.350     2.30     5.721599     20.43902      171.215        16     1.015     0.852  59.96   0
       231    230.3710    411.8319 300.1163856 +22.5722634     772.7448     72.44529      1.612     2.54     5.690657     20.43902     117.6052        12     0.950     0.827 -23.42   0
       232    292.7641    407.3329 300.1372552 +22.5896670     3764.983     72.44529      1.435     2.67     5.789371     20.43902     484.4822        29     1.220     1.088  55.22   0
       233   1023.9457    406.0650 300.3655176 +22.8082183     467.1484     54.79486      0.903     2.97     5.808686     20.43902     125.0276         6     1.138     0.227  89.84  24
       234    239.9258    402.1618 300.1224961 +22.5723499     7685.913     72.38991      1.451     2.93     5.721515     20.43902     782.0989        36     1.226     1.134  58.46   0
       235   1005.9590    397.2260 300.3627730 +22.8002947     1834.714     72.50063      1.556     3.24     5.773925     20.43902     206.3555        24     1.205     1.129 -80.54   0
       236    380.7788    396.4694 300.1681697 +22.6129154     4831.425     72.44529      1.369     2.50      5.79109     20.43902     681.0526        28     1.104     1.053  47.05   0
       237    624.9946    393.2438 300.2452678 +22.6851281     18827.13     72.44529      1.352     2.56     5.853331     20.43902     2528.378        51     1.212     1.111  81.25   0
       238    472.0550    395.0845 300.1970340 +22.6398578     305.1357     72.51906      1.359     3.69     5.752959     20.43902     31.83568         5     0.629     0.621 -49.92   0
       239    642.5555    393.4591 300.2506697 +22.6904479     812.3152     72.46374      1.760     5.11     5.878129     20.43902     93.90711        16     1.566     0.710 -38.06   0
       240    868.6579    389.8248 300.3223374 +22.7570828     291.5201     72.44529      1.337     3.88     5.602629     20.43902     47.45216         6     0.929     0.574 -16.91   0
       241    483.7439    390.0378 300.2023116 +22.6419088      295.785     72.44529      1.563     4.87     5.746895     20.43902     34.23647         5     1.285     0.522  20.52   0
       242    821.9942    383.8891 300.3097107 +22.7414109    -211.0948     72.35297      0.000     3.72     5.882564     20.43902     47.90287         7     0.896     0.606  28.72   0
       243    245.0674    380.5662 300.1311041 +22.5676893     423.4673     72.44529      1.501     3.73     5.757899     20.43902     44.84002         6     0.808     0.495  -0.99   0
       244    958.4216    375.9734 300.3548364 +22.7799594     744.5331     72.42683      1.448     3.25     5.827709     20.43902     109.0659        14     0.990     0.942  36.07   0
       245    495.4598    375.4498 300.2106943 +22.6412262     249.3901     72.50063      1.205     3.76     5.740928     20.43902     41.12421         6     0.943     0.431 -17.29   0
       246    179.6512    373.2281 300.1131400 +22.5459804      2091.37     72.46374      1.558     3.02     5.887908     20.43902     240.2476        27     1.249     1.110 -11.53   0
       247    565.6893    362.7394 300.2366921 +22.6586045     6711.372     72.53749      1.310     2.19     5.741001     20.43902     1031.309        34     1.155     1.026  77.27   0
       248    979.3846    363.4052 300.3654568 +22.7826164     1235.224     72.33449      1.344     2.68     5.706203     20.43902     152.6192        19     1.025     0.987 -51.91   0
       249    280.5841    361.7820 300.1482486 +22.5729363     819.6675     72.42683      1.796     3.98     5.814023     20.43902     74.05569        14     1.072     0.951 -43.87   0
       250    138.2482    354.8997 300.1062135 +22.5283107      533.396     72.48219      1.560     3.17     6.000081     20.43902     56.97955         9     0.948     0.692 -76.36   0
       251    770.1482    351.7314 300.3039811 +22.7166480     1198.179     72.42683      1.402     2.65     5.969666     20.43902     157.1689        19     1.094     0.958  87.75   0
       252    679.6196    352.9373 300.2753708 +22.6898970     561.8137     72.42683      1.411     3.19     5.919457     20.43902     78.80827         9     1.016     0.703 -37.59   0
       253    254.0080    351.8487 300.1432043 +22.5621213      175.759     72.44529      1.533     5.16     5.804979     20.43902     25.56705         5     1.157     0.652  89.42   0
       254    472.2690    348.8580 300.2121024 +22.6266407     6225.655     72.46374      1.380     2.62     5.704248     20.43902       757.27        33     1.185     1.063 -89.75   0
       255    961.6454    343.9850 300.3662237 +22.7717233     648.5627     72.46374      1.520     2.77     5.755954     20.43902     79.04549        12     0.992     0.760 -32.32   0
       256    864.3359    343.4654 300.3360348 +22.7424584     1489.098     72.50063      1.459     2.64     6.016562     20.43902     186.8006        19     1.068     0.975  67.18   0
       257    456.8090    337.9531 300.2108273 +22.6188775     480.7417     72.46374      1.235     2.79     5.752102     20.43902     61.60596         7     0.720     0.667 -73.54   0
       258    539.4268    335.8022 300.2372529 +22.6429997     485.5998     72.38991      1.271     2.96      5.69684     20.43902      88.2434         9     0.941     0.687  32.44   0
       259    818.4596    334.4873 300.3246407 +22.7261483     281.1682     72.53749      1.541     4.85     6.016285     20.43902     34.88023         5     1.166     0.572 -30.33   0
       260    520.3516    332.9634 300.2322331 +22.6364722     243.0893     72.44529      1.330     4.33     5.707189     20.43902     38.21679         5     1.123     0.477  88.40   0
       261    837.0377    331.1382 300.3315211 +22.7307448     661.2777     72.46374      1.436     3.23     6.016193     20.43902      75.6768        11     0.950     0.792 -48.39   0
       262    359.8655    328.0611 300.1838600 +22.5870006     2679.809     72.48219      1.380     2.63     5.800063     20.43902     340.0051        24     1.117     1.011  47.62   0
       263     78.1462    325.2279 300.0971567 +22.5017801     1134.257     72.46374      1.810     4.04     5.963631     20.43902     126.7236        20     1.361     1.191  70.59   0
       264    707.9608    323.1429 300.2938720 +22.6898156     344.0609     72.44529      1.273     2.99     5.869426     20.43902     40.96323         6     0.885     0.464 -34.34   0
       265    329.1790    317.4812 300.1777430 +22.5747697     30212.09     72.40837      1.406     2.54     5.834007     20.43902     3777.888        68     1.346     1.193  61.65   0
       266    863.8820    315.1589 300.3450784 +22.7341821     1235.736     72.40837      1.345     2.89     6.015701     20.43902     181.5092        19     1.108     0.934 -77.56   0
       267    819.2476    312.9095 300.3318880 +22.7201793        276.8     72.44529      1.207     2.76     6.015639     20.43902     45.12078         6     0.747     0.550 -43.53   0
       268     25.5004    305.2244 300.0872839 +22.4802594     4919.086     72.38991      1.661     3.03     5.913018     20.43902     574.1365        36     1.347     1.268  42.71   0
       269    779.3309    304.2146 300.3222624 +22.7057338     544.6617     72.46374      1.343     3.06       5.9823     20.43902     75.09885        10     0.961     0.748   2.78   0
       270    203.3216    303.9734 300.1429721 +22.5331862      509.461     72.44529      1.418     2.85     5.971144     20.43902     71.35992         9     0.954     0.614 -32.97   0
       271    427.9315    302.7554 300.2132570 +22.6001163     403.1503     72.40837      1.124     2.84     5.887802     20.43902     79.71338         8     0.865     0.643  56.09   0
       272    739.6850    297.3676 300.3121238 +22.6919001     1989.053     72.40837      1.350     2.25     5.923643     20.43902     303.0132        22     1.142     0.991  80.98   0
       273    547.9380    291.9534 300.2541308 +22.6329464     253.6785     72.46374      1.154     2.53      5.72501     20.43902     58.89183         7     0.855     0.507 -44.51   0
       274    954.8179    290.4939 300.3814499 +22.7542942     717.0309     72.37144      1.470     3.43     5.693323     20.43902     86.62921        12     1.012     0.941  64.83   0
       275    401.3500    281.8716 300.2117573 +22.5861554     2179.238     72.44529      1.547     3.09     5.915632     20.43902     233.8676        24     1.304     0.957  65.72   0
       276    613.5303    280.9503 300.2781337 +22.6494202     180.2709     72.44529      1.104     2.64      5.70007     20.43902     50.50509         6     0.770     0.492  81.93   0
       277    840.6147    275.0576 300.3508321 +22.7156873     599.6949     72.40837      1.161     2.41     6.006511     20.43902     84.84077         8     0.761     0.664   5.16   0
       278    832.8564    275.6624 300.3482163 +22.7135399     314.8235     72.50063      1.300     2.13     6.005354     20.43902     52.13396         5     0.736     0.408  22.94   0
       279    723.1884    272.8880 300.3149231 +22.6799245     407.4381     72.38991      1.561     3.86     5.860846     20.43902     59.44965        10     1.046     0.736  74.63   0
       280    739.8028    272.1941 300.3203274 +22.6846972     285.6875     72.26053      1.329     4.29     5.904711     20.43902     32.50423         5     0.789     0.664  56.59   0
       281    691.4030    271.9993 300.3053041 +22.6701560     333.0195     72.22352      1.487     3.05     5.769117     20.43902     36.09812         5     0.761     0.576  -0.10   0
       282    753.3534    267.6108 300.3260385 +22.6874344     36.59584     72.46374      1.047     3.89     5.918994     20.43902      38.9395         5     1.004     0.432 -76.93   0
       283    477.2641    261.1835 300.2421026 +22.6029430      1089.52     72.42683      1.323     2.65      5.87571     20.43902     151.3934        17     1.186     0.857  53.52   0
       284    284.6346    261.0460 300.1821910 +22.5452155      308.187     72.46374      1.239     4.78     5.937132     20.43902     33.91436         7     1.238     0.523 -52.71   0
       285     50.1183    261.3649 300.1091620 +22.4750455     350.3754     72.40837      1.740     3.13      5.96464     20.43902     58.54504         5     0.880     0.477  51.74   0
       286    665.3319    257.3228 300.3019399 +22.6581334      1628.76     72.53749      0.851     2.53     5.747251     20.43902     717.1191         7     0.805     0.349 -60.64   0
       287    722.1791    253.2246 300.3209871 +22.6739685     2308.709     72.42683      1.334     2.49      5.85028     20.43902     308.0367        23     1.128     1.010 -51.47   0
       288    983.5036    247.6190 300.4043103 +22.7505402     3255.093     72.35297      1.566     2.92     5.724349     20.43902     376.6756        31     1.293     1.143  81.43   0
       289    430.4405    237.0218 300.2353611 +22.5819793     680.2155     72.48219      1.318     2.82     5.936369     20.43902     91.15121        10     0.960     0.657  72.66   0
       290    105.3126    231.0735 300.1361432 +22.4828864     1379.218     72.59276      1.682     3.58     5.962944     20.43902     137.5366        23     1.309     1.084 -23.01   0
       291    136.0836    231.0021 300.1457330 +22.4920852     684.1689     72.35297      1.458     3.54     5.992949     20.43902     80.46716        12     1.087     0.828  -0.03   0
       292    999.2053    228.3815 300.4154505 +22.7497014     461.0851     72.40837      1.290     2.94     5.734682     20.43902     57.53897        10     0.889     0.767  29.92   0
       293    189.3112    223.0510 300.1648632 +22.5057477     439.5467     72.46374      1.237     2.56      5.93715     20.43902     66.25143        10     0.874     0.723   2.94   0
       294    984.6036    221.0269 300.4132791 +22.7432182     306.7032     72.40837      1.239     2.65     5.789976     20.43902     49.12769         6     0.768     0.616 -49.49   0
       295     44.9494    220.2558 300.1208882 +22.4616932     328.3667     72.48219      1.185     3.27     5.951028     20.43902     58.14881         7     0.891     0.626 -15.49   0
       296    865.3792    217.2142 300.3773189 +22.7064589     302.2299     72.40837      1.219     2.03      5.99505     20.43902     51.11271         5     0.662     0.473  76.46   0
       297    793.8795    214.7692 300.3558139 +22.6843646     605.1672     72.44529      1.378     3.02     5.912251     20.43902     87.69577        10     1.013     0.705 -75.79   0
       298    384.3109    214.2523 300.2283862 +22.5616233     492.0712     72.46374      1.511     3.03     5.939686     20.43902     61.86914         8     0.900     0.604 -74.44   0
       299    929.9156    207.9826 300.4004453 +22.7231081     217.2417     72.40837      1.107     3.43     5.940739     20.43902     38.63705         5     0.809     0.486  26.23   0
       300    884.5916    208.2407 300.3862220 +22.7096249     331.9567     72.44529      1.348     3.55     5.973052     20.43902     46.11892         9     1.009     0.691 -16.87   0
       301    891.9789    203.7583 300.3899802 +22.7105452     2026.401     72.48219      1.442     2.82     5.966131     20.43902     249.9167        25     1.152     1.085  48.01   0
       302    310.5596    200.9215 300.2097573 +22.5357072     2105.212     72.42683      1.364     2.48     5.939168     20.43902     295.4446        19     1.029     0.959  42.53   0
       303    388.2775    196.1096 300.2355044 +22.5575975     985.6523     72.59276      1.348     2.62     5.941049     20.43902      131.786        17     1.012     0.966  27.31   0
       304    140.2375    196.3896 300.1582492 +22.4833889     347.3725     72.44529      1.223     4.05     6.065698     20.43902     42.38566         7     1.019     0.499  47.34   0
       305    790.3212    195.6985 300.3608893 +22.6778150     500.0322     72.57434      1.163     2.00      5.88694     20.43902     86.75423         8     0.782     0.588   3.11   0
       306    897.4741    192.9501 300.3951996 +22.7090796     357.4552     72.44529      1.128     2.28     5.957903     20.43902     47.23284         6     0.744     0.499  88.32   0
       307    205.3864    188.2493 300.1811484 +22.5005665     669.9728     72.48219      1.345     3.10     5.959577     20.43902      93.8562        12     1.066     0.754  37.07   0
       308    743.1455    185.1787 300.3495925 +22.6606744     1717.238     72.46374      1.322     2.58     5.851528     20.43902      236.841        17     1.004     0.915 -87.64   0
       309    807.8760    184.7070 300.3699277 +22.6799055     573.3505     72.59276      1.458     3.24     5.889634     20.43902     75.47935        12     1.027     0.790  51.92   0
       310    227.0090    181.6191 300.1900236 +22.5051384     545.0176     72.40837      1.352     2.39     5.907675     20.43902     80.73804         8     0.804     0.668 -48.66   0
       311   1014.6335    177.6026 300.4367344 +22.7397035     965.2059     72.40837      1.601     3.42     5.829839     20.43902     104.0271        18     1.206     0.965  62.90   0
       312    747.1013    176.5548 300.3536222 +22.6593778     841.0911     72.46374      1.561     2.54     5.851859     20.43902     104.5423        11     0.943     0.710  71.13   0
       313    516.3773    177.3435 300.2814739 +22.5905552     379.9733     72.46374      1.305     3.40     5.977519     20.43902      42.7596         5     0.744     0.449  72.09   0
       314    667.5630    175.8929 300.3290450 +22.6353875     1186.232     72.42683      1.297     2.61     5.844467     20.43902     181.2938        15     0.981     0.870  37.42   0
       315    488.8015    172.3186 300.2745156 +22.5808560     334.1778     72.35297      1.293     4.33     6.011582     20.43902     35.65408         7     0.865     0.616  32.96   0
       316    593.7951    167.6731 300.3087247 +22.6109475      997.761     72.38991      1.449     2.31     5.935955     20.43902     167.2756        15     1.025     0.871  70.46   0
       317    875.2192    166.5302 300.3968250 +22.6948219     807.0413     72.46374      1.601     3.31     5.947746     20.43902     116.4157        18     1.254     1.030  83.39   0
       318    863.1528    167.4162 300.3927740 +22.6914675     1491.302     72.48219      1.465     2.68     5.945737     20.43902     194.9894        18     1.080     0.959  78.08   0
       319    921.5881    166.1576 300.4114109 +22.7085838     372.4147     72.44529      1.589     4.45     5.943552     20.43902      35.0493         6     1.005     0.559  20.11   0
       320    434.1710    163.4112 300.2603938 +22.5619411     279.9914     72.44529      1.378     3.47     5.967803     20.43902      27.2609         5     0.785     0.442  19.44   0
       321    991.8278    156.8608 300.4363427 +22.7269148     1187.832     72.44529      1.611     3.52     5.896483     20.43902     120.7071        18     1.187     1.034  50.57   0
       322     15.2466    153.4878 300.1333068 +22.4336209     520.5598     72.42683      1.643     4.41     6.048655     20.43902      61.1759        10     1.331     0.739   4.22   0
       323    225.9218    149.8111 300.1999986 +22.4956748     805.7852     72.42683      1.607     2.89     5.955837     20.43902     87.83489        11     0.918     0.867 -87.34   0
       324     87.6515    144.3923 300.1587598 +22.4527012      2103.42     72.44529      1.585     3.12     6.139638     20.43902     267.3854        26     1.341     1.070  35.59   0
       325    910.7103    141.5530 300.4159953 +22.6982510     874.0815     72.42683      1.565     4.21     5.945551     20.43902     110.9072        14     1.387     0.757  67.87   0
       326    245.1502    137.7206 300.2098996 +22.4979597     5758.969     72.46374      1.481     2.89     5.971621     20.43902     678.8959        34     1.260     1.136  63.51   0
       327    227.0448    139.0154 300.2038479 +22.4929095     232.6904     72.46374      1.445     3.72     5.970983     20.43902     30.18542         5     0.654     0.608 -89.32   0
       328     29.2486    132.1444 300.1445776 +22.4316869     1454.609     72.48219      1.725     3.46     6.068108     20.43902     164.9542        22     1.231     1.104 -61.87   0
       329    228.6267    128.8521 300.2076349 +22.4904633     613.9799     72.46374      1.256     2.54      5.98469     20.43902     75.99064         9     0.866     0.634 -27.09   0
       330    889.2842    119.5706 300.4164383 +22.6855179     3613.358     72.44529      1.483     2.58     5.955064     20.43902     485.4936        30     1.192     1.117  87.35   0
       331    993.0858    118.2382 300.4492580 +22.7161759     2761.752     72.42683      1.590     3.02     5.906394     20.43902     362.0402        29     1.313     1.142  88.62   0
       332    192.0104    115.5840 300.2005473 +22.4756851     330.6847     72.37144      1.150     3.64     6.068693     20.43902     46.08052         6     0.937     0.479 -78.30   0
       333    438.8897    114.5847 300.2776928 +22.5493192     483.9004     72.37144      1.204     2.42     5.972015     20.43902      84.6162         8     0.774     0.660  83.64   0
       334    553.2919    112.4984 300.3139957 +22.5829616     276.2435     72.62959      0.974     3.26     6.012477     20.43902     50.94142         5     0.733     0.465 -18.94   0
       335    362.8509    106.4620 300.2566561 +22.5242208     677.0809     72.50063      1.560     3.42     5.939305     20.43902      85.1366        13     1.066     0.907 -58.85   2
       336    366.9905    104.7179 300.2585099 +22.5249589     427.8231     72.38991      1.692     4.12     5.939307     20.43902     58.16543         8     1.072     0.788   3.96   3
       337    129.2174    103.2524 300.1850185 +22.4533353     629.9114     72.42683      1.552     4.23     6.121243     20.43902     60.51347        11     0.973     0.885  74.01   0
       338    490.0517    101.9014 300.2977348 +22.5609874     1791.195     72.53749      1.343     2.65     6.031362     20.43902     232.7948        21     1.041     0.969   9.56   0
       339    418.0711    102.6077 300.2750940 +22.5396444     377.8505     72.42683      1.356     1.99      5.94104     20.43902     70.68615         6     0.742     0.487  -4.12   0
       340    552.1921    100.9681 300.3173909 +22.5793172     278.5453     72.44529      1.250     4.05     6.013599     20.43902     42.09451         7     0.879     0.715 -87.05   0
       341    233.7268     97.2773 300.2194566 +22.4829185     396.2596     72.55592      1.453     4.02     6.028478     20.43902     49.68423         7     1.089     0.424 -30.18   0
       342    264.1331     81.5725 300.2340059 +22.4875107     6180.032     72.42683      1.540     2.85      6.03484     20.43902     735.1339        39     1.349     1.180  67.70   0
       343    770.7912     82.6104 300.3914658 +22.6394424     412.7731     72.33449      1.390     2.96     5.970434     20.43902     67.92412         6     0.806     0.484  -5.01   0
       344    115.6036     80.9908 300.1880014 +22.4428627     719.0547     72.26053      1.627     4.12     6.116942     20.43902     71.08247        12     1.162     0.830 -57.92   0
       345    893.2558     79.4886 300.4306708 +22.6751721     351.5624     72.48219      1.332     2.48     5.959658     20.43902      44.0391         5     0.705     0.439  25.71   0
       346    236.0058     75.6282 300.2271826 +22.4773802     286.7361     72.44529      1.133     3.95     6.039434     20.43902     51.14083         6     0.978     0.470   7.50   0
       347    279.4229     72.6544 300.2416533 +22.4895261     368.6432     72.46374      1.362     4.29     6.039231     20.43902     51.60979         7     1.037     0.569 -43.46   0
       348     25.6688     72.4012 300.1628299 +22.4134561     354.9556     72.38991      1.617     4.13     6.001369     20.43902     26.35489         5     1.003     0.486  -4.40   0
       349    510.2564     66.9850 300.3153447 +22.5569957     6334.679     72.42683      1.437     2.75     5.938854     20.43902     666.1035        39     1.277     1.163  66.09   0
       350    395.7423     66.7565 300.2797637 +22.5226548     584.8641     72.44529      1.282     3.01     6.025074     20.43902     103.8839        11     0.971     0.816 -80.80   0
       351    567.2469     61.6688 300.3348188 +22.5725219     316.5706     72.42683      1.299     1.99     5.903759     20.43902     51.20919         5     0.693     0.442 -17.54   0
       352    704.2891     58.3843 300.3785866 +22.6125798     347.9244     72.37144      1.173     4.27     5.915844     20.43902     55.40245         7     0.974     0.597 -38.41   0
       353    762.7635     57.0957 300.3972329 +22.6297009     806.7748     72.44529      1.566     2.62     5.995031     20.43902     77.92284        10     0.851     0.721 -17.40   0
       354    855.1442     55.7506 300.4264769 +22.6569438     441.9935     72.48219      1.316     3.17     5.994238     20.43902      58.5978         9     0.951     0.644 -56.69   0
       355    203.0632     51.2428 300.2248392 +22.4605086     418.9659     72.44529      1.502     4.04     6.074877     20.43902      52.5243         7     0.770     0.636   0.01   0
       356    561.7447     49.6295 300.3370068 +22.5674133     392.6128     72.44529      1.208     2.92     5.886326     20.43902     63.18125         9     0.932     0.663  82.21   0
       357    638.6270     47.0989 300.3617803 +22.5896895     6356.368     72.38991      1.437     2.66     5.841443     20.43902     854.4136        38     1.312     1.105  81.50   0
       358    413.4921     46.1861 300.2919559 +22.5220545     1467.057     72.37144      1.421     2.89     6.116199     20.43902     180.1451        15     1.026     0.859  39.12   0
       359    679.7631     44.6003 300.3754096 +22.6012777     929.6895     72.44529      1.306     2.41     5.877792     20.43902     149.5508        15     1.074     0.833  68.76   0
       360    695.6481     40.3784 300.3817289 +22.6048153     668.0779     72.46374      1.548     3.49     5.909214     20.43902     86.17553        13     1.174     0.767 -49.60   0
       361      8.8567     38.6743 300.1685352 +22.3987328     355.5231     72.48219      1.771     6.66     5.865354     20.43902     31.93463        10     1.461     0.852  80.34  16
       362    965.6002     38.3210 300.4665856 +22.6849564     548.4193       72.316      1.568     4.13     5.913146     20.43902     65.76333        10     1.201     0.821 -79.73   0
       363    162.2726     38.4070 300.2163132 +22.4446054     599.6465     72.38991      1.457     3.69     6.116046     20.43902     84.41228        11     1.022     0.853 -68.77   0
       364    733.8413     36.0443 300.3950388 +22.6149934     516.5637     72.51906      1.601     3.71      5.98638     20.43902     58.98534         8     1.225     0.620  36.27   0
       365    698.1547     31.2440 300.3854705 +22.6029375     868.9578     72.48219      1.831     5.76     5.916623     20.43902     86.32449        17     1.662     0.886  45.74   0
       366    682.8387     32.0930 300.3804216 +22.5986000     2785.597     72.44529      1.434     2.80     5.885395     20.43902     331.9231        24     1.169     1.044  70.41   0
       367    323.3185     32.9904 300.2681660 +22.4912685     348.4537     72.38991      1.170     2.40     6.042314     20.43902     65.39761         8     0.793     0.653  44.97   0
       368    769.3345     23.8001 300.4100724 +22.6220869     1431.009     72.42683      1.342     2.34     6.040662     20.43902     209.5997        19     1.063     0.930 -61.96   0
       369    848.1270     18.2900 300.4364287 +22.6440656     375.0404     72.61118      1.378     3.48     6.023133     20.43902     36.08286         5     1.014     0.345 -42.10   0
       370    707.2273     16.8584 300.3929602 +22.6015130     706.8026     72.44529      1.333     2.81     5.942777     20.43902       97.799        13     0.920     0.872  42.42   0
       371    512.8437     16.1289 300.3326318 +22.5431466     1025.481     72.40837      1.332     2.52     5.784935     20.43902     134.6421        14     0.971     0.828   0.04   0
       372     86.0177     16.0702 300.1998423 +22.4153511     517.4281     72.48219      1.374     3.60     6.076055     20.43902     68.34969         9     0.941     0.683 -12.63   0
       373    172.1150   1017.2430 299.9015256 +22.7284943     641.9076     72.40837      2.528     4.87     96.92462     20.43902     46.79256         7     1.137     0.592 -78.36  25
       374    798.9476     13.3623 300.4226884 +22.6279403     381.2595     72.46374      1.125     2.14     6.090083     20.43902     70.59976         7     0.687     0.643  -3.72   0
       375    312.2782   1012.6147 299.9466242 +22.7692206     1644.803     72.46374      7.312     5.66     7.311848     20.43902     92.56484        36     1.706     1.581 -58.97  24
