#   1 NUMBER                 Running object number                                     
#   2 X_IMAGE                Object position along x                                    [pixel]
#   3 Y_IMAGE                Object position along y                                    [pixel]
#   4 ALPHA_J2000            Right ascension of barycenter (J2000)                      [deg]
#   5 DELTA_J2000            Declination of barycenter (J2000)                          [deg]
#   6 FLUX_APER              Flux vector within fixed circular aperture(s)              [count]
#   7 FLUXERR_APER           RMS error vector for aperture flux(es)                     [count]
#   8 FLUX_RADIUS            Fraction-of-light radii                                    [pixel]
#   9 FWHM_IMAGE             FWHM assuming a gaussian core                              [pixel]
#  10 BACKGROUND             Background at centroid position                            [count]
#  11 THRESHOLD              Detection threshold above background                       [count]
#  12 FLUX_MAX               Peak flux above background                                 [count]
#  13 ISOAREA_IMAGE          Isophotal area above Analysis threshold                    [pixel**2]
#  14 A_IMAGE                Profile RMS along major axis                               [pixel]
#  15 B_IMAGE                Profile RMS along minor axis                               [pixel]
#  16 THETA_IMAGE            Position angle (CCW/x)                                     [deg]
#  17 FLAGS                  Extraction flags                                          
         1    711.3115     17.0039 300.3929137 +22.6015906     723.8204      72.3447      1.437     3.08     5.854336     20.43668     84.78124        14     1.022     0.883   1.85   0
         2    516.9138     15.8304 300.3327142 +22.5430865     1152.242       72.437      1.518     3.30      5.39805     20.43668     138.1345        18     1.223     0.941  78.48   0
         3    420.8072     14.0260 300.3033683 +22.5138029      799.811       72.437      1.481     3.88     5.310476     20.43668     94.39441        14     1.171     0.915 -75.05   0
         4    802.8223     13.0269 300.4227374 +22.6278199     484.6368     72.41856      1.508     3.55      6.10816     20.43668     58.76276         9     1.018     0.601  60.94   0
         5    192.2213      4.0651 300.2354571 +22.4425031     3699.493     69.17145      1.543     2.99     6.551623     20.43668     375.6718        31     1.428     1.080  54.60  24
         6    760.1318      4.6880 300.4121265 +22.6126519     745.0562     71.17131      1.623     4.26     6.048336     20.43668     66.31897        12     1.125     0.869 -86.34  16
         7    632.7901      1.5135 300.3734577 +22.5736437     7897.578     57.31606      0.753     1.42     5.883708     20.43668     2984.466        10     0.588     0.467  45.27  24
         8    518.1447      1.8255 300.3376358 +22.5394282     336.1608     59.21984      1.494     4.00     5.405506     20.43668     36.33307         7     0.809     0.788  45.17  24
         9    615.0152      1.5241 300.3679149 +22.5683285     287.4867     57.40925      1.398     3.73     5.881484     20.43668     26.98932         6     0.800     0.499  -1.05  24
        10    194.1572    992.2590 299.9152051 +22.7266891     1195.295     72.41856      3.448     5.85     73.81269     20.43668     56.42772        14     1.436     0.768 -10.87   3
        11    223.8010   1002.7344 299.9210166 +22.7385875     2435.798     72.41856      6.671    43.21     80.36374     20.43668     76.90762       278    11.600     4.468  -0.78  19
        12    268.8180   1015.1719 299.9309730 +22.7556610     2860.981       72.437      7.694    32.13     34.57449     20.43668      70.6188       249     7.310     3.921 -84.43  19
        13    221.1065    986.3796 299.9254997 +22.7330903     4580.229     72.36317      8.683    25.39     64.91813     20.43668     98.98833       345     5.626     5.363 -17.92   3
        14    240.0116    985.5515 299.9316495 +22.7385254     6049.441     72.45545      8.150    25.33      51.2173     20.43668     107.5211       366     6.511     4.196  76.25  19
        15    259.2765    975.5226 299.9409052 +22.7414302     9335.701      72.5292     14.627    42.62     30.09859     20.43668     181.8594      1274    13.906     6.845  73.24  19
        16    109.1632   1011.4997 299.8825170 +22.7066966      4001.91       72.437     13.694    74.77     88.68412     20.43668      144.854      1502    15.002    10.339  40.25  27
        17    507.1732   1001.7909 300.0095182 +22.8233239     253.3502       72.437      1.406     3.92     4.203889     20.43668     28.29791         5     1.352     0.326 -31.09   0
        18    165.0259    955.8189 299.9180009 +22.7075011     1527.434      72.4739      4.779    10.22     48.93688     20.43668     53.77966        29     1.853     1.571   5.99   2
        19    672.5154    954.3828 300.0764541 +22.8592964     6907.993     72.40009      1.939     4.21     4.158291     20.43668     372.3957        49     1.585     1.456  70.91   0
        20    552.9804    949.0186 300.0409551 +22.8219202     524.4963       72.437      2.199     4.78     4.032715     20.43668     31.09626         6     1.154     0.560 -88.92   0
        21     97.8455    942.8757 299.9013239 +22.6836307     5923.149     72.41856     27.797   115.52     24.38668     20.43668     1294.365      4585    21.379    17.317 -77.86  18
        22    581.0191    945.0514 300.0509802 +22.8291886     1561.475     72.41856      1.891     4.66     4.021298     20.43668      104.177        24     1.394     1.150  39.31   0
        23      5.6282   1012.1798 299.8501162 +22.6758132     3344.676       72.437     12.485    47.13    -26.75431     20.43668     70.01306       523    10.086     6.111 -85.56  27
        24    474.7845    941.5226 300.0190403 +22.7963218     900.7665     72.45545      1.788     4.61     4.246216     20.43668     83.32351        17     1.327     0.976   7.75   0
        25    405.4236    939.4901 299.9981067 +22.7749374     6693.667     72.36317      1.882     4.00     4.564231     20.43668     457.4927        45     1.475     1.438  -1.92   0
        26    437.0000    927.0585 300.0119808 +22.7808414     520.0941     72.38163      2.058     3.85     4.388934     20.43668     35.83849         5     0.838     0.507  65.16   2
        27    952.0815    918.5215 300.1753031 +22.9327786     2108.636     72.56605      2.041     5.10     4.422856     20.43668     112.5516        33     1.585     1.332   5.30   0
        28    375.8025    998.6307 299.9696459 +22.7830146     470.1234     72.40009      1.803     6.04     5.287828     20.43668      30.9422         9     1.182     0.867  26.85   0
        29    601.9426    915.6141 300.0670748 +22.8270142     462.6592     72.40009      1.890     4.79     4.042721     20.43668     38.49743         9     1.192     0.546  60.59   0
        30    450.5875    914.3148 300.0203565 +22.7812602     365.1957     72.38164      1.705     3.92     4.329737     20.43668     46.75159         5     1.000     0.441   9.40   0
        31    741.0476    907.5934 300.1130369 +22.8664077     869.9831       72.437      2.299     6.17      4.66933     20.43668     46.96901        19     1.545     1.067  73.23   0
        32    775.4794    901.6170 300.1257160 +22.8750107     1092.328       72.437      1.905     5.28     4.677948     20.43668     60.96847        22     1.394     1.140  35.49   0
        33    552.8347    902.0582 300.0561855 +22.8084017      352.027     72.45545      1.416     5.54     4.114967     20.43668     45.46356         9     1.125     0.770 -35.05   0
        34    132.0476    900.4210 299.9257657 +22.6817238     1200.626      72.4739      4.236     4.59     14.61036     20.43668     39.91698         5     1.406     0.426 -60.10   3
        35    567.6579    991.9604 300.0315560 +22.8386417     2331.633     72.41856      1.953     4.51     4.155437     20.43668     143.3427        31     1.475     1.287 -16.63   0
        36    227.9828    899.3401 299.9559517 +22.7101973     897.7209     72.38163      4.535     4.70     9.205488     20.43668     25.49371         5     1.056     0.594  71.46   1
        37    654.2770    987.3669 300.0600386 +22.8632945     9068.718       72.437      2.072     4.81     4.153208     20.43668     519.8692        50     1.605     1.490  12.94   3
        38    797.6893    895.1282 300.1347520 +22.8798032     11469.06     72.60287      1.858     4.13     4.682594     20.43668     672.5291        54     1.481     1.455  39.95   0
        39    220.0689    897.9047 299.9539569 +22.7074115     2409.137     72.56605      0.609     1.60     10.05138     20.43668     1102.945        13     1.375     0.462 -32.78   0
        40    844.4524    894.6194 300.1495012 +22.8936692     328.8842     72.41856      1.789     6.16     4.753621     20.43668     31.98521         8     1.290     0.827 -80.31   0
        41    215.8505    897.0215 299.9529320 +22.7058927     1326.845       72.437      0.547     2.82     10.57101     20.43668      534.235         7     0.628     0.374 -66.34   0
        42    659.8418    985.1077 300.0625079 +22.8643145     9138.102       72.437      1.979     4.50     4.153654     20.43668     528.3278        54     1.627     1.495  50.13   3
        43    849.0821    883.3094 300.1546239 +22.8918087     394.0461     72.54762      1.862     5.33     4.762763     20.43668     32.26579         6     1.048     0.765  -9.34   0
        44    503.3623    883.0978 300.0469434 +22.7881284       380.69       72.437      1.365     4.23     4.259014     20.43668     45.54887         7     0.793     0.643  83.10   0
        45    806.0613    877.2068 300.1431917 +22.8771662     1440.543     72.40009      1.929     4.23     4.691423     20.43668     106.3144        25     1.314     1.257  87.92   0
        46    753.9842    987.8652 300.0909550 +22.8933266     617.0971     72.41856      2.010     7.07     4.444492     20.43668     42.36737        13     1.351     1.037 -78.89   0
        47    989.6456    876.8221 300.2005895 +22.9320541     484.8244      72.4739      1.909     5.32     4.543581     20.43668     38.22405         9     1.300     0.669 -16.93   0
        48      2.6172    991.5231 299.8559013 +22.6689902     1803.279     63.23626      4.687    12.73    -22.58413     20.43668      54.1072        49     2.824     1.598 -84.99  27
        49    658.2617    873.9041 300.0981902 +22.8319252     436.0464      72.5292      2.281     4.54     4.334691     20.43668     42.03682         6     1.103     0.531  42.08   0
        50    844.1952    870.6604 300.1572136 +22.8867123     840.7098     72.40009      2.176     7.30     4.755302     20.43668     53.28995        17     1.369     1.091  -5.85   0
        51    892.9265    862.4301 300.1750911 +22.8989483     613.3165     72.45545      1.886     4.74     4.724055     20.43668     57.73901        12     1.172     0.913  82.45   0
        52    743.8373    860.8707 300.1291030 +22.8538304     742.3075     72.41856      1.738     4.79     4.673071     20.43668     57.31173        13     1.149     0.826 -42.19   0
        53      3.7372    860.0179 299.8990215 +22.6316378     425.4645     67.94328      1.879     4.32     4.067929     20.43668     29.98638         7     0.734     0.722  75.49  16
        54    755.1930    857.9899 300.1335802 +22.8564061     529.6135     72.30774      1.609     5.46      4.66557     20.43668     53.92905        12     1.199     0.931 -55.07   0
        55    456.6907    857.1791 300.0408390 +22.7666980     4231.963     72.38164      1.702     3.58     4.317088     20.43668     315.4298        34     1.297     1.254  30.45   0
        56    234.6322    845.8657 299.9754097 +22.6968570     457.0161       72.437      1.921     5.59      6.50524     20.43668     43.68904         7     1.173     0.751 -42.87   0
        57    285.8864    844.0335 299.9919506 +22.7117051     6116.411     72.40009      0.414     1.78     5.109711     20.43668     4987.906         9     0.367     0.275 -17.88   0
        58    181.7878    842.9847 299.9599104 +22.6801786     750.2784     72.38164      1.851     6.26     7.308391     20.43668     67.85686        15     1.393     1.146  -7.23   0
        59    278.0233    841.9875 299.9901694 +22.7087599     4075.403       72.437      0.872     3.23     5.288741     20.43668     1259.406        10     0.860     0.352  89.56   0
        60    159.0185    839.6367 299.9539183 +22.6723878     1598.069       72.437      1.895     4.26     7.381886     20.43668     139.3888        28     1.398     1.346 -69.34   0
        61    985.1429    827.6174 300.2151864 +22.9165710     2141.087     72.40009      1.938     4.43      4.89049     20.43668     123.1704        32     1.438     1.319   7.70   0
        62    690.5021    827.7806 300.1232377 +22.8283473     574.9418     72.36317      2.440     3.70     4.446661     20.43668     40.25755         6     0.917     0.666   5.00   0
        63    768.5199    821.8358 300.1494922 +22.8500186     739.6025     72.38164      1.872     6.82     4.575552     20.43668       49.941        13     1.233     1.103 -48.79   0
        64      3.4043    976.0475 299.8611805 +22.6647919      1907.33     66.73257     13.358    20.32    -16.20344     20.43668     65.88907        98     5.024     2.283  79.91  27
        65    636.6689    815.3661 300.1104970 +22.8086501     4829.931       72.437      1.666     3.33     4.400725     20.43668     416.7574        36     1.283     1.265  29.73   0
        66    127.1822    815.9993 299.9517043 +22.6560588     385.5305     72.36317      1.758     3.68      5.60257     20.43668     37.83374         5     0.896     0.656  64.91   0
        67    438.9374    812.5507 300.0498228 +22.7485696     653.7432     72.49234      1.706     5.12     4.338492     20.43668     52.26316        13     1.146     0.981  -0.40   0
        68    186.9367    809.0260 299.9725527 +22.6719847     1340.456       72.437      1.875     4.41     5.644258     20.43668     100.7778        25     1.303     1.265   4.84   0
        69    657.1827    807.8024 300.1193491 +22.8126266     710.6299      72.3447      1.578     4.75     4.398565     20.43668     68.99618        13     1.235     0.883  75.46   0
        70    367.3488    809.7482 300.0284486 +22.7263003     3403.555      72.4739      0.659     0.94     4.337797     20.43668     2051.255         7     0.595     0.376 -47.16   0
        71    206.5613    805.7297 299.9797279 +22.6769260     360.3529     72.40009      1.362     4.17     5.468792     20.43668     35.31112         6     1.079     0.461  79.09   0
        72    812.7787    795.1390 300.1719737 +22.8556124     4224.546     72.40009      1.701     3.51     4.570881     20.43668     300.3737        37     1.338     1.307 -47.95   0
        73    221.2637    789.6432 299.9895305 +22.6767222     512.5417       72.437      1.738     5.84     5.150301     20.43668     49.59862        10     1.038     0.923 -43.48   0
        74    529.8871    787.5418 300.0862761 +22.7686580     675.0298     72.51077      1.597     3.65     4.372712     20.43668     61.29712        11     0.977     0.834  73.07   0
        75    176.1386    785.4243 299.9768673 +22.6619769     1155.295       72.437      1.973     4.03     5.193943     20.43668     100.0884        21     1.337     1.073  48.39   0
        76    591.5691    781.0075 300.1076153 +22.7852703     530.7709       72.437      1.664     4.09     4.499094     20.43668     62.02847        10     1.081     0.778  12.19   0
        77    325.7121    777.5204 300.0259675 +22.7045689     53375.33     72.58447      1.729     3.57     4.515231     20.43668     4537.507        92     1.488     1.424  51.34   0
        78    583.7041    776.6760 300.1065731 +22.7816697     1713.478     72.56605      1.659     3.04     4.490806     20.43668     180.1749        25     1.257     1.140 -14.89   0
        79    996.6765    776.4120 300.2354354 +22.9053140      790.674     72.45545      1.686     4.52     5.189612     20.43668     63.71785        15     1.208     0.924  27.30   0
        80    254.3335    776.0589 300.0042336 +22.6827440     455.8983      72.4739      1.515     3.95     4.782225     20.43668     62.87255        11     1.204     0.861 -18.46   0
        81     11.6377    772.5173 299.9299235 +22.6089248     837.3332     72.40009      2.320     6.49     4.262414     20.43668     78.27541        16     1.671     1.031 -27.12   2
        82    612.7477    772.7258 300.1169062 +22.7892401     866.1646     72.45545      1.563     3.79     4.595819     20.43668     86.02827        16     1.187     0.879  -2.40   0
        83    623.8032    769.7982 300.1213028 +22.7917129     1403.958     72.21526      1.063     5.36     4.602202     20.43668     814.6549        14     1.225     0.662 -78.18   0
        84    944.5389    768.1835 300.2218397 +22.8873363     257.0305     72.38163      1.502     4.58     4.924881     20.43668     32.25703         5     0.816     0.730  32.27   0
        85    728.7306    767.6534 300.1547031 +22.8225385     499.5645     72.45545      1.488     5.17     4.649181     20.43668      54.4351        10     0.956     0.791 -20.09   0
        86    375.4856    754.7919 300.0488467 +22.7129719     31781.12     72.36317      1.662     3.45     4.657315     20.43668      3155.95        73     1.427     1.352  40.79   0
        87    766.4794    757.5620 300.1697526 +22.8309502     874.1612     72.40009      1.800     4.00     4.703213     20.43668     67.97881        16     1.225     0.868  21.78   0
        88    389.7599    755.3030 300.0531237 +22.7173983     1992.966     72.41856      1.658     3.45     4.645154     20.43668     157.3698        25     1.210     1.171  19.25   0
        89    898.6292    750.9370 300.2131221 +22.8686321     2866.026     72.45545      1.739     3.73     4.856974     20.43668     198.3584        34     1.351     1.280  55.83   0
        90     13.3975    751.3682 299.9373444 +22.6033892     289.3842     72.40009      0.843     3.45     4.279586     20.43668     28.58731         5     1.109     0.311 -69.18   0
        91    386.7398    749.2037 300.0541661 +22.7147426     600.7979     72.41856      1.653     3.42     4.691001     20.43668     58.11647        11     0.949     0.805 -45.64   0
        92    492.8426    746.9429 300.0879363 +22.7459013     323.9443     72.38163      1.360     5.43     4.688699     20.43668     45.39676         9     1.105     0.753  75.67   0
        93    257.7895    746.4996 300.0149169 +22.6753010     839.7717      72.3447      1.671     4.29     4.588233     20.43668     86.02346        17     1.176     1.038  86.79   0
        94    656.6681    746.8559 300.1390021 +22.7949745     961.2028      72.4739      1.530     3.48     4.693736     20.43668     100.0603        16     1.098     0.918  19.53   0
        95    503.5871    741.7093 300.0929836 +22.7476197     955.2027     72.38164      1.723     3.53     4.654878     20.43668     74.93825        14     1.030     0.881   8.79   0
        96    946.9066    971.3998 300.1564848 +22.9464135      809.468     72.30774      2.127     5.84     3.910161     20.43668     55.49434        18     1.299     1.112  40.17   0
        97    904.5357    738.8146 300.2189054 +22.8669186     394.5914     72.40009      1.694     5.86     4.925892     20.43668     38.64161        11     1.298     0.792   8.53   0
        98    405.5081    737.9109 300.0636791 +22.7171288     388.3285     72.60287      1.609     4.27     4.750895     20.43668     41.50655         5     0.927     0.562  47.41   0
        99    449.6461    736.6608 300.0778272 +22.7300018     412.4912     72.45545      1.422     3.68      4.78098     20.43668     51.70518         8     1.069     0.549 -21.00   0
       100    361.9237    737.1265 300.0503673 +22.7038368     475.1743      72.5292      1.641     4.49     4.804083     20.43668     39.91099        10     1.059     0.695   9.35   0
       101     91.3851    736.0916 299.9665497 +22.6224055     545.5524     72.36317      1.528     3.98       5.0821     20.43668     59.77648        10     1.157     0.701 -59.99   0
       102    657.5956    736.3697 300.1426997 +22.7922415     351.7516     72.41856      1.689     4.07     4.748048     20.43668      33.4059         5     0.987     0.478  -4.27   0
       103    882.4957    733.6411 300.2137112 +22.8588314     329.2076       72.437      1.617     4.61     4.854867     20.43668     38.07886         6     1.271     0.475   3.19   0
       104    255.6505    730.9626 300.0193013 +22.6702024     654.1116     72.45545      1.729     4.22     4.572399     20.43668     63.89564        12     1.148     0.893   9.31   0
       105    579.1121    721.3542 300.1231249 +22.7644121      337.023     72.41856      1.414     4.16     4.708387     20.43668     42.16396         6     0.761     0.649 -49.03   0
       106    548.5224    719.9122 300.1140642 +22.7548307      588.028     72.58447      1.379     3.06     4.602112     20.43668     73.66702        10     0.940     0.746 -20.82   0
       107    965.0558    716.3027 300.2451067 +22.8785743     4484.161      72.5292      1.703     3.57     5.023657     20.43668     325.5988        34     1.332     1.298  86.69   0
       108    458.5512    718.7301 300.0864277 +22.7275249     383.0371       72.437      1.442     5.32     4.847358     20.43668     49.50257         8     1.254     0.650  -8.09   0
       109    570.6286    716.8785 300.1219366 +22.7605848     1434.359       72.437      1.607     3.72     4.700262     20.43668     137.9865        22     1.250     1.092 -21.89   0
       110    490.4575    716.8159 300.0969855 +22.7365391     317.6574     72.41856      1.580     3.54     4.835856     20.43668     45.08037         5     0.975     0.371  -7.11   0
       111    953.5850    707.6779 300.2443304 +22.8726613      1768.74     72.45545      1.764     3.84     4.986541     20.43668     123.6618        28     1.371     1.251 -30.05   0
       112    316.6350    701.2687 300.0479264 +22.6799692     827.6191       72.437      1.528     2.93     4.805923     20.43668     95.53419        15     1.026     0.887 -69.74   0
       113    984.5783    697.9223 300.2571734 +22.8791383     1728.751       72.437      1.771     3.94     4.957226     20.43668     132.5905        24     1.237     1.185  70.35   0
       114    779.9680    698.7430 300.1930767 +22.8180976     2560.027     72.45545      1.652     3.30     4.848448     20.43668     246.3499        33     1.372     1.235  17.88   0
       115      2.3097    688.9932 299.9541691 +22.5821777     673.3596     61.58735      1.834     4.68     4.899768     20.43668     71.31131        14     1.351     0.947  80.47  24
       116    165.5894    685.3032 300.0061267 +22.6300956     692.8912     72.32622      1.718     2.85     4.949894     20.43668     73.02082        11     0.923     0.801 -13.36   0
       117    861.7096    684.5274 300.2231898 +22.8384967     703.0236     72.60287      1.917     6.31     4.888029     20.43668     49.69546        14     1.109     1.008  86.40   0
       118    898.3656    675.8473 300.2374457 +22.8469801     148782.7      72.4739      1.648     3.31     4.910332     20.43668      12069.9       158     1.523     1.488 -62.13   0
       119    660.5781    679.9103 300.1619786 +22.7769229     297.0526     72.36317      1.238     5.32     4.834722     20.43668     36.26895         8     1.222     0.653   5.65   0
       120    750.5718    676.2789 300.1912114 +22.8028398     851.9764     72.45545      1.668     3.99     4.853142     20.43668     77.95893        15     1.180     0.830  56.42   0
       121    931.2315    668.7026 300.2500218 +22.8547687     500.6217     72.40009      1.754     4.86     4.943262     20.43668     39.48977         7     1.004     0.666 -15.94   0
       122    584.6348    664.5527 300.1433047 +22.7497586     1675.629      72.4739      1.510     2.84     4.955582     20.43668     182.9685        18     1.029     0.994  59.71   0
       123    765.8190    661.9171 300.2006323 +22.8032816     9448.021     72.40009      1.492     3.01     4.917311     20.43668     970.8024        41     1.265     1.192  76.04   0
       124    267.2836    656.8029 300.0470192 +22.6524134      4929.54     72.36317      1.562     3.05     4.910122     20.43668     561.8935        34     1.293     1.160  37.73   0
       125    349.3476    654.8541 300.0731889 +22.6764570     1128.766      72.4739      1.582     3.56      4.96026     20.43668     125.7532        16     1.062     1.028  71.38   0
       126    225.1068    652.3911 300.0353317 +22.6385014     478.6712     72.36317      1.492     4.65     4.897125     20.43668     50.60352        11     1.198     0.942  12.17   0
       127    557.5289    650.5937 300.1393958 +22.7376284     737.1186     72.40009      1.525     3.67      5.06203     20.43668     65.40746        13     1.100     0.793  33.72   0
       128    549.2822    642.6007 300.1394239 +22.7328624     3191.544     72.32622      1.524     2.93     5.105489     20.43668     337.9989        30     1.197     1.139 -31.85   0
       129    539.5231    636.3488 300.1384152 +22.7281430     1377.168       72.437      1.461     2.79     5.136109     20.43668     155.2549        18     1.038     0.995  37.02   0
       130    933.4454    634.6057 300.2617920 +22.8456335     502.2563       72.437      1.827     6.78     5.232177     20.43668     45.22167        10     1.445     0.893  58.69   0
       131    468.0832    635.8978 300.1163120 +22.7066050     233.5104     72.60287      1.212     3.80     5.115758     20.43668     37.57178         5     0.793     0.524  54.25   0
       132    203.0503    632.3557 300.0349802 +22.6261393     714.1434      72.4739      1.789     4.40       4.9134     20.43668     58.06734        12     1.129     0.952  23.63   0
       133    217.0338    630.7679 300.0398455 +22.6298766     622.0053     72.45545      1.482     4.31      4.90844     20.43668     64.88739        11     0.985     0.799  69.48   0
       134    986.7509    628.1453 300.2805260 +22.8597359     519.4001      72.4739      1.471     4.51     4.870743     20.43668      59.8629        10     0.995     0.808  45.25   0
       135    242.6410    627.8058 300.0487735 +22.6367046     618.7817      72.4739      1.699     5.46      4.91176     20.43668     57.13257        11     1.306     0.794  61.88   0
       136    563.8663    626.8035 300.1490995 +22.7326964     449.9678     72.41856      1.417     3.53     5.152833     20.43668     53.06561         7     0.946     0.667 -28.87   0
       137    464.2717    626.2321 300.1182654 +22.7026879     1797.149       72.437      1.434     2.86     5.140508     20.43668     204.6229        20     1.066     1.002  27.29   0
       138    118.1916    620.8555 300.0123270 +22.5973935     19910.79       72.437      1.709     3.35     5.205438     20.43668     2135.682        63     1.497     1.368  32.84   0
       139     38.8969    622.7123 299.9870738 +22.5741445     756.5804     72.62128      1.946     4.67        5.413     20.43668     79.16433        16     1.320     0.977 -10.26   0
       140    549.2225    621.3542 300.1463081 +22.7267439     1080.147      72.4739      1.502     3.20     5.188036     20.43668     112.0491        16     1.119     0.887  55.28   0
       141    584.3243    620.4290 300.1575441 +22.7369956      358.889       72.437      1.324     3.34     5.168786     20.43668     47.88058         5     0.716     0.476  14.58   0
       142    466.8069    618.4636 300.1215786 +22.7012175     183.2663     72.40009      1.065     2.83     5.171738     20.43668     43.17885         5     0.723     0.467 -18.36   0
       143    920.1152    617.5541 300.2631728 +22.8367422     255.7836     72.41856      1.204     3.97     5.416203     20.43668     36.77838         5     0.910     0.494  -3.82   0
       144    302.7264    613.1175 300.0722396 +22.6505031     308.1872     72.54762      1.510     5.44     4.953679     20.43668     29.78274         7     1.061     0.788 -18.21   0
       145    967.4318    607.9257 300.2810659 +22.8481411     1011.672       72.437      1.619     3.65     5.097827     20.43668     104.2527        17     1.180     0.977 -25.97   0
       146     64.2760    605.0844 300.0006885 +22.5767001     1474.026     72.54762      2.035     4.46     5.444437     20.43668     121.8677        30     1.557     1.263 -70.85   0
       147    834.0552    605.9388 300.2400995 +22.8076358     435.2818     72.51077      1.250     3.08     5.363955     20.43668     74.66405         9     0.826     0.734 -19.53   0
       148    130.7647    605.6059 300.0211900 +22.5967892     468.1228       72.437      1.928     3.85     5.144285     20.43668     40.31239         5     0.989     0.430  15.13   0
       149    512.6047    602.1186 300.1411512 +22.7102486     381.7235     72.36317      1.475     5.34     5.273544     20.43668     43.48241         9     1.220     0.659  18.75   0
       150    907.5168    600.7255 300.2647093 +22.8281341     778.9193      72.5292      1.698     4.55     5.501726     20.43668     84.64405        16     1.313     0.928  -0.12   2
       151    902.9490    600.6226 300.2633176 +22.8267369      400.797       72.437      1.389     3.18     5.502565     20.43668     51.09319         8     0.832     0.717 -38.16   3
       152    305.1888    600.8693 300.0769845 +22.6477261      315.645       72.437      1.419     2.31     4.957587     20.43668     48.64851         6     0.732     0.541 -45.40   0
       153    469.5539    594.4164 300.1302458 +22.6951368     726.0549     72.45545      1.518     3.26     5.260977     20.43668     89.78848        15     1.104     0.888  -1.10   0
       154    617.6572    592.7399 300.1769250 +22.7390302     451.7485     72.51077      1.386     4.08     5.314476     20.43668     71.10477         8     0.988     0.603  70.64   0
       155    664.7646    591.6740 300.1919516 +22.7528355     503.8991     72.40009      1.442     3.40     5.147014     20.43668     66.76202         9     1.028     0.663 -38.61   0
       156    634.8348    590.7983 300.1829085 +22.7436184      531.714     72.40009      1.369     5.01     5.264834     20.43668     75.79068        13     1.250     0.869  69.95   0
       157    513.6401    590.1539 300.1453603 +22.7071234     927.3726     72.51077      1.446     2.50     5.341757     20.43668     125.1225        14     0.936     0.880 -74.73   0
       158    947.3052    585.8798 300.2819471 +22.8357796     3301.608     72.54762      1.565     3.22      5.30855     20.43668     302.5886        32     1.258     1.217  58.61   0
       159    479.0997    585.7493 300.1360338 +22.6955088     1773.344      72.5292      1.427     2.70     5.308578     20.43668     194.0166        19     1.039     0.962   1.97   0
       160    844.4803    583.2425 300.2507242 +22.8042360      287.956     72.41856      1.509     5.24     5.441715     20.43668      39.6115         7     0.970     0.865 -72.04   0
       161    454.5934    580.5654 300.1300864 +22.6866769     154.1427       72.437      1.305     3.79     5.275955     20.43668     44.95061         5     1.031     0.400  72.54   0
       162     40.9297    578.9927 300.0019064 +22.5622140     5064.974     72.41856      1.805     3.40     5.485208     20.43668     475.1932        38     1.426     1.325  50.76   0
       163    342.4916    572.2856 300.0978778 +22.6507034     9081.401     72.60287      1.517     2.83     4.994799     20.43668     953.5213        43     1.311     1.174  60.27   0
       164    464.9591    569.3701 300.1369505 +22.6865688      8919.43     72.45545      1.432     2.75     5.340001     20.43668     985.5217        38     1.212     1.127  35.89   0
       165    711.4591    566.0146 300.2148412 +22.7594509     309.7743     72.40009      1.457     3.36     5.244249     20.43668     36.62983         6     0.779     0.498  87.99   0
       166    961.3541    560.9493 300.2944294 +22.8328196     12525.44     72.45545      1.583     3.21     5.161044     20.43668     1120.185        49     1.360     1.287  83.15   0
       167    876.6591    563.4292 300.2671978 +22.8081771     2020.964       72.437      1.622     3.05     5.527166     20.43668     214.1488        25     1.306     1.070  37.20   0
       168    525.5311    559.0131 300.1591788 +22.7017441     11712.93     72.45545      1.439     2.69     5.557447     20.43668     1383.186        47     1.220     1.190  38.58   0
       169    695.1100    555.0602 300.2133028 +22.7514073     637.1577      72.5292      1.479     5.07     5.254782     20.43668     59.33908        13     1.250     0.860  63.28   0
       170    252.8617    554.4601 300.0757771 +22.6187207     1363.012      72.4739      1.532     3.44     4.920807     20.43668     125.8474        21     1.190     1.102 -57.10   0
       171    411.2030    553.5359 300.1253557 +22.6659139     218.8842       72.437      1.567     5.51     5.280601     20.43668     34.17186         7     1.092     0.784  33.18   0
       172    499.7293    552.2009 300.1533551 +22.6920573     443.0072     72.36317      1.608     3.24     5.502133     20.43668     53.82049         8     0.950     0.843 -22.96   0
       173    457.9515    550.3018 300.1409615 +22.6789940     4564.297      72.4739      0.588     0.99     5.396787     20.43668     2597.727         8     0.529     0.343 -89.45   3
       174    457.2494    547.1797 300.1417569 +22.6778872     4584.609       72.437      1.455     2.95     5.406234     20.43668     465.2393        33     1.355     1.106  26.73   3
       175    799.9792    547.2274 300.2485433 +22.7805621     773.5206       72.437      1.357     3.41      5.38439     20.43668     94.65882        12     1.095     0.732  -6.33   0
       176    435.5306    545.5914 300.1355101 +22.6709231     1224.108     72.41856      1.384     2.63     5.375672     20.43668     149.4829        17     1.042     0.928 -88.70   0
       177    189.8334    544.9862 300.0592479 +22.5971069     638.5818       72.437      1.465     3.47     4.942742     20.43668     85.28259        13     1.048     0.880  19.60   0
       178    876.9963    542.8546 300.2739856 +22.8023652     1707.228     72.40009      1.568     3.28     5.537485     20.43668     151.1443        25     1.195     1.126 -17.96   0
       179    124.0804    542.2599 300.0396855 +22.5766106     300.1719     72.49234      1.260     4.12     5.211798     20.43668     41.96559         6     1.201     0.403 -30.78   0
       180    757.5264    539.7386 300.2377376 +22.7656980     869.4149      72.4739      1.444     2.88     5.399822     20.43668     105.0701        17     1.052     0.943  76.67   0
       181    977.1915    540.4359 300.3060349 +22.8316637     261.1935       72.437      1.503     4.20     5.019771     20.43668     27.53996         5     0.901     0.557 -49.59   0
       182    573.8605    534.7505 300.1821141 +22.7092551     206787.2     72.49234      1.428     2.63     5.743286     20.43668     26842.67       200     1.480     1.407  -5.61   0
       183    850.8342    538.3732 300.2672801 +22.7932445     96.13654     72.45545      1.159     3.43     5.517317     20.43668     28.75114         5     0.760     0.448 -17.22   0
       184    259.9492    534.5661 300.0844428 +22.6151356     3545.657     72.45545      1.537     2.97     4.969284     20.43668     366.5824        28     1.202     1.138  66.87   0
       185    825.7867    531.2462 300.2617823 +22.7836971     500.9395       72.437      1.578     3.01     5.471218     20.43668     55.50628         9     0.843     0.763  87.45   0
       186    439.0674    531.7611 300.1411028 +22.6680119     382.8098     72.40009      1.772     3.94     5.448932     20.43668     30.60805         6     0.933     0.477 -36.23   0
       187    843.5639    529.1143 300.2680194 +22.7884070     283.4449     72.41856      1.291     3.70     5.510459     20.43668     36.65691         6     0.798     0.494  86.56   0
       188    464.4553    515.0035 300.1544500 +22.6708071      2748.47     72.40009      1.484     2.70     5.611346     20.43668     316.2183        25     1.166     1.062  59.28   2
       189    308.8463    517.4004 300.1052315 +22.6248645     482.6988       72.437      1.662     5.08     5.160982     20.43668     56.44613        10     1.116     0.904  78.70   0
       190    914.0542    515.4779 300.2944383 +22.8055905     173.4069      72.4739      1.578     4.96     5.512493     20.43668     28.93688         6     1.107     0.628 -55.96   0
       191    876.4083    511.5804 300.2839590 +22.7932008     437.6549     72.40009      1.579     4.39     5.549817     20.43668     51.65428         8     1.092     0.789 -18.96   0
       192    781.7182    503.9003 300.2569196 +22.7626440     469.8339     72.60287      1.325     3.21     5.472623     20.43668     70.23363         9     0.953     0.708 -39.63   0
       193    861.5293    501.3552 300.2826380 +22.7858076     1799.269     72.40009      1.558     3.04     5.561577     20.43668     180.7273        20     1.132     1.005  85.38   0
       194    748.3520    501.5373 300.2472830 +22.7519742     316.8779      72.4739      1.668     3.92     5.470743     20.43668     34.20951         6     0.923     0.477 -88.68   0
       195    732.7463    498.9514 300.2432573 +22.7465582     2511.202      72.4739      1.422     2.79     5.470738     20.43668      291.935        27     1.159     1.101  37.31   0
       196    977.1273    496.8158 300.3201808 +22.8191048     351.1995       72.437      1.302     4.55     5.254601     20.43668     52.85413         8     0.823     0.713  21.59   1
       197    942.9023    496.1384 300.3097201 +22.8086664     208.6376      72.5292      1.156     2.93     5.428744     20.43668     40.42719         5     0.769     0.510  53.45   0
       198    637.4705    495.9245 300.2145426 +22.7171559     531.1642     72.51077      1.279     2.41     5.612003     20.43668      60.9594         8     0.746     0.691  -7.89   0
       199    519.8356    494.9070 300.1782231 +22.6816275     633.7643     72.40009      1.254     3.13     5.771263     20.43668     101.2847        10     0.940     0.714  61.62   0
       200    990.1634    493.1381 300.3254437 +22.8219491     1131.828     72.45545      1.484     2.95     5.216386     20.43668     120.2354        18     1.032     1.005 -68.98   0
       201    976.0440    492.5934 300.3212139 +22.8175667     724.3901     72.45545      1.656     4.22     5.281065     20.43668     64.75721        13     1.258     0.787  -1.30   0
       202    861.7862    491.3831 300.2859563 +22.7830183     2306.887     72.38164      1.773     4.17     5.566852     20.43668     235.3441        30     1.607     1.062  74.76   0
       203    899.9948    486.6301 300.2994195 +22.7930899     4274.512     72.41856      1.471     2.72     5.531552     20.43668     506.1975        31     1.159     1.132 -52.63   0
       204    615.3361    489.3821 300.2097694 +22.7086470     605.6569     72.41856      1.429     2.62     5.726461     20.43668     77.07367         8     0.846     0.709  24.35   2
       205    615.0302    485.4406 300.2109538 +22.7074231     441.7911       72.437      1.853     4.63     5.727949     20.43668      49.4053         7     1.105     0.551 -39.10   2
       206    453.8391    488.3901 300.1597857 +22.6599840      323.316       72.437      1.370     2.20     5.734238     20.43668     54.52452         6     0.695     0.591  62.42   0
       207    560.2760    482.5833 300.1948219 +22.6902021     322.8356       72.437      1.424     3.98      5.75379     20.43668     41.31219         7     0.974     0.471   9.80   0
       208    991.5646    477.3031 300.3310229 +22.8178158     694.3873       72.437      1.480     4.69     5.248029     20.43668     64.94595        10     0.988     0.720  -2.78   0
       209    131.8566    476.5955 300.0634246 +22.5600998     962.4893     72.40009      1.543     3.42     5.239597     20.43668     100.8724        15     1.084     0.934 -87.78   0
       210    761.4836    473.8309 300.2603738 +22.7479446     242.1777     72.45545      1.699     4.74     5.494092     20.43668     35.96128         7     1.321     0.482 -51.07   0
       211    792.8690    471.1303 300.2710375 +22.7565653     288.1391     72.49234      1.390     2.13     5.514083     20.43668     50.72535         6     0.730     0.531 -47.12   0
       212    124.4224    466.3875 300.0644270 +22.5549417     416.0795     72.41856      1.436     4.52     5.303113     20.43668     58.10096        10     1.232     0.734  53.99   0
       213    987.3758    466.1109 300.3333496 +22.8133443     242.2957     72.38163      1.395     3.80     5.138843     20.43668     43.34084         5     0.854     0.486  40.98   0
       214    732.3301    460.9585 300.2554636 +22.7355164     379.9951     72.40009      1.206     2.40     5.427672     20.43668     77.09688         9     0.875     0.652  21.13   0
       215    621.3790    458.4386 300.2216992 +22.7015675     361.0948     72.45545      1.663     4.81      5.69876     20.43668     40.89927         8     1.194     0.550  36.71   0
       216    341.3993    459.2512 300.1342424 +22.6179264     297.6508     72.40009      1.321     3.30     5.504611     20.43668     43.14801         5     1.163     0.272 -34.84   0
       217    673.5007    456.9007 300.2384423 +22.7167346     859.0295     72.67647      1.407     2.46     5.494076     20.43668     123.2757        12     0.914     0.792  -7.97   0
       218    987.7924    449.6734 300.3388165 +22.8087429       562.66     72.40009      1.380     3.76     4.954186     20.43668     73.46709        10     0.917     0.856  45.27   0
       219    734.0977    449.0256 300.2598888 +22.7326166     917.5216     72.40009      1.460     3.42     5.376863     20.43668     91.72133        13     1.069     0.812  70.00   0
       220    891.3747    445.4184 300.3101109 +22.7786630     1001.475     72.45545      1.610     3.49     5.085833     20.43668     98.41956        18     1.112     1.080  82.94   0
       221    875.9392    442.1016 300.3063723 +22.7730894     717.3913     72.51077      1.297     3.34     5.061037     20.43668      88.0279        10     1.015     0.705  55.55   0
       222    856.0397    441.8365 300.3002507 +22.7670567     297.3069     72.51077      1.273     3.28     5.133097     20.43668     44.15906         7     0.878     0.621  74.28   0
       223    619.9542    439.7064 300.2273365 +22.6957590     3153.351     72.45545      1.351     2.55     5.697989     20.43668     432.1453        26     1.127     1.018  81.23   0
       224    980.3657    438.6718 300.3400703 +22.8033571      563.493       72.437      1.587     4.05     4.849265     20.43668     61.41586        11     1.045     0.814  50.38   0
       225     95.8566    431.3688 300.0669129 +22.5363285     288.8687     72.45545      1.349     3.40     5.412879     20.43668     34.41953         5     0.818     0.408 -21.32   0
       226    459.6900    426.6859 300.1816398 +22.6440162     329.2151     72.60287      1.386     2.99      5.73351     20.43668     56.28559         6     0.871     0.463   2.96   0
       227    903.3009    418.6717 300.3225147 +22.7745434     638.4706     72.58447      1.607     3.93     4.746756     20.43668     80.20011        13     1.149     0.890 -70.90   0
       228    989.7324    417.7109 300.3497984 +22.8001330     958.8831     72.58447      1.563     3.21     4.586602     20.43668     110.2396        19     1.129     1.059  31.66   0
       229    730.4114    413.5742 300.2702480 +22.7213250     1178.048       72.437      1.437     2.79     5.258287     20.43668     132.5808        17     1.119     0.938  85.07   0
       230    526.1644    414.3747 300.2063391 +22.6603919     388.5381     72.45545      1.282     3.09      5.74771     20.43668     62.78224         9     1.003     0.609  -1.82   0
       231    234.6584    411.6486 300.1164807 +22.5722724     712.6437     72.49234      1.577     4.63     5.424565     20.43668     74.67538        15     1.329     0.826 -26.86   0
       232     74.3434    410.2107 300.0670921 +22.5238073     337.8818     72.40009      1.844     4.09     5.438886     20.43668     33.95837         5     0.928     0.515 -36.64   0
       233    296.8447    407.3636 300.1372199 +22.5896776     3643.531     72.49234      1.442     2.77     5.487641     20.43668     427.1071        28     1.193     1.058  50.47   0
       234    244.0243    402.1172 300.1224880 +22.5723429     7708.876     72.40009      1.471     2.90     5.436785     20.43668     751.2359        38     1.271     1.150  54.58   0
       235   1010.0095    397.2280 300.3627765 +22.8003103     1823.827       72.437      1.604     3.13     4.769717     20.43668     188.2803        26     1.280     1.142  41.64   0
       236    384.8449    396.4071 300.1681650 +22.6128982     4832.076     72.45545      1.443     2.57     5.746009     20.43668     604.9369        33     1.220     1.113  68.66   0
       237    629.0571    393.2084 300.2452665 +22.6851252     19016.66     72.41856      1.375     2.63      5.58172     20.43668     2252.234        59     1.292     1.195  29.90   0
       238    476.4624    394.7452 300.1972305 +22.6398662     445.9706     72.51077      1.493     3.42     5.823943     20.43668     36.23179         5     0.776     0.436 -67.87   0
       239    646.6212    393.3049 300.2507089 +22.6904123     848.0929      72.3447      1.881     5.31     5.529588     20.43668      79.2874        20     1.669     0.896 -33.78   0
       240    826.0125    383.4932 300.3098234 +22.7412975    -85.32555     72.38164      1.126     1.79     5.078249     20.43668     94.58662         7     0.708     0.645   6.12   0
       241    249.1130    380.3829 300.1311250 +22.5676280     448.1432     72.38163      1.427     3.14     5.463207     20.43668     44.78645         6     0.755     0.593 -50.60   0
       242    962.4729    375.9769 300.3548372 +22.7799753      835.262      72.4739      1.650     3.88     5.054226     20.43668     74.04371        16     1.234     0.907 -11.03   0
       243    499.8250    375.0727 300.2108912 +22.6412128     319.5652      72.4739      1.425     4.84     5.891306     20.43668     34.01161         8     0.875     0.758  79.69   0
       244    183.6952    373.2541 300.1130889 +22.5459770     1928.479     72.51077      1.470     2.89     5.419865     20.43668     209.8212        22     1.142     1.028  77.96   0
       245    983.3975    363.2140 300.3655100 +22.7825661     1205.973     72.27076      1.457     3.08     5.180542     20.43668     128.0547        18     1.130     0.951 -81.15   0
       246    569.7285    362.6530 300.2366970 +22.6585797     6546.699     72.41856      1.385     2.52     5.762311     20.43668     890.7407        36     1.166     1.104  77.98   0
       247    284.3831    362.3140 300.1479626 +22.5730085     616.1917     72.40009      1.320     3.21     5.554571     20.43668     74.03661        10     0.922     0.754 -34.95   0
       248    141.8623    355.0561 300.1059843 +22.5282155     528.2544     72.49234      1.550     5.75     5.417157     20.43668     50.80595        11     1.295     0.720  -2.87   0
       249    829.9843    354.6762 300.3204146 +22.7342020     331.4312       72.437      1.156     2.25      4.94654     20.43668     54.44203         5     0.829     0.461   6.87   0
       250    773.9199    351.7870 300.3038677 +22.7165907     1216.484     72.41856      1.516     2.90     5.105144     20.43668     138.5247        20     1.173     0.958  66.20   0
       251    683.3138    352.7536 300.2753060 +22.6897450     550.9762     72.41856      1.264     3.01     5.325243     20.43668     65.67249         9     0.928     0.655 -86.39   0
       252    476.4230    348.8470 300.2121137 +22.6266698      6224.69     72.45545      1.405     2.54     5.967325     20.43668     759.6875        36     1.205     1.098  75.92   0
       253    965.5147    343.5326 300.3663160 +22.7715554     750.3901     72.52921      1.860     4.26     5.312938     20.43668     74.90714        16     1.215     1.041 -39.88   0
       254    868.3691    343.3157 300.3360748 +22.7424237     1382.024     72.45545      1.520     2.96     4.875638     20.43668     152.1789        19     1.134     0.988  63.69   0
       255    460.8412    337.4992 300.2109436 +22.6187431     473.4114     72.41856      1.463     2.80     5.948464     20.43668      67.2139        10     0.920     0.696  81.70   0
       256    543.5916    335.9437 300.2372218 +22.6430786     352.5426     72.41856      1.349     2.95     5.863681     20.43668     46.47662         6     0.895     0.498 -15.03   0
       257    524.4637    333.7547 300.2319737 +22.6367216     291.8755     72.45545      1.408     3.83     5.884501     20.43668     50.85626         6     1.028     0.637  10.74   0
       258    841.1531    331.0925 300.3315515 +22.7307644     565.3267     72.45545      1.511     3.40     5.058387     20.43668     59.57687        13     1.013     0.879 -25.39   0
       259    123.0309    330.4263 300.1081203 +22.5155015     238.0158       72.437      1.135     4.15      5.50889     20.43668     31.22393         5     0.763     0.645  83.79   0
       260    363.8888    327.9798 300.1838473 +22.5869680      2485.92     72.38163      1.401     2.89     5.938454     20.43668       301.23        25     1.169     1.004  54.71   0
       261     82.4113    325.2054 300.0971848 +22.5018285     1037.685     72.30774      1.686     3.85     5.707876     20.43668     116.1484        20     1.233     1.124 -75.07   0
       262    333.2835    317.4491 300.1777381 +22.5747752        30059     72.41856      1.454     2.61     5.891303     20.43668     3564.649        64     1.343     1.197  58.54   0
       263    868.1929    315.2080 300.3451406 +22.7342891      1361.57     72.28925      1.315     2.80     5.162036     20.43668     163.8362        17     1.010     0.910  76.87   0
       264    823.2759    313.2609 300.3317615 +22.7202874     316.5529     72.49234      1.183     3.66     5.232238     20.43668     42.74348         5     0.849     0.460  44.61   0
       265     29.6202    305.1642 300.0872764 +22.4802528     5030.615     72.45545      1.694     3.34     6.060339     20.43668     460.2705        41     1.384     1.334  65.66   0
       266    783.3104    304.1657 300.3222485 +22.7057115     512.5599     72.40009      1.271     3.19     5.303747     20.43668     72.97949        10     0.954     0.744  46.91   0
       267    207.6787    303.9757 300.1430278 +22.5332742     450.9212     72.41856      1.576     3.28     5.493866     20.43668     50.59722         8     0.947     0.594  22.02   0
       268    431.7950    302.8033 300.2131564 +22.6000764      454.725     72.25227      1.188     2.65     5.922742     20.43668     78.08367        10     0.934     0.685 -34.37   0
       269    743.7697    297.4255 300.3121059 +22.6919391     1852.194       72.437      1.325     2.43     5.333324     20.43668     256.8754        21     1.014     0.977 -67.91   0
       270    552.0802    292.1056 300.2540898 +22.6330241     258.9854     72.56605      1.233     3.09     5.608679     20.43668     42.61379         6     0.732     0.580  46.71   0
       271    958.8779    290.4674 300.3814635 +22.7543084     665.0335     72.54762      1.402     2.61     5.473931     20.43668     81.70229        10     0.854     0.765 -20.13   0
       272    405.5108    281.8842 300.2117595 +22.5861947     1988.185     72.56605      1.486     3.15     5.922002     20.43668     226.6111        23     1.274     0.949  63.14   0
       273    618.0124    280.9427 300.2782542 +22.6495564     329.8286     72.40009      1.280     3.63     5.335301     20.43668     47.20742         5     0.968     0.393  25.89   0
       274    844.9869    275.2362 300.3508704 +22.7158512     562.6611     72.41856      1.424     3.22     5.392711     20.43668     75.51094        10     0.989     0.692  34.69   0
       275    837.2409    276.0861 300.3481785 +22.7137777     190.3087     72.41856      1.205     4.05     5.388051     20.43668     43.62011         8     1.052     0.515  31.13   0
       276    726.9125    272.8647 300.3148184 +22.6798330     399.2513      72.5292      1.319     2.35      5.36224     20.43668     58.01054         6     0.714     0.557  34.53   0
       277    695.1666    272.1234 300.3051622 +22.6701178     376.9278       72.437      1.843     4.00      5.35944     20.43668     47.74577         6     1.073     0.457  63.69   0
       278    481.4433    261.2835 300.2420864 +22.6030162     1148.297     72.40009      1.349     2.58     5.893055     20.43668     140.1871        18     1.041     0.948  80.12   0
       279    288.5875    261.5746 300.1819549 +22.5453383     296.6163       72.437      1.510     4.49     5.646943     20.43668     40.81595         6     0.954     0.701  13.45   0
       280    993.0659    257.7238 300.4027565 +22.7551178     349.0486      72.5292      1.335     3.14     5.566993     20.43668     47.92787         7     0.868     0.685   5.61   0
       281    726.1648    253.2136 300.3209601 +22.6739598     2327.348       72.437      1.377     2.65     5.357264     20.43668     272.9939        22     1.155     0.950  68.72   0
       282    987.5771    247.6996 300.4042952 +22.7505923      3173.62     72.38164      1.510     2.73     5.627953     20.43668     390.4016        31     1.238     1.138 -27.82   0
       283    434.4152    236.9647 300.2353298 +22.5819460     732.0788       72.437      1.553     3.16     5.897129     20.43668     85.26915        13     1.042     0.883  66.49   0
       284    140.2085    231.3631 300.1455969 +22.4922083     669.7757       72.437      1.665     4.26     5.833406     20.43668     61.81396        11     1.026     0.832  -9.96   0
       285    109.3709    231.1404 300.1360801 +22.4829041     1341.076       72.437      1.665     3.87     5.924835     20.43668     116.4181        26     1.319     1.217  24.79   0
       286   1003.6528    228.6217 300.4155013 +22.7499128     436.4424       72.437      1.583     3.09     5.787539     20.43668     59.08954         9     0.985     0.692  60.79   0
       287    846.9801    225.1614 300.3677357 +22.7020478     395.2845      72.4739      1.465     4.50     5.353715     20.43668      37.7515         7     0.985     0.586  16.64   0
       288    193.2000    223.1974 300.1647262 +22.5057405     481.1799     72.21526      1.374     2.95     5.803381     20.43668     72.16084         7     0.809     0.692  30.50   0
       289    988.2559    220.8234 300.4132248 +22.7430640     304.3177     72.45545      1.343     5.04      5.78527     20.43668     46.23206         8     1.116     0.643  43.45   0
       290    797.9470    214.8316 300.3557926 +22.6844057     670.4683     72.45545      1.309     2.78     5.353715     20.43668     94.52147        11     0.933     0.741  32.85   0
       291    388.2381    214.0702 300.2283782 +22.5615397     379.8747     72.40009      1.288     2.88     5.796936     20.43668     53.93043         7     0.730     0.649  31.71   0
       292    934.0959    207.9022 300.4005130 +22.7231463     244.0469     72.62128      1.408     4.61     5.547507     20.43668     27.89245         7     0.980     0.617  74.48   0
       293    896.1558    203.7926 300.3900076 +22.7106145     2135.316     72.45545      1.473     2.81     5.427779     20.43668     255.2624        26     1.258     1.042  78.01   0
       294    314.5720    200.7974 300.2097531 +22.5356642     2227.216     72.38163      1.515     2.65     5.413735     20.43668     291.8893        20     1.158     0.922  66.99   0
       295    392.5265    196.0947 300.2355428 +22.5576594     996.0978     72.58447      1.485     2.78     5.641289     20.43668     106.6445        16     1.025     0.939  76.03   0
       296    144.3542    196.2639 300.1582688 +22.4833718      461.039     72.45545      1.747     3.24     5.864753     20.43668     50.86668         7     0.931     0.630   4.17   0
       297    794.5722    195.4118 300.3610384 +22.6778115     522.7031       72.437      1.159     2.84     5.353715     20.43668     81.24893         9     0.984     0.601 -13.17   0
       298    209.4534    188.0018 300.1811956 +22.5005018      671.185     72.40009      1.251     3.00     5.673048     20.43668     91.25024        13     1.014     0.862 -61.20   0
       299    327.8273    187.7646 300.2181048 +22.5358902     359.0033     72.45545      1.637     4.66     5.428221     20.43668     34.27181         6     0.938     0.657  73.98   0
       300    747.1661    185.1632 300.3495793 +22.6606791     1600.556     72.49234      1.393     2.80     5.353715     20.43668      200.814        21     1.154     0.968  70.37   0
       301    812.0405    184.8545 300.3699101 +22.6800021      574.737     72.40009      1.321     2.70     5.353715     20.43668     85.90311         9     0.917     0.619  50.72   0
       302    230.6082    181.2235 300.1899745 +22.5048921     629.6765       72.437      1.693     2.94      5.55258     20.43668     72.23492        12     1.065     0.755  58.69   0
       303   1018.6961    177.8811 300.4366537 +22.7398140     824.7623     72.58447      1.488     3.38     6.284214     20.43668     92.83198        16     1.104     0.983   2.95  16
       304    751.1140    176.5215 300.3536126 +22.6593755     735.7364     72.58447      1.489     3.04     5.353715     20.43668     99.31427        11     1.056     0.702  69.43   0
       305    671.6711    175.8400 300.3290671 +22.6354058     1151.821     72.41856      1.336     3.09     5.310665     20.43668     147.6154        17     1.041     0.943 -29.30   0
       306    492.9457    172.3287 300.2745189 +22.5808979     340.6827     72.45545      1.164     2.46     5.393338     20.43668     52.40179         7     0.703     0.661   8.08   0
       307    597.7632    167.6381 300.3086934 +22.6109272     945.0611     72.51077      1.418     2.70     5.152607     20.43668     124.1841        16     1.061     0.873 -77.72   0
       308    867.1484    167.5152 300.3927225 +22.6915022     1386.762       72.437      1.372     2.48     5.354772     20.43668     184.7558        18     1.034     0.971  61.23   0
       309    879.1481    166.5619 300.3967752 +22.6948177     877.4683     72.45545      1.514     3.04     5.360392     20.43668      115.164        15     1.110     0.913  48.02   0
       310    925.9666    165.8730 300.4116064 +22.7086245     296.3238       72.437      1.352     4.82     5.379653     20.43668     38.85843         8     0.877     0.750  -2.48   0
       311    438.2271    163.5047 300.2603397 +22.5619794     372.9929      72.3447      2.111     2.95     5.380017     20.43668        43.55         5     0.735     0.468 -18.01   0
       312    995.9524    156.8061 300.4363884 +22.7269483     1023.594     72.41856      1.531     3.04     6.166917     20.43668     128.4097        16     1.087     0.971 -25.29   0
       313     20.1501    153.1734 300.1336256 +22.4337837        449.3     72.45545      1.481     3.91      5.99153     20.43668     45.01844         6     0.778     0.562  36.88   0
       314    229.9315    149.5877 300.2000216 +22.4956025     825.3027     72.45545      1.655     3.08      5.46571     20.43668     86.16624        15     1.040     0.920  14.18   0
       315    112.4564    148.7858 300.1637442 +22.4601811     340.5075     72.41856      1.683     3.50     5.982163     20.43668     36.21745         5     0.793     0.446 -70.22   0
       316     91.8946    144.3137 300.1588009 +22.4527365     2299.821     72.62128      1.623     3.28     6.028284     20.43668     216.1977        26     1.229     1.152  67.12   0
       317    914.7253    141.7410 300.4159237 +22.6983199      792.114     72.49234      1.427     3.25     5.352158     20.43668     96.21744        14     1.156     0.788  60.88   0
       318     41.5413    141.6857 300.1439990 +22.4368951     571.6965     72.54762      2.194     5.70     6.025329     20.43668      42.9235         9     1.158     0.860  15.76   0
       319    249.1891    137.6625 300.2098792 +22.4979450     5611.001     72.36317      1.533     2.83     5.396166     20.43668     651.6412        37     1.293     1.167  59.69   0
       320    231.1300    138.4426 300.2040078 +22.4927601     361.8954     72.40009      1.567     2.76      5.46315     20.43668     68.31654         6     0.984     0.583  86.17   0
       321     33.4187    132.1608 300.1445620 +22.4317264     1275.292     72.45545      1.575     3.21     6.050981     20.43668     142.9258        22     1.196     1.099 -66.54   0
       322    232.5500    128.6126 300.2076364 +22.4903617     589.7424     72.49234      1.397     2.58     5.457099     20.43668     85.34757         9     0.874     0.714  16.09   0
       323    893.3253    119.4825 300.4164633 +22.6855156     3541.261     72.54762      1.516     2.75     5.338915     20.43668     423.6812        30     1.251     1.085  57.89   0
       324    997.0851    118.2460 300.4492446 +22.7161920     2660.864     72.41856      1.571     2.94     6.231859     20.43668     316.7452        29     1.337     1.102  81.12   0
       325    442.6324    114.6545 300.2775493 +22.5492596     577.9404     72.45545      1.211     3.42     5.330576     20.43668     102.6609        11     1.078     0.771  46.48   0
       326    366.9316    106.2821 300.2566947 +22.5241887     751.4518     72.54762      1.871     3.07      5.30797     20.43668     64.35164         9     0.923     0.690   7.61   0
       327    132.9926    103.3764 300.1848509 +22.4532921     524.0089       72.437      1.428     3.90     6.042271     20.43668     59.72832        14     1.220     0.939  35.03   0
       328    494.0789    101.9277 300.2976968 +22.5610027     1763.774     72.56605      1.409     2.75     5.345508     20.43668     214.5088        22     1.089     1.039   5.01   0
       329    422.4761    102.5101 300.2752100 +22.5397349     478.5229     72.60287      1.370     3.82     5.307392     20.43668     56.68195        11     1.091     0.712 -31.70   0
       330    555.9606    101.6014 300.3170790 +22.5794315     418.2271     72.45545      1.608     3.06     5.309113     20.43668     56.19352         5     0.905     0.532  76.50   0
       331     30.6892    102.8351 300.1532199 +22.4224881     294.2665     72.41856      1.497     3.57     6.129483     20.43668     35.35501         5     1.003     0.367  -3.38   0
       332    237.9132     97.1278 300.2195113 +22.4829233     465.2843     72.56605      1.293     2.93     5.447407     20.43668      59.6145         9     0.783     0.768  86.65   0
       333    782.7358     91.5468 300.3910239 +22.6443986     416.3094      72.4739      1.461     3.92     5.395473     20.43668     50.12352         7     1.105     0.451  39.91   0
       334    928.4103     85.9326 300.4382871 +22.6863567     265.4748       72.437      1.368     4.75     5.431777     20.43668     39.68694         7     0.960     0.667 -84.49   0
       335    268.1451     81.5863 300.2339551 +22.4875120      5985.68       72.437      1.550     2.83     5.435622     20.43668     666.9483        40     1.344     1.221  65.28   0
       336    774.7891     82.5952 300.3914475 +22.6394465     356.2083     72.28925      1.448     3.38     5.466734     20.43668     37.65742         5     0.751     0.439  21.03   0
       337    119.5998     81.1546 300.1878891 +22.4428978     633.1266     72.41856      1.402     2.67     6.136394     20.43668      91.3755        11     1.032     0.700  -4.34   0
       338    239.6572     75.8634 300.2269463 +22.4773366     398.7989     72.49234      1.534     3.09     5.657301     20.43668     44.76708         6     0.890     0.572 -22.93   0
       339    283.7161     73.3539 300.2414686 +22.4898095     253.1349     72.41856      1.236     2.94     5.363056     20.43668     40.72856         5     0.722     0.457 -14.71   0
       340     29.8230     72.2707 300.1628573 +22.4134518     460.7318     72.45545      1.578     2.78     6.143327     20.43668     55.59033         6     0.823     0.650 -19.48   0
       341    514.3228     67.0063 300.3153218 +22.5570237     6131.137      72.3447      1.414     2.71     5.363733     20.43668     675.1392        35     1.240     1.073  74.68   0
       342    400.0159     66.9532 300.2797423 +22.5227917     601.9902     72.45545      1.372     2.65     5.320228     20.43668     83.29417        10     0.861     0.752 -85.73   0
       343    570.8586     61.6623 300.3346665 +22.5724078      306.226     72.49234      1.512     4.28     5.407269     20.43668     40.44448         5     1.110     0.471  55.97   0
       344    766.7978     57.1697 300.3971968 +22.6297426     868.9704     72.40009      1.590     3.75     5.665479     20.43668     105.0204        14     1.417     0.723 -85.53   0
       345    858.5655     56.0634 300.4261771 +22.6568738     753.3694       72.437      0.994     2.12     5.713696     20.43668     222.5711         9     1.113     0.480   4.22   0
       346    207.1745     50.6904 300.2249996 +22.4603767     490.4331     72.36317      1.506     3.69     6.117484     20.43668     63.07228        12     1.069     0.813  22.11   0
       347    565.5125     49.5858 300.3369149 +22.5673357     445.7666     72.38164      1.447     3.70      5.41432     20.43668     64.95907         7     0.939     0.638  43.69   0
       348    642.7151     47.1351 300.3617665 +22.5897332     6309.232      72.5292      1.401     2.66     5.615093     20.43668     788.2199        35     1.265     1.095  69.02   0
       349    417.5786     46.0099 300.2919982 +22.5220299     1515.336     72.41856      1.435     2.72     5.300307     20.43668     187.3385        19     1.218     0.920  66.87   0
       350    683.9194     44.8640 300.3753456 +22.6014086     815.3007     72.54762      1.284     2.10     5.639231     20.43668     117.2193        10     0.845     0.703  62.36   0
       351    753.6838     42.4635 300.3978739 +22.6215895     412.1201      72.5292      1.457     3.06     5.757481     20.43668     38.43678         5     0.710     0.467 -19.00   0
       352    699.8990     40.9325 300.3816011 +22.6050587     624.4406      72.5292      1.490     2.24     5.684516     20.43668     78.49493         9     0.751     0.731  31.79   0
       353    969.3500     38.7525 300.4663560 +22.6850230     390.8196      72.4739      1.307     1.95     6.080523     20.43668     68.38332         6     0.668     0.564 -36.80   0
       354    166.8150     38.5476 300.2163810 +22.4448011     600.2861     72.41856      1.403     4.04     6.251235     20.43668     69.79314        11     1.151     0.809 -21.78   0
       355     13.4478     38.8562 300.1685964 +22.3989502     290.3847      72.4739      1.580     2.83       6.1079     20.43668     43.73336         5     0.819     0.658  23.59   0
       356   1009.1836     37.7345 300.4791193 +22.6966403     288.3696     72.41856      1.545     3.67     6.286573     20.43668     31.77787         5     1.186     0.327  79.54   0
       357    738.0645     36.0406 300.3950853 +22.6150694      375.276     72.40009      1.273     4.25     5.767526     20.43668     66.96313         8     1.033     0.681  51.85   0
       358    686.9579     32.0303 300.3804521 +22.5986267     2658.157      72.4739      1.408     2.74     5.724245     20.43668      327.524        27     1.205     1.020 -85.76   0
       359    328.0622     32.6141 300.2684729 +22.4913810     441.4605     72.41856      1.454     3.29      5.42857     20.43668     60.69862         8     1.008     0.560 -20.46   0
       360    701.9883     30.8122 300.3855323 +22.6027730     948.4545     72.32622      1.574     5.40     5.751093     20.43668      81.4093        14     1.478     0.693  53.50   0
       361    773.3401     23.7061 300.4100823 +22.6220737     1488.614      72.5292      1.403     2.61     5.937943     20.43668     183.4178        20     1.115     0.965  49.19   0
       362    933.7995     22.2764 300.4606010 +22.6696514     312.3612     72.30774      1.408     3.64     6.045012     20.43668     37.56064         5     0.887     0.429 -46.89   0
       363     13.8481    994.5942 299.8583920 +22.6732416     2019.282     72.41856     12.034    15.48    -12.48045     20.43668     46.46741        65     3.234     2.059 -78.84  19
       364    754.7697   1014.8358 300.0824234 +22.9013030     438.8254     72.45545      2.291     4.32     4.323902     20.43668     25.74816         5     0.749     0.710 -46.66   0
       365     89.7054     15.8881 300.1997449 +22.4151969      505.755     72.62128      1.657     4.42     6.296528     20.43668     43.83887         9     0.927     0.677 -12.38   0
       366    315.9354   1012.5679 299.9464800 +22.7690512     1790.375       72.437      5.105     6.79     7.448888     20.43668      83.9596        32     1.768     1.486  87.63  16
       367    154.8305   1010.0000 299.8972034 +22.7199728     807.4671     72.38164      3.124     3.69     91.47153     20.43668     52.18539         5     0.805     0.512 -19.34   3
       368    717.3849     11.4373 300.3966110 +22.6018063     167.1953       72.437      0.985     3.87     5.902711     20.43668     37.23714         5     0.982     0.437  15.51   0
       369    152.1029   1007.8405 299.8970579 +22.7185352     1737.998       72.437      3.401    14.84     89.62521     20.43668     49.73114        56     3.480     1.760 -33.73  18
       370    188.1212    976.6896 299.9183934 +22.7204145     1839.703     72.56605      7.480    26.11     61.86309     20.43668     64.25032       106     8.231     2.299  61.70  19
       371    199.6161   1002.5986 299.9135388 +22.7312912     1583.082     72.32622      4.320    16.51     82.69614     20.43668     42.76748        55     3.805     1.992 -49.33  19
       372    192.4437    998.1782 299.9127464 +22.7278718     2920.548     72.49234      5.192    19.97     79.19475     20.43668     67.89362       113     4.114     2.694   2.12   3
