#   1 NUMBER                 Running object number                                     
#   2 X_IMAGE                Object position along x                                    [pixel]
#   3 Y_IMAGE                Object position along y                                    [pixel]
#   4 ALPHA_J2000            Right ascension of barycenter (J2000)                      [deg]
#   5 DELTA_J2000            Declination of barycenter (J2000)                          [deg]
#   6 FLUX_APER              Flux vector within fixed circular aperture(s)              [count]
#   7 FLUXERR_APER           RMS error vector for aperture flux(es)                     [count]
#   8 FLUX_RADIUS            Fraction-of-light radii                                    [pixel]
#   9 FWHM_IMAGE             FWHM assuming a gaussian core                              [pixel]
#  10 BACKGROUND             Background at centroid position                            [count]
#  11 THRESHOLD              Detection threshold above background                       [count]
#  12 FLUX_MAX               Peak flux above background                                 [count]
#  13 ISOAREA_IMAGE          Isophotal area above Analysis threshold                    [pixel**2]
#  14 A_IMAGE                Profile RMS along major axis                               [pixel]
#  15 B_IMAGE                Profile RMS along minor axis                               [pixel]
#  16 THETA_IMAGE            Position angle (CCW/x)                                     [deg]
#  17 FLAGS                  Extraction flags                                          
         1    706.2322     16.7951 300.4312576 +22.6044433     786.1354     72.31848      1.262     2.85      4.73034     20.40844     114.0716        12     1.071     0.709  64.31   0
         2    514.8771     14.9618 300.3722519 +22.5466284      1939.32     72.31848      1.346     2.54     4.702489     20.40844     249.3361        20     1.079     0.936  49.89   0
         3    237.8215     12.4357 300.2868659 +22.4629194     729.3483     72.35533      1.346     2.92     5.196643     20.40844     85.21142        13     0.993     0.828  55.57   0
         4    472.1844      8.7622 300.3609716 +22.5320622     1344.614     72.33691      1.335     2.41     4.719655     20.40844     203.3628        17     1.028     0.886  53.74   0
         5    672.9370      5.2230 300.4246360 +22.5911494     381.1695      72.0785      1.890     5.14      4.73034     20.40844     34.17901         7     1.160     0.643  64.17  16
         6    577.6240      5.4660 300.3948687 +22.5626860     1300.149     72.31848      1.262     2.54     4.713426     20.40844     172.9688        19     1.072     0.959  57.82  16
         7    172.9490      4.4536 300.2692839 +22.4411897     436.0822     70.35675      1.335     3.66     5.658273     20.40844     65.10577        11     1.091     0.727 -66.58  16
         8    221.6259      2.3117 300.2851122 +22.4551588     396.8449     61.56723      1.135     2.06     5.235392     20.40844     69.68958         6     0.640     0.607  45.48  24
         9    918.0980      1.5555 300.5022452 +22.6634612     99.07715     57.58508      0.894     3.04     5.188512     20.40844     46.25113         5     0.743     0.465 -17.56  24
        10    398.0380      1.2356 300.3403355 +22.5076939      411.904     55.79833      1.102     2.17     4.919702     20.40844     89.29493         5     0.745     0.389  15.49  24
        11    755.7392   1004.4693 300.1257609 +22.9029962     470.0087     72.37375      1.781     5.12     2.648947     20.40844     41.45553         9     0.944     0.785 -29.24   0
        12    183.1567   1016.9640 299.9434972 +22.7347536     4126.625     72.39217      9.565    36.95     15.81213     20.40844     140.5966       444     7.144     5.305  21.71  24
        13    155.2915   1017.4614 299.9346747 +22.7265290     997.8184     72.42898      9.779    13.50     22.60724     20.40844     37.69427        18     2.977     1.703  31.78  19
        14    148.0102   1020.0168 299.9315798 +22.7250749     1362.736     71.55888      7.424    12.55     25.37691     20.40844     43.96035        28     3.515     1.246 -39.15  19
        15    116.2004   1022.1149 299.9210119 +22.7161237     1334.475     64.25775      9.303    12.12     36.08767     20.40844     53.01669        31     2.219     1.842 -65.43  27
        16     42.0238   1020.1594 299.8986036 +22.6932861     2097.901      71.3537      9.159    20.33     71.41098     20.40844     50.86109        93     3.701     3.101 -21.90  27
        17     35.1872   1012.4171 299.8990007 +22.6890146     2851.911     72.30005      6.384    18.82     69.27006     20.40844     76.73227       115     3.887     2.708 -51.22  19
        18     31.8497   1000.4968 299.9018447 +22.6845971     2435.659     72.41058      6.440    21.97     61.60906     20.40844     59.76111       114     3.997     3.354  65.65  19
        19    483.7917   1004.8682 300.0409410 +22.8215279      514.052     72.31848      1.763     5.49     2.762657     20.40844     36.10504         9     0.958     0.888 -87.23   0
        20    112.9703   1003.9293 299.9259289 +22.7099428     865.4564     72.33691      5.596     6.89     31.36616     20.40844     44.89212        10     1.741     0.765  47.38   1
        21    512.5153   1001.6661 300.0509238 +22.8292286     1544.851     72.44738      1.665     3.85     3.283656     20.40844     132.3065        23     1.241     1.172  87.47   0
        22    406.3044    998.2783 300.0189739 +22.7963844     1043.546     72.46577      1.718     3.65     2.939071     20.40844     92.63861        19     1.181     1.067 -71.64   0
        23    336.9750    996.1265 299.9981075 +22.7749589     6414.261     72.37375      1.615     3.19     3.826156     20.40844     588.9442        41     1.348     1.262  13.72   0
        24     63.0787    995.8077 299.9130720 +22.6926327     1285.309     72.26318      9.289    12.23     46.23072     20.40844     45.53321        29     2.621     1.588 -35.46   0
        25    647.4206    986.5048 300.0978650 +22.8653529     286.8072     72.24473      1.440     3.70     3.261966     20.40844     31.25196         6     1.784     0.221 -14.68   0
        26     43.4491    984.7025 299.9105893 +22.6835556      791.973     72.39217      7.184     8.01     46.53931     20.40844     52.10305        15     2.206     0.813 -21.07   0
        27    370.1617    982.8470 300.0127536 +22.7811125      544.973     72.39217      1.684     4.50     3.432455     20.40844     55.53949        11     1.108     0.906  55.91   0
        28     38.2013    971.9718 299.9131033 +22.6783320     923.4778     72.30005      7.076     9.47     38.75866     20.40844     40.36293        17     1.792     1.396  -7.21   3
        29     25.8610    980.2827 299.9065649 +22.6770071     1121.319     72.42898      5.025     8.77     48.16283     20.40844     42.27919        15     2.068     1.039 -74.07   3
        30     32.9526    979.1934 299.9091222 +22.6788248     1821.213     72.35533     10.390    14.14     45.30713     20.40844     50.47084        54     2.444     2.276 -79.49   3
        31     40.1337    976.7183 299.9121585 +22.6802723     944.7401     72.44738      3.906     6.97     41.82358     20.40844     43.37668        15     1.769     0.905 -48.06   3
        32    883.2269    974.7119 300.1751868 +22.9326847     2246.322     72.31848      1.651     3.55     2.996475     20.40844     165.7512        26     1.216     1.146 -20.18   0
        33     23.9511    973.1111 299.9083061 +22.6743788     1399.119     72.31848      3.855    11.72     43.08442     20.40844     51.81426        31     2.095     1.826 -34.33   3
        34     27.1446    968.1633 299.9109086 +22.6739202     1487.169     72.33691      3.491    12.31     38.34872     20.40844     50.70734        39     2.778     1.519  19.27   3
        35     39.4638    963.3295 299.9163086 +22.6762349     1298.726     72.37375      6.039     9.37     32.03202     20.40844     45.97009        22     1.815     1.351  30.26   3
        36     35.1769    965.4177 299.9142972 +22.6755458     1573.076     72.31848      5.198     7.70     34.30409     20.40844     56.85603        23     1.799     1.371 -71.63   3
        37     29.6849    964.2867 299.9129595 +22.6735724     1648.121     72.46577      2.943    11.29     34.57088     20.40844     49.36506        24     3.232     1.099  50.11   3
        38    533.3277    972.4475 300.0669150 +22.8270929     382.1719     72.31848      1.494     4.21      3.62354     20.40844     46.75736         6     1.070     0.472  -9.38   0
        39    381.6492    970.7612 300.0202616 +22.7810948     370.5154     72.35533      1.736     3.44      3.35132     20.40844     39.02109         5     0.738     0.463  78.24   0
        40    671.8848    963.8817 300.1128502 +22.8662002      884.051     72.46577      2.139     7.18     3.166753     20.40844     56.07066        19     1.474     1.065  61.64   0
        41    998.9333    962.8220 300.2151423 +22.9639570     357.3022     72.33691      1.589     5.82     3.195913     20.40844     34.84176        11     1.235     0.773  88.13   0
        42     44.5813    961.8082 299.9183934 +22.6773359     882.1462     72.30005      4.235     8.33     30.17295     20.40844     44.97737         9     2.233     0.869  38.84   3
        43     48.4410    960.7318 299.9199427 +22.6781866     788.1161     72.31848      3.966     4.77     28.93867     20.40844     34.56326         5     1.249     0.517 -21.72   3
        44    706.7469    957.7812 300.1256964 +22.8749058     1079.256     72.31848      1.554     3.20      3.09779     20.40844     110.8387        16     1.056     0.933 -54.06   0
        45    653.8373    959.1603 300.1087657 +22.8594324     193.9268     72.41058      1.375     3.61     3.347666     20.40844     33.66679         5     1.157     0.325   8.81   0
        46    484.6797    958.7303 300.0562377 +22.8085623     406.4083     72.44738      1.707     2.27     3.248615     20.40844     45.66825         5     0.722     0.431  72.01   0
        47    729.1443    951.4987 300.1347196 +22.8798200     11324.07     72.42898      1.539     3.00     3.069792     20.40844     965.2225        49     1.304     1.251 -67.29   0
        48    920.3398    951.0634 300.1944579 +22.9370222     442.3483     72.37375      1.513     5.63     3.328057     20.40844     42.25095         9     1.226     0.730  64.74   0
        49    774.9792    951.4167 300.1490287 +22.8935414     434.0888     72.31848      1.328     3.66     3.096609     20.40844     54.79641         9     0.882     0.776 -30.30   0
        50     40.9490    943.2228 299.9233143 +22.6709197     441.5588     72.33691      1.602     4.22     17.49418     20.40844     62.66422        11     1.036     0.905  88.12   0
        51    434.6641    939.9487 300.0467862 +22.7881682     377.1356     72.39217      1.335     4.44     3.338167     20.40844     49.63839         9     1.032     0.710 -31.33   0
        52    781.1594    938.9150 300.1550243 +22.8918067     388.7274     72.30005      1.334     3.27     3.211845     20.40844     50.83242         8     0.949     0.711  -2.93   0
        53    737.7852    933.5805 300.1432446 +22.8772692     1240.943     72.31848      1.495     3.10     3.161108     20.40844     126.1048        17     1.070     0.906 -29.92   0
        54     30.9873    934.1503 299.9231727 +22.6653285     319.8393     72.39217      1.721     4.45     11.31665     20.40844     29.42053         6     1.471     0.383  33.89   0
        55    920.9598    932.5804 300.2006680 +22.9319017     535.1282     72.37375      1.562     5.74     3.540908     20.40844       42.951        12     1.205     0.771 -42.30   0
        56    590.0657    930.7935 300.0981393 +22.8321651     530.0344     72.33691      1.617     3.42     3.583782     20.40844      50.1674         7     0.945     0.590  -0.54   0
        57    776.0476    927.0106 300.1573062 +22.8868572     953.5616     72.35533      1.911     3.30     3.301734     20.40844     90.01777        15     1.121     0.857 -35.08   0
        58    115.1992    926.0025 299.9519870 +22.6882803       545.16     72.11547      2.401     4.57     7.465322     20.40844     32.26111         7     1.307     0.454  28.36   0
        59    884.3958    923.8920 300.1920950 +22.9184465     489.0374     72.24473      1.673     4.53     3.596501     20.40844      40.7938        10     1.058     0.639  28.81   0
        60    568.7936    919.8008 300.0950937 +22.8226305     67.82262     72.15243      1.188     4.41     3.631468     20.40844     22.51129         5     0.776     0.712 -50.05   0
        61    824.1239    918.1826 300.1751638 +22.8987381     657.7253     72.33691      1.437     4.08     3.498785     20.40844      72.3551        10     1.007     0.811  63.04   0
        62    675.6232    917.1151 300.1292378 +22.8539022     791.6234     72.28162      1.555     3.64     3.526261     20.40844      82.1548        15     1.134     0.913 -25.40   0
        63    686.9291    914.3568 300.1336575 +22.8565013     658.5608     72.30005      1.442     3.26      3.48198     20.40844     76.59034        12     1.105     0.767 -57.66   0
        64    388.2164    913.7572 300.0408592 +22.7667192     4164.765     72.35533      1.472     2.85     3.573824     20.40844     451.9539        28     1.205     1.090   6.29   0
        65    432.0066    902.0767 300.0582854 +22.7765090     327.0881     72.26318      1.747     5.37     3.565264     20.40844     32.11655         8     1.351     0.603  33.79   0
        66    166.5107    903.0134 299.9754145 +22.6970960     324.6992     72.28162      1.531     3.11     5.161295     20.40844     56.43628         5     0.783     0.606   1.54   0
        67     50.0496    902.2928 299.9394616 +22.6619236     535.6603     72.37375      2.071     6.13     6.536779     20.40844     34.60508        10     1.065     0.990  66.35   0
        68    113.2950    899.4637 299.9600319 +22.6801023     809.4064     72.42898      1.765     3.65     6.303906     20.40844     86.90936        17     1.181     0.979  57.86   0
        69     22.3253    897.6739 299.9323527 +22.6522750     642.0448     72.41058      2.200     5.98     6.195108     20.40844     41.93728        12     1.056     0.954  41.91   0
        70     90.4476    896.4213 299.9539229 +22.6723707     1602.014     72.37375      1.699     3.49     6.506423     20.40844     158.0436        22     1.238     1.080  12.75   0
        71    962.2422    885.4543 300.2288814 +22.9307444     2133.334     72.33691      1.638     3.22     3.674558     20.40844     181.4322        25     1.184     1.124  -9.84   0
        72    916.5076    883.8690 300.2151343 +22.9165814     2102.443     72.46577      1.525     2.98     3.766563     20.40844     188.8314        23     1.166     1.037 -53.20   0
        73    621.9401    884.1528 300.1232450 +22.8283435     474.6051     72.39217      1.839     5.39     3.546761     20.40844     41.20393         9     1.140     0.718 -44.20   0
        74    699.7417    877.8865 300.1495182 +22.8498773     616.6997     72.44738      1.576     3.75     3.512521     20.40844     73.86165        13     1.295     0.680 -12.33   0
        75    123.0794    877.9638 299.9700684 +22.6768774     257.7651     72.28162      1.303     3.64     5.176947     20.40844     37.05044         5     0.650     0.588  87.87   0
        76    568.1727    871.8080 300.1105193 +22.8086748     4821.344     72.31848      1.402     2.53     3.759554     20.40844     545.7576        33     1.155     1.128 -89.09   0
        77     57.7181    872.6908 299.9514762 +22.6557426     447.0237     72.44738      1.923     3.72     5.301395     20.40844     38.92328         5     1.009     0.395  76.58   0
        78    370.5059    869.0662 300.0498930 +22.7485880     620.1758     72.46577      1.383     2.79     3.908279     20.40844     83.89861        11     0.944     0.755  11.23   0
        79    118.3636    865.6828 299.9725990 +22.6719414     1301.639     72.31848      1.578     3.35     4.736848     20.40844     150.3784        20     1.149     1.045  10.22   0
        80    588.7287    864.4374 300.1193184 +22.8127255     815.7462     72.31848      1.315     2.71     3.665207     20.40844     103.4095        14     0.972     0.875  82.61   0
        81    387.1660    863.7710 300.0567990 +22.7520682     194.0392     72.35533      1.196     4.51     3.835203     20.40844        29.92         5     0.782     0.738  30.37   0
        82    137.5013    862.9663 299.9794300 +22.6769079     464.7374     72.31848      1.537     3.94     4.442163     20.40844     52.82806         9     1.040     0.721 -48.16   0
        83    505.2444    854.6385 300.0965157 +22.7848730     225.7242     72.41058      1.229     4.40     4.015037     20.40844     48.99099         6     0.956     0.577  62.67   0
        84    744.0851    851.5328 300.1719101 +22.8556094     4134.086     72.42898      1.407     2.59     3.627261     20.40844     457.5776        32     1.205     1.094 -42.83   0
        85    999.1234    851.5099 300.2514321 +22.9320490     354.0235     72.48416      1.348     4.20     3.684214     20.40844     43.10433         6     1.059     0.578 -29.44   0
        86    961.1231    851.4591 300.2395955 +22.9206466     1192.241     72.39217      1.530     3.59     3.802192     20.40844     116.6309        20     1.168     1.093 -39.92   0
        87    152.7675    845.7966 299.9897608 +22.6765686     476.1483     72.33691      1.346     5.46      4.22748     20.40844     47.74884        10     1.084     0.776 -38.48   0
        88    461.1442    844.1614 300.0861987 +22.7686382     668.9838     72.33691      1.330     3.01     3.976368     20.40844     86.60797        12     0.986     0.809 -21.28   0
        89    107.6819    842.1085 299.9769498 +22.6619772     1210.304     72.48416      1.630     4.38     4.559674     20.40844     107.8395        19     1.245     1.141 -25.46   0
        90    522.4769    837.4327 300.1074782 +22.7851057     472.3352     72.33691      1.266     3.75     3.987218     20.40844     73.72602         9     1.094     0.693   7.45   0
        91    257.1957    834.2578 300.0259777 +22.7046033     53110.09     72.30005      1.492     2.67     4.150258     20.40844     5578.864        96     1.397     1.362  12.70   0
        92    591.7531    836.9742 300.1291962 +22.8057520     281.3014     72.35533      1.381     3.27     3.790866     20.40844     33.12417         5     0.801     0.486  30.89   0
        93    514.9807    833.2308 300.1065118 +22.7816516     1598.046     72.33691      1.333     2.76     4.004314     20.40844     186.0841        19     1.008     0.975   9.19   0
        94    928.0665    832.3033 300.2355191 +22.9052387     926.9409     72.44738      1.404     3.30     3.963777     20.40844     102.6341        14     1.110     0.793  49.21   0
        95    185.5093    832.6402 300.0042177 +22.6826245     599.5811     72.33691      1.950     3.70      4.16344     20.40844     56.37003         7     1.006     0.757  54.90   0
        96    544.1241    829.1721 300.1169049 +22.7892284       851.35     72.33691      1.321     2.83     3.950226     20.40844     110.2162        12     0.941     0.809  75.91   0
        97    554.9230    827.5759 300.1207863 +22.7920092     482.7618     72.35533      1.167     2.95     3.925777     20.40844     68.62504         8     0.823     0.662  46.39   0
        98    875.3488    825.1826 300.2213977 +22.8873938     365.8981     72.33691      1.313     2.29     3.989501     20.40844     60.56448         6     0.728     0.565  40.50   0
        99    660.5235    823.9293 300.1548584 +22.8226313     407.9691     72.44738      1.338     3.23     3.770115     20.40844      49.8742         9     0.879     0.740   3.94   0
       100    455.1287    821.1892 300.0918007 +22.7602434     351.6986     72.33691      1.395     2.73     4.000349     20.40844     42.51939         6     0.727     0.569  42.58   0
       101    306.9236    811.5034 300.0488441 +22.7130005     31281.24     72.48416      1.456     2.57     4.139429     20.40844     3396.144        82     1.390     1.302  16.34   0
       102    697.9011    814.0499 300.1697163 +22.8310030     681.5259     72.41058      1.286     2.79     3.783188     20.40844      108.186        11     0.967     0.709  74.76   0
       103    321.2191    811.9585 300.0531422 +22.7174205     1956.606     72.35533      1.420     2.68     4.117721     20.40844     238.1464        23     1.160     0.967  42.94   0
       104    829.9706    807.1730 300.2131105 +22.8686213     2700.514     72.33691      1.369     2.55       4.0837     20.40844     318.6811        24     1.151     0.972  18.91   0
       105    318.1841    805.8126 300.0541976 +22.7147471     541.0563     72.28162      1.307     2.71     4.131208     20.40844     64.94495         8     0.778     0.677  38.76   0
       106    859.2123    805.3495 300.2228195 +22.8768624     266.6638     72.39217      1.212     4.45     4.067972     20.40844     40.61158         7     0.863     0.654 -25.87   0
       107    424.2271    803.4675 300.0879498 +22.7458894     472.0414     72.31848      1.527     3.35     4.004583     20.40844      61.6088         7     0.885     0.620 -52.11   0
       108    189.4754    803.1472 300.0150449 +22.6753588     690.2908     72.35533      1.454     3.21      4.15468     20.40844     82.33127        13     1.070     0.767  58.72   0
       109    587.9712    803.2579 300.1389879 +22.7949423     919.3701     72.33691      1.283     2.62     3.970651     20.40844     117.8232        10     0.940     0.641   7.72   0
       110    482.1543    800.8722 300.1068213 +22.7625212     420.8706     72.33691      1.520     4.79     4.071591     20.40844     41.81736         8     0.972     0.670  62.71   0
       111    434.9946    798.1490 300.0930305 +22.7475937     826.7288     72.31848      1.298     2.41     4.028447     20.40844     113.8564        11     0.880     0.740  24.94   0
       112    356.4016    798.9044 300.0683323 +22.7242324     329.7495     72.24473      1.519     4.48     4.073632     20.40844     35.84312         6     0.912     0.626 -54.72   0
       113    905.1806    796.2568 300.2401103 +22.8880282     273.8499     72.33691      1.622     5.49     4.077697     20.40844     33.53788         5     1.161     0.733  15.24   0
       114    836.2727    794.8772 300.2190752 +22.8669797     461.6779     72.42898      1.301     3.21     4.093453     20.40844     75.58336        12     1.145     0.665   7.82   0
       115    337.0815    794.0444 300.0639035 +22.7170419     314.4196     72.31848      1.143     2.83     4.113509     20.40844     52.37972         7     0.854     0.527  50.27   0
       116    293.0143    793.9999 300.0502123 +22.7038069     303.2153     72.18936      1.257     2.74     4.188762     20.40844     54.85349         9     0.792     0.754  50.59   0
       117    380.9820    792.9938 300.0779017 +22.7299115     314.4224     72.30005      1.141     2.21     4.056381     20.40844     72.46605         7     0.855     0.471 -40.06   0
       118     23.3517    792.5842 299.9668610 +22.6224649     500.6875     72.37375      2.348     4.86     4.293374     20.40844     50.82732         6     1.211     0.553  37.51   2
       119    813.8521    789.5388 300.2138230 +22.8587266     398.0562     72.39217      1.424     3.21      4.09091     20.40844     46.24403         8     0.887     0.625 -50.73   0
       120    187.3783    787.8511 300.0193685 +22.6703435     432.8115     72.33691      1.085     2.88     4.149456     20.40844     61.86419         6     0.777     0.614 -62.25   0
       121    480.1043    776.1508 300.1142249 +22.7548132     635.4441     72.39217      1.310     2.75     4.081015     20.40844     88.24902         8     0.816     0.649 -39.97   0
       122    389.4723    775.2678 300.0863090 +22.7273736     212.6604     72.39217      1.127     2.86     4.072453     20.40844      49.2596         8     0.838     0.664  40.47   0
       123    896.3469    772.4819 300.2450900 +22.8785531      1734.44     72.37375      0.759     2.49     4.077697     20.40844     472.8506        32     1.164     1.086  75.81   0
       124    501.7768    773.6068 300.1217982 +22.7605834      1268.25     72.30005      1.192     2.33     4.064917     20.40844     195.9799        15     0.916     0.844 -44.47   0
       125    421.5321    773.5051 300.0968576 +22.7364852     452.8854     72.48416      1.566     3.94     4.038855     20.40844     49.69378         7     0.964     0.649 -46.78   0
       126    583.4766    768.5606 300.1488752 +22.7836367     402.2229     72.31848      1.247     2.79     4.003828     20.40844     49.63638         6     0.853     0.435 -70.51   0
       127    884.9264    763.9161 300.2443154 +22.8726706     1695.237     72.44738      1.401     2.46     4.077697     20.40844     210.1904        23     1.133     0.987 -71.64   0
       128    653.2025    763.6788 300.1721782 +22.8031426     193.8473     72.24473      1.181     3.42      3.91929     20.40844     36.74243         5     0.755     0.448 -12.47   0
       129    247.7600    757.9120 300.0478781 +22.6798779     845.0031     72.31848      1.358     3.01     4.198902     20.40844     114.5269        17     1.106     0.901  49.49   0
       130    711.4233    755.2888 300.1930442 +22.8181889     2521.433     72.26318      1.407     2.60     3.834014     20.40844     333.4809        29     1.422     1.053   0.72   0
       131    113.8631    758.4879 300.0060708 +22.6398601     311.4062     72.44738      1.310     3.34     4.074586     20.40844     41.08675         5     0.874     0.519  50.35   0
       132    916.0696    753.7296 300.2573399 +22.8790776     1721.619     72.39217      1.457     3.16     4.077697     20.40844     200.5832        23     1.228     1.013 -89.12   0
       133    929.8582    744.9922 300.2644818 +22.8806997     261.0804     72.31848      1.114     3.87     4.075327     20.40844     42.57391         6     0.803     0.653  77.02   0
       134    793.4587    741.1417 300.2232093 +22.8387173     602.5535     72.41058      1.442     3.62     3.900559     20.40844     64.89568        12     1.080     0.794  24.71   0
       135     96.8096    741.9683 300.0061442 +22.6300053     646.9762     72.33691      1.293     2.22     4.045772     20.40844     100.7786        10     0.816     0.734   3.02   0
       136    829.6619    732.1611 300.2374147 +22.8469889     146823.7     72.33691      1.329     2.28     4.003341     20.40844     18783.07       164     1.386     1.343 -69.80   0
       137    592.0241    736.1303 300.1620848 +22.7768918      503.718     72.33691      1.304     2.12     4.013206     20.40844     73.00357         7     0.670     0.652 -15.54   0
       138    976.7441    733.9448 300.2826984 +22.8915745     1268.336     72.39217      1.450     2.94     3.952185     20.40844     141.0981        17     1.073     0.909  28.32   0
       139    682.1285    732.3752 300.1913701 +22.8028286     854.9826     72.35533      1.305     2.22     3.894906     20.40844      115.212        12     0.890     0.746  57.44   0
       140    862.7071    724.9133 300.2500737 +22.8548105     375.7823     72.50255      1.192     2.22     4.124161     20.40844     65.63811         7     0.725     0.602 -76.46   0
       141    515.8892    721.0954 300.1432699 +22.7497468     1641.904     72.52093      1.271     2.08     4.140244     20.40844     275.9563        17     0.961     0.856  34.19   0
       142    697.1072    718.3423 300.2006002 +22.8032901     9242.367     72.39217      1.270     2.16     3.901536     20.40844     1322.842        39     1.107     1.066 -87.77   0
       143    178.9066    719.8287 300.0388578 +22.6482951      365.926     72.26318      1.298     4.88     4.155869     20.40844     43.54134         8     1.232     0.548  58.35   0
       144    198.6047    713.6021 300.0470057 +22.6524203     4875.373     72.15243      1.434     2.49     4.187963     20.40844     626.8107        32     1.138     1.108  46.74   0
       145    280.6678    711.6985 300.0731397 +22.6764965     1093.323     72.42898      1.278     2.37     4.233119     20.40844     166.9826        15     0.914     0.874  27.67   0
       146    489.0829    707.2245 300.1394364 +22.7377273     781.0212     72.30005      1.288     2.41     4.179479     20.40844     142.4278        11     1.060     0.697  54.44   0
       147    156.0630    708.8835 300.0353166 +22.6383014     484.5782     72.42898      1.491     5.32      4.15053     20.40844     54.56712        10     1.096     0.728  42.04   0
       148    480.5305    699.2432 300.1393697 +22.7328720     3218.769     72.30005      1.223     2.15     4.201898     20.40844     485.5031        26     1.078     0.983 -79.13   0
       149    470.8422    693.0530 300.1383671 +22.7281901     1516.073     72.33691      1.323     2.17     4.231797     20.40844      230.401        17     0.976     0.898 -84.68   0
       150    666.3629    691.9260 300.1996130 +22.7864897     301.6864     72.28162      1.352     3.98      3.98064     20.40844     40.96824         5     1.002     0.454  24.33   0
       151    399.1674    691.8374 300.1164580 +22.7063453      235.727     72.37375      1.388     4.65     4.289033     20.40844     36.39214         6     1.080     0.569  64.28   0
       152    864.2604    690.3928 300.2617842 +22.8453612      461.421     72.30005      1.304     2.69     4.278394     20.40844     60.53092         8     0.860     0.604  -5.67   0
       153    134.3842    689.2559 300.0349609 +22.6261672     621.2634     72.31848      1.392     3.50      4.17769     20.40844     62.35757        12     1.061     0.755  28.30   0
       154    148.3203    687.6959 300.0397992 +22.6299018     663.3167     72.44738      1.353     3.17     4.185693     20.40844     90.13172         8     0.904     0.629  55.82   0
       155    174.1906    684.5457 300.0488643 +22.6367613     400.9563     72.33691      1.452     4.41     4.207034     20.40844     53.01458         8     0.968     0.833  58.66   0
       156    917.6472    683.9066 300.2805399 +22.8594943     443.7943     72.35533      1.319     3.12     4.224713     20.40844     58.33155         9     0.890     0.676 -10.58   0
       157    494.7247    683.3362 300.1489601 +22.7325634     529.5458     72.39217      1.198     2.94     4.246737     20.40844     61.14201         9     0.862     0.716 -89.18   0
       158    395.5130    682.6732 300.1183008 +22.7026197     1771.127     72.48416      1.292     2.24     4.320642     20.40844     264.6228        17     0.969     0.880  88.49   0
       159    205.0085    684.3060 300.0585221 +22.6459395     398.3789     72.24473      1.420     3.97     4.233397     20.40844     45.83877         7     0.721     0.704 -28.88   0
       160    429.3837    681.8274 300.1291149 +22.7125354     259.4679     72.35533      0.946     2.30     4.339129     20.40844     57.47244         6     0.685     0.615  22.71   0
       161    971.2508    679.9434 300.2985467 +22.8744150      748.331     72.39217      1.293     2.57     4.157494     20.40844     103.7866        12     0.937     0.775 -57.66   0
       162     49.5353    677.7811 300.0123274 +22.5974130     19488.01     72.30005      1.547     2.72     4.246163     20.40844     2317.066        63     1.369     1.295  48.39   0
       163    480.5846    677.7732 300.1463677 +22.7267266      1097.26     72.35533      1.433     3.86     4.260749     20.40844     140.0933        17     1.166     0.960 -48.69   0
       164    515.8487    677.2056 300.1575291 +22.7371381      330.586     72.31848      1.022     2.52     4.263552     20.40844     57.74247         6     0.719     0.554 -31.65   0
       165    851.9603    673.3949 300.2634766 +22.8367932     166.6662     72.35533      1.248     3.87     4.320668     20.40844     28.82724         5     0.879     0.489  -0.46   0
       166    535.6671    670.4351 300.1659001 +22.7411372     174.7164     72.33691      1.217     3.38     4.306138     20.40844     37.55648         5     0.788     0.693  45.53   0
       167    233.3965    669.7959 300.0720653 +22.6502948     138.5853     72.13395      1.113     2.15     4.267836     20.40844     43.17807         5     0.695     0.450 -68.68   0
       168    898.5120    663.9429 300.2810643 +22.8480263      1057.49     72.41058      1.365     2.62     4.321272     20.40844     126.8265        16     1.041     0.945  27.94   0
       169     61.9033    662.6768 300.0210802 +22.5967940     358.9875     72.46577      1.473     5.30      4.32973     20.40844     42.07558         7     1.235     0.684  23.76   0
       170    765.2520    662.1968 300.2400907 +22.8075933     460.5231     72.33691      1.075     3.00     4.099015     20.40844     73.01834         6     0.729     0.601  89.79   0
       171    443.9119    658.3965 300.1412540 +22.7101683     322.0199     72.26318      1.077     2.09     4.460578     20.40844     69.79738         7     0.696     0.624  -8.87   0
       172    838.9098    656.7476 300.2648209 +22.8281011      728.555     72.37375      1.332     2.49     4.337171     20.40844     106.5833        12     0.890     0.811 -64.13   0
       173    583.1435    655.5816 300.1855117 +22.7511077     322.4595     72.31848      1.333     2.31     4.285815     20.40844     61.09308         6     0.735     0.586  75.74   0
       174    400.7929    651.0272 300.1302324 +22.6951224     733.7129     72.33691      1.266     2.73     4.485665     20.40844     107.3572        14     0.980     0.876 -59.63   0
       175    548.6409    649.3323 300.1768004 +22.7389697      549.892     72.31848      1.456     3.48     4.511216     20.40844     72.88592        10     1.060     0.744 -81.78   0
       176    596.0576    647.9763 300.1920057 +22.7527959     431.8204     72.33691      1.229     2.33     4.267688     20.40844     71.63278         6     0.711     0.553 -61.51   0
       177    566.2192    647.7401 300.1827911 +22.7437828     659.1998     72.28162      1.245     2.33     4.429699     20.40844     85.47746         8     0.770     0.643  62.38   0
       178    445.0910    646.7194 300.1454173 +22.7071707     953.7817     72.46577      1.257     2.34     4.539871     20.40844     126.2976        13     0.941     0.796  68.49   0
       179    631.6104    645.8766 300.2037607 +22.7628510     319.4959     72.31848      1.356     2.78     4.182194     20.40844     42.77954         5     0.733     0.439  68.88   0
       180    878.6033    642.1558 300.2819403 +22.8358028     3167.591     72.35533      1.265     2.31     4.453904     20.40844      414.304        25     1.036     0.991   9.79   0
       181    410.4586    642.2620 300.1360894 +22.6955058     1802.949     72.39217      1.200     2.15       4.5704     20.40844     251.6871        17     0.993     0.866   3.86   0
       182    976.4086    640.0800 300.3131170 +22.8645067     574.9543     72.28162      1.202     2.81      4.22689     20.40844     96.04516        10     1.013     0.610  43.93   0
       183    775.4337    639.2312 300.2507305 +22.8040490     370.6177     72.35533      1.252     3.26     4.161319     20.40844     40.02673         5     0.723     0.469  73.12   0
       184    385.8558    637.3442 300.1300331 +22.6867161     180.1331     72.41058      1.099     4.13     4.491572     20.40844     41.11736         5     0.928     0.525  49.13   0
       185    439.5172    632.8055 300.1482059 +22.7015061     344.5357     72.26318      1.129     2.00     4.644979     20.40844     56.36983         5     0.678     0.454  65.57   0
       186    918.3121    631.7723 300.2976982 +22.8447163     279.4126     72.31848      1.137     2.22     4.367733     20.40844     69.36737         5     0.737     0.414 -70.02   0
       187    273.8050    629.0273 300.0978835 +22.6507217     9084.104     72.30005      1.331     2.23       4.4042     20.40844     1331.009        43     1.184     1.103  58.59   0
       188    531.1292    629.3014 300.1778602 +22.7279694     275.9576     72.48416      1.718     5.09     4.728227     20.40844     28.32881         6     1.102     0.665  80.77   0
       189    396.2116    626.0353 300.1369314 +22.6865766     8923.758     72.33691      1.278     2.17     4.590646     20.40844     1254.571        40     1.168     1.043  78.35   0
       190    800.7961    623.1964 300.2638481 +22.8070435     261.9931     72.11547      1.123     4.35     4.245236     20.40844     28.18169         5     0.755     0.715  44.32   0
       191   1000.7900    621.2803 300.3268346 +22.8664078     1055.031     72.28162      1.431     2.98     4.202239     20.40844     119.4413        16     1.049     0.908  35.66   0
       192    642.8025    622.3728 300.2148876 +22.7594574     394.6251     72.28162      1.304     2.57      4.27989     20.40844     63.43348         6     0.785     0.474   8.96   0
       193    807.8230    619.8207 300.2671358 +22.8081795      2017.33     72.33691      1.276     2.08     4.286476     20.40844     318.7992        18     0.978     0.913 -82.39   0
       194    892.5486    617.2313 300.2943915 +22.8328204     12191.91     72.37375      1.263     2.22     4.502656     20.40844     1500.867        48     1.160     1.123  89.66   0
       195    626.4787    611.3741 300.2133786 +22.7514064     605.9913     72.33691      1.312     2.43     4.330505     20.40844     72.91792         8     0.851     0.606  53.70   0
       196    184.3314    611.0364 300.0759130 +22.6187195     1256.485     72.31848      1.360     2.41     4.449168     20.40844     174.8962        18     1.087     0.900 -86.71   0
       197    342.3887    610.2095 300.1253311 +22.6658934     345.5459     72.22627      1.210     3.18     4.419067     20.40844      49.5819         7     0.906     0.593 -42.91   0
       198    431.3405    608.7039 300.1534959 +22.6921369     386.3896     72.41058      1.141     2.57     4.811952     20.40844     67.75538         6     0.831     0.456  -1.34   0
       199    388.5204    603.8315 300.1417557 +22.6778980      4314.77     72.33691      1.250     2.12     4.630288     20.40844     648.3509        27     1.019     1.016  46.49   0
       200    731.2558    603.6218 300.2485394 +22.7805829     866.1268     72.37375      1.454     2.66     4.156229     20.40844     110.8469        14     0.973     0.840   2.31   0
       201    366.7939    602.3160 300.1354889 +22.6709475     1283.919     72.26318      1.319     2.27     4.489903     20.40844     179.3604        13     0.862     0.789  88.63   0
       202    121.2189    601.6287 300.0593548 +22.5970858     839.9053     72.33691      1.422     2.74     4.446065     20.40844     92.32887        13     0.941     0.838  31.62   0
       203    808.2366    599.2260 300.2739593 +22.8023877     1631.881     72.35533      1.336     2.46     4.297512     20.40844     207.6891        19     1.064     0.925 -27.72   0
       204    456.7653    615.5682 300.1591770 +22.7017308     11623.22     72.35533      1.229     2.13     4.770012     20.40844     1782.626        44     1.148     1.059  62.80   0
       205    505.0829    591.3188 300.1820982 +22.7092571       198111     72.48416      1.256     2.06      4.90525     20.40844     30314.44       198     1.381     1.366   8.46   0
       206     54.9037    599.3026 300.0395054 +22.5765203     241.7299     72.52093      1.249     3.45     4.827207     20.40844     33.01977         5     0.994     0.346  44.70   0
       207    328.8898    597.5456 300.1252483 +22.6582110     296.6071     72.37375      1.140     2.89     4.424046     20.40844     57.20124         6     0.768     0.619  26.91   0
       208    688.8228    596.0562 300.2377778 +22.7656935     815.9683     72.35533      1.102     1.96      4.32746     20.40844     144.8572         9     0.720     0.696  73.86   0
       209    782.3147    594.3063 300.2674790 +22.7932075     237.4474     72.52093      1.180     3.36      4.23034     20.40844     45.51791         5     1.072     0.306 -36.27   0
       210    191.1696    591.3403 300.0844403 +22.6151210     3492.728     72.37375      1.369     2.43     4.455522     20.40844     379.1173        29     1.134     1.067  56.10   0
       211    369.7467    588.7774 300.1408079 +22.6679478     335.9277     72.35533      2.022     5.29     4.502489     20.40844     47.50375         7     1.801     0.438 -50.75   0
       212    756.8778    587.3384 300.2618165 +22.7835840     424.9975     72.41058      1.106     2.41     4.199766     20.40844     95.86179         8     0.756     0.748 -21.13   0
       213    536.4438    577.8222 300.1962478 +22.7147842      255.162     72.39217      1.075     2.19      5.00596     20.40844     55.20212         5     0.687     0.466 -70.03   0
       214    395.7067    571.6193 300.1544610 +22.6708081     2800.579     72.26318      1.278     2.05     4.676131     20.40844     412.4535        24     1.040     0.960  72.07   2
       215    239.8739    574.1716 300.1051620 +22.6248054     417.6427     72.35533      1.241     3.54     4.396283     20.40844     55.45728         8     0.922     0.643  58.23   0
       216    981.8794    568.7081 300.3380244 +22.8456362      337.538     72.44738      2.334     4.56      4.28403     20.40844     37.73524         6     1.337     0.442  24.34   0
       217    807.3539    567.9265 300.2838576 +22.7931320     503.4139     72.33691      1.452     3.12     4.277209     20.40844      56.9212         8     0.809     0.683  14.59   0
       218    626.3228    566.8392 300.2278053 +22.7385716     401.1884     72.31848      1.634     3.18      4.58479     20.40844     39.20355         6     0.744     0.610  20.07   0
       219    712.9893    559.8465 300.2570759 +22.7625363     401.1271     72.35533      1.153     2.68     4.336949     20.40844     68.60632         6     0.819     0.557 -89.74   0
       220    792.6959    557.7071 300.2826101 +22.7858046     1628.149     72.52093      1.183     2.02     4.257913     20.40844     280.9076        18     0.952     0.875 -74.16   0
       221    663.9111    555.3791 300.2432378 +22.7465458     2528.361     72.26318      1.210     2.03     4.557488     20.40844     393.9185        21     0.994     0.879  44.27   0
       222     23.0690    555.8511 300.0437365 +22.5545064     311.4233     72.31848      1.635     5.17     4.353699     20.40844     35.04528         6     1.168     0.647   8.84   0
       223    908.0476    553.0781 300.3200769 +22.8190309     457.5237     72.33691      1.345     2.40     4.330471     20.40844      65.8461         8     0.780     0.655 -51.47   0
       224    873.3354    552.3538 300.3094884 +22.8084249      352.768     72.37375      1.724     2.75     4.343344     20.40844     42.39027         6     0.829     0.473 -45.35   0
       225    568.7299    551.7972 300.2147583 +22.7169901     405.8145     72.28162      1.309     3.47     4.949824     20.40844     62.15137         6     0.971     0.535  53.59   0
       226    451.1642    551.2555 300.1783362 +22.6815911     759.6976     72.35533      1.167     2.17     4.853647     20.40844     112.7582        10     0.822     0.701  29.78   0
       227    921.2740    549.2743 300.3254377 +22.8218995     1301.117     72.39217      1.233     2.08     4.317166     20.40844     188.0323        18     1.003     0.898 -50.36   0
       228    906.9193    548.3254 300.3212696 +22.8173272     807.8934     72.44738      1.313     2.34      4.31811     20.40844     100.4647        10     0.825     0.720  17.82   0
       229    793.0704    548.2098 300.2858134 +22.7831885     2073.121     72.31848      1.221     1.98      4.26058     20.40844     326.9289        18     0.925     0.853 -46.63   2
       230    792.1604    544.2961 300.2868016 +22.7817915     448.8822     72.31848      1.327     3.65     4.262694     20.40844      57.8176         6     0.918     0.470  56.09   3
       231    545.9978    544.6387 300.2100066 +22.7081208     785.9745     72.35533      2.000     7.00     5.098709     20.40844     90.06817        17     2.111     0.750  79.08   0
       232    331.9838    545.8558 300.1430093 +22.6443054     280.9948     72.30005      1.206     3.18     4.352859     20.40844     46.23251         8     0.808     0.677 -41.67   0
       233    831.1625    542.9142 300.2994081 +22.7930792     4257.218     72.31848      1.225     2.03     4.286264     20.40844     721.2269        28     1.043     0.996  -3.96   0
       234    384.6838    544.7592 300.1597603 +22.6597935     424.8961     72.30005      1.174     2.42     4.594064     20.40844     71.23228         8     0.872     0.571  -6.70   0
       235    472.2071    542.5906 300.1877012 +22.6854124     279.9633     72.18936      1.029     3.12     4.869523     20.40844     40.14842         6     0.699     0.653  89.64   0
       236    568.6031    539.4264 300.2187389 +22.7134000     354.9283     72.30005      1.812     3.90     4.975932     20.40844     29.85177         5     1.021     0.426 -15.68   0
       237    491.7131    538.9744 300.1949478 +22.6902219     295.6613     72.28162      1.191     2.63     4.914288     20.40844      56.1411         6     0.853     0.463 -50.24   0
       238     23.9992    537.8565 300.0498725 +22.5496248     2293.295     72.26318      0.455     1.96     4.168855     20.40844     1800.136         6     0.408     0.293  57.01   0
       239     63.2367    533.5136 300.0634733 +22.5601521     1084.587     72.31848      1.483     3.48     4.417443     20.40844     105.5833        18     1.149     0.981 -56.88   0
       240    922.8416    533.1954 300.3311519 +22.8177486     850.9681     72.35533      1.358     2.54     4.323965     20.40844       114.23        12     0.967     0.737  29.66   0
       241    862.3196    530.6405 300.3131101 +22.7988862     180.9924     72.30005      1.065     3.15     4.316272     20.40844     44.26903         5     0.728     0.459 -14.20   0
       242    724.0652    527.2166 300.2711308 +22.7564828     379.0258     72.31848      1.197     2.16     4.343041     20.40844     59.42022         7     0.689     0.643  -1.99   0
       243    329.6247    526.5790 300.1485393 +22.6380656     216.0575     72.31848      1.017     4.05     4.446381     20.40844     39.52677         6     1.022     0.458  53.86   0
       244     55.4384    523.1928 300.0644038 +22.5548521     466.2129     72.35533      1.669     2.72     4.388515     20.40844     56.83908         5     0.926     0.520  55.89   0
       245    919.1838    522.1838 300.3335895 +22.8134887     426.3828     72.30005      1.472     2.58     4.335484     20.40844     54.61671         8     0.763     0.680 -45.88   0
       246    663.4220    517.3483 300.2554440 +22.7354767     415.5981     72.33691      1.095     2.68     4.598873     20.40844     65.44896         5     0.687     0.478  75.23   0
       247    552.3410    515.1550 300.2215621 +22.7015563     443.7649     72.37375      1.270     4.20     5.065334     20.40844     54.24014         7     1.090     0.461  83.65   0
       248    604.6304    513.3855 300.2384198 +22.7167200      737.981     72.33691      1.100     2.41      4.77165     20.40844     108.1321        10     0.818     0.733 -70.69   0
       249   1011.9986    510.9100 300.3662038 +22.8380444      1022.32     72.26318      1.279     2.51     4.341811     20.40844     162.8822        13     0.894     0.849 -32.15   0
       250    919.1648    505.8634 300.3388868 +22.8087928     529.5142     72.33691      1.250     2.28     4.352939     20.40844     91.69349         8     0.780     0.640  46.04   0
       251    665.2816    505.6902 300.2598113 +22.7326855      977.504     72.44738      1.310     2.10     4.592533     20.40844     128.3664        12     0.879     0.753   8.30   0
       252    822.5643    501.8239 300.3100800 +22.7786976     977.4559     72.35533      1.166     2.14     4.323415     20.40844     147.6491        14     0.911     0.794 -74.98   0
       253    806.8621    498.0542 300.3064102 +22.7729107     662.9271     72.39217      1.198     2.20     4.324364     20.40844     113.7409        10     0.814     0.717  16.23   0
       254    551.0948    496.1820 300.2273387 +22.6957346     3299.831     72.26318      1.216     2.00     5.069967     20.40844       536.55        24     1.003     0.942  26.81   0
       255    911.6873    494.8714 300.3401265 +22.8033944     597.7815     72.48416      1.300     2.57     4.361423     20.40844     74.75683         9     0.782     0.747 -25.74   0
       256     27.1035    487.7758 300.0671075 +22.5361922     451.4808     72.24473      1.480     3.02     4.254916     20.40844      43.6288         7     0.700     0.692  38.56   0
       257   1022.4949    483.8272 300.3782785 +22.8334023     532.4857     62.51249      1.214     2.42     4.382052     20.40844     77.03538         9     0.804     0.722  52.73  24
       258    556.7092    484.2740 300.2329556 +22.6939978     282.5921     72.50255      1.245     3.37     5.034811     20.40844     48.91122         6     0.714     0.661  67.83   0
       259    323.3273    484.1006 300.1603816 +22.6239855     215.8318     72.48416      1.109     3.38     4.637704     20.40844     42.47217         5     0.817     0.405  70.51   0
       260    390.8434    483.2915 300.1816484 +22.6439964     344.7181     72.33691      1.316     2.14     4.819991     20.40844     71.93763         7     0.764     0.594  31.75   0
       261    962.4039    475.1195 300.3623616 +22.8129059     1222.302     72.24473      1.211     2.20     4.385756     20.40844     200.6265        16     0.929     0.857  75.41   0
       262    834.1855    474.8125 300.3224788 +22.7744172     540.2978     72.26318      1.219     2.59     4.343787     20.40844     86.55884         8     0.902     0.645  70.40   0
       263    920.8148    473.7133 300.3498472 +22.8000472     886.0018     72.28162      1.159     2.12     4.373723     20.40844     175.8737        13     1.059     0.702  65.75   0
       264    570.7089    471.9078 300.2413323 +22.6946422     317.6642     72.50255      1.288     3.11     4.949683     20.40844     52.02701         6     0.875     0.555  23.96   0
       265    457.5487    470.7850 300.2064691 +22.6604029      346.847     72.33691      0.983     2.07     4.863288     20.40844     74.77599         5     0.688     0.440  64.00   0
       266    661.6671    470.1135 300.2702439 +22.7213836     1062.761     72.44738      1.117     1.88     4.621548     20.40844     185.1035        11     0.807     0.669 -23.59   0
       267    165.8723    468.5698 300.1164675 +22.5723096     604.9364     72.33691      1.313     2.83     4.600156     20.40844     93.34853        13     0.975     0.880  88.46   0
       268      5.0405    467.3974 300.0668738 +22.5237276       2.8529     71.76346     -2.231     5.60     4.103827     20.40844     29.96328         6     1.150     0.768  76.66  16
       269    228.0611    464.2173 300.1372145 +22.5897117     3685.275     72.30005      1.322     2.24     4.592075     20.40844     507.1726        30     1.139     1.015  75.40   0
       270    961.2010    462.4042 300.3661174 +22.8088909     4415.926     72.15243      1.292     2.15     4.383226     20.40844     645.6086        33     1.121     1.045  66.93   0
       271    175.2798    459.0109 300.1224968 +22.5723883     7610.389     72.31848      1.328     2.26     4.634706     20.40844     989.4055        40     1.236     1.069  51.80   0
       272    777.7280    458.9123 300.3100462 +22.7529370      187.483     72.48416      1.286     4.13     4.345483     20.40844     35.41358         6     1.137     0.429 -59.22   0
       273    553.6935    457.9153 300.2405797 +22.6855244     354.2117     72.52093      1.294     3.35     5.032696     20.40844     47.35418         6     0.889     0.603 -23.76   0
       274    316.0550    453.1765 300.1681653 +22.6129288      4941.17     72.35533      1.276     2.14     4.740795     20.40844     748.2111        29     1.105     0.972  70.55   0
       275    941.0193    453.4932 300.3627175 +22.8002862     1805.376     72.26318      1.320     2.36     4.363905     20.40844     249.3438        20     1.091     0.919  13.93   0
       276    560.2357    449.7903 300.2452560 +22.6851515      18086.1     72.33691      1.213     1.99     4.995797     20.40844     3103.262        55     1.175     1.042  76.61   0
       277    577.6907    449.8824 300.2506613 +22.6904089     833.1196     72.44738      2.001     6.35     4.905135     20.40844     70.58946        13     1.640     0.708 -37.06   0
       278    407.8214    451.2806 300.1973299 +22.6398965     366.7005     72.30005      1.488     3.04     4.852567     20.40844     41.15094         5     0.702     0.689 -85.67   0
       279    187.2712    448.4660 300.1296496 +22.5729588     314.2807     72.37375      1.137     2.81      4.68592     20.40844     49.53918         7     0.897     0.491  -6.52   0
       280    757.1370    439.9815 300.3097785 +22.7413295     408.9429     72.30005      1.234     3.06     4.345483     20.40844     81.56862         9     0.975     0.710 -45.39   0
       281    180.3879    437.1946 300.1311708 +22.5676600     319.1732     72.20782      1.167     3.38     4.730941     20.40844      46.5097         5     0.755     0.437  69.47   0
       282    893.8582    432.0004 300.3549917 +22.7799857     780.9421     72.30005      1.289     2.75     4.322987     20.40844     98.54216        12     1.009     0.705 -72.20   0
       283    430.3626    431.7524 300.2106875 +22.6410467     380.9773     72.37375      1.350     3.44     4.867754     20.40844     60.19331         5     0.846     0.522 -42.10   0
       284    115.0215    430.0710 300.1131678 +22.5460113     1882.127     72.35533      1.329     2.23     4.763164     20.40844     278.2677        22     1.067     1.011  -2.57   0
       285    603.3768    430.8382 300.2648464 +22.6926361     382.0336     72.35533      1.421     4.09     4.785945     20.40844     37.60873         6     0.740     0.648   9.86   0
       286    500.8672    419.3123 300.2366722 +22.6586065     6564.179     72.42898      1.229     2.00     4.926097     20.40844     1069.905        36     1.165     0.995  69.82   0
       287    914.5176    419.3981 300.3655277 +22.7825501     1065.222     72.24473      1.141     2.20     4.312492     20.40844     154.0061        15     0.899     0.842  85.66   0
       288    215.8615    418.8043 300.1481718 +22.5730203     591.0388     72.33691      1.266     2.83     4.889224     20.40844      98.3139        12     1.064     0.672  69.52   0
       289     73.3497    412.0121 300.1060836 +22.5283308     418.9361     72.37375      1.125     2.24     4.630953     20.40844     63.94351         7     0.695     0.650 -63.96   0
       290    760.9221    410.8080 300.3204341 +22.7340807     263.0968     72.30005      1.015     1.88      4.35106     20.40844     66.03198         6     0.673     0.549  45.33   0
       291    705.0485    408.1335 300.3038919 +22.7165752     1184.124     72.33691      1.304     2.20     4.501271     20.40844      180.423        16     1.142     0.896  68.39   0
       292    614.6156    409.2979 300.2753429 +22.6898163     465.2538     72.24473      1.086     3.74     4.752409     20.40844     71.03926         8     1.038     0.578  78.58   0
       293    407.4906    405.5746 300.2120723 +22.6266745     6067.045     72.28162      1.197     2.11     4.863771     20.40844     826.4741        32     1.074     1.012  59.86   0
       294    799.3748    399.9038 300.3359603 +22.7424647     1517.507     72.26318      1.247     2.04     4.386306     20.40844     227.3071        18     1.075     0.870 -69.33   0
       295    896.6749    399.9255 300.3662883 +22.7716100     672.5118     72.42898      1.262     2.72      4.31973     20.40844     102.0159        11     0.970     0.724 -81.04   0
       296    392.1510    394.2439 300.2109790 +22.6188232     521.4875     72.37375      1.168     3.53     4.851615     20.40844     63.11043         9     0.886     0.675 -60.44   0
       297     69.2566    395.1667 300.1102823 +22.5222698     5187.955     72.35533      1.029     3.18     4.717495     20.40844     1345.333        12     1.088     0.438  19.38   0
       298    474.7111    391.8967 300.2374343 +22.6428943     544.6763     72.52093      1.332     3.79     4.848016     20.40844     54.39922         8     0.895     0.665  66.86   0
       299    752.8906    391.0522 300.3243474 +22.7259982      347.649     72.37375      1.442     2.70     4.361595     20.40844     50.89061         6     0.884     0.446  52.62   0
       300    455.0615    389.9612 300.2319469 +22.6364495     338.8061     72.33691      1.157     3.30      4.84645     20.40844      53.2407         5     0.656     0.566   1.24   0
       301    772.2215    387.2391 300.3316102 +22.7306925     443.2675     72.37375      1.129     2.23     4.386151     20.40844     76.95429         8     0.746     0.658 -51.08   0
       302    295.0277    384.7867 300.1838368 +22.5869929     2423.485     72.33691      1.249     2.13     4.952765     20.40844     385.2954        21     1.049     0.905  64.49   0
       303     13.5728    382.2463 300.0971785 +22.5018604     954.7277     72.37375      1.464     2.77     4.637479     20.40844     123.3613        18     1.073     0.964  80.15   0
       304    642.4992    378.9980 300.2938681 +22.6894660     284.6473     72.22627      1.232     3.71     4.587252     20.40844     32.42507         6     0.793     0.499 -87.46   0
       305    264.4142    374.2677 300.1777319 +22.5747951     29680.68     72.33691      1.284     2.24      4.97831     20.40844     3628.997        65     1.246     1.154  65.91   0
       306    799.1423    371.5867 300.3450841 +22.7342571     1344.188     72.30005      1.191     1.97     4.453544     20.40844     228.2609        15     0.993     0.767  79.22   0
       307    754.6586    369.0489 300.3320440 +22.7202048     290.9718     72.39217      1.166     2.89     4.378947     20.40844     38.72824         7     0.735     0.646  72.38   0
       308    714.2604    360.7287 300.3221571 +22.7057137     636.7574     72.37375      1.322     2.90      4.32967     20.40844     83.57199         8     0.836     0.655  71.55   0
       309    138.2537    360.5350 300.1429689 +22.5330249     463.2396     72.37375      1.487     3.17     4.923491     20.40844     60.34595         9     0.881     0.730  32.46   0
       310    362.9489    359.7001 300.2131106 +22.6001514     621.1635     72.42898      1.387     2.19     4.817174     20.40844     85.25672        10     0.853     0.677  80.55   0
       311    674.7679    353.8152 300.3120978 +22.6918975     2001.297     72.31848      1.228     2.06     4.251554     20.40844        339.3        16     0.933     0.809  64.45   0
       312    483.1759    348.6072 300.2541262 +22.6329985       308.26     72.33691      1.105     3.39     4.805692     20.40844     47.84328         5     0.750     0.444 -19.60   0
       313    889.7877    346.5298 300.3814808 +22.7541989     627.5594     72.35533      1.264     2.66     4.371767     20.40844     82.62254        10     0.905     0.696  86.05   0
       314    336.5134    338.5548 300.2117523 +22.5861561     2119.477     72.31848      1.472     2.74     4.849797     20.40844      268.811        25     1.387     0.878  63.53   0
       315    548.9677    337.3708 300.2782568 +22.6494850     272.8788     72.33691      1.108     3.25      4.80352     20.40844     54.09332         8     0.830     0.662  82.86   0
       316    775.7957    331.3079 300.3508864 +22.7156890     627.5986     72.24473      1.216     2.47      4.62825     20.40844      89.7381        11     0.907     0.710  35.18   0
       317    658.0605    328.9338 300.3149718 +22.6797435      610.405     72.37375      1.478     2.79     4.596158     20.40844     74.23136        10     0.894     0.740 -28.19   0
       318    412.3649    317.9109 300.2420541 +22.6029621     1207.721     72.31848      1.238     2.06     4.807552     20.40844     175.5847        15     0.969     0.776  45.08   0
       319    923.8654    313.4630 300.4028444 +22.7548953      297.905     72.37375      1.234     2.20     4.377969     20.40844     56.53901         5     0.699     0.453 -23.03   0
       320    795.4738    310.6538 300.3637256 +22.7156455      198.351     72.35533      1.132     2.38     4.791094     20.40844     72.56181         6     0.859     0.620  62.16   0
       321    657.2528    309.7873 300.3209364 +22.6740000     2092.999     72.35533      1.206     2.07     4.785887     20.40844     351.9843        18     0.930     0.878  58.91   0
       322    918.5857    304.0289 300.4042607 +22.7506022     3137.747     72.35533      1.261     2.08     4.410911     20.40844     448.1086        27     1.070     1.054 -67.15   0
       323    979.9368    298.9482 300.4250461 +22.7675069      455.907     72.39217      1.373     2.58     4.488428     20.40844     56.20109         5     0.659     0.529  -1.22   0
       324    365.6087    293.5918 300.2354007 +22.5819656     518.4467     72.18936      1.152     2.79     4.789024     20.40844     86.45031         9     0.870     0.670  77.64   0
       325    987.9887    291.9198 300.4298397 +22.7678960     1641.489     72.31848      1.313     2.07     4.518249     20.40844     265.4034        19     1.072     0.915  63.99   0
       326     40.4822    287.9793 300.1361416 +22.4828829     1366.671     72.30005      1.658     3.17     5.015781     20.40844     133.7654        21     1.274     0.989 -41.93   0
       327     71.2304    287.7560 300.1457675 +22.4920396     679.7283     72.37375      1.258     2.46     5.016519     20.40844     98.43488        10     0.873     0.714  48.41   0
       328    934.1721    284.3807 300.4155004 +22.7496189     558.4574     72.33691      1.205     3.09     4.408185     20.40844     84.43333         9     0.951     0.659 -64.64   0
       329    777.8571    281.4161 300.3677263 +22.7019662     411.4445     72.31848      1.561     2.20     4.955176     20.40844     46.70913         5     0.691     0.460 -20.08   0
       330    124.6753    279.8204 300.1649515 +22.5057876     501.2557     72.33691      1.551     3.72     5.017039     20.40844     54.74145         9     0.936     0.819  37.47   0
       331    919.4729    277.2210 300.4132402 +22.7431599      355.341     72.33691      1.377     2.10     4.495201     20.40844     53.65058         5     0.681     0.457  66.51   0
       332    800.2500    273.3369 300.3773287 +22.7063490     305.1256     72.39217      1.069     1.94     4.899216     20.40844     69.52532         6     0.656     0.588  56.28   0
       333    728.9609    271.0852 300.3558416 +22.6843545     751.0261     72.31848      1.388     2.61     4.977923     20.40844     109.4017        10     0.986     0.635  67.19   0
       334    319.3001    270.6495 300.2284416 +22.5614982     440.4564     72.42898      1.439     3.37     4.825105     20.40844      49.2568         7     0.900     0.535 -64.27   0
       335    819.6393    264.2430 300.3863246 +22.7095403     243.2491     72.42898      1.027     2.22      4.84948     20.40844     62.33379         5     0.703     0.447 -71.17   0
       336      4.1989    263.3589 300.1328611 +22.4649366     379.6212      69.5374      1.411     3.37     5.015198     20.40844     43.89007         5     1.098     0.300 -54.98  16
       337    827.0521    260.1698 300.3899576 +22.7105888     2098.194     72.37375      1.263     2.02     4.833829     20.40844     349.9969        22     1.048     0.895 -78.66   0
       338    245.6107    257.6645 300.2097383 +22.5356826     2143.624     72.26318      1.269     2.22     4.874504     20.40844     293.8244        20     1.031     0.907  67.75   0
       339    323.5039    252.8331 300.2355319 +22.5576419     1048.217     72.31848      1.408     2.58      4.78842     20.40844     118.7233        15     0.961     0.858 -82.72   0
       340     75.2154    253.3954 300.1581579 +22.4833729     334.8446     72.18936      1.380     4.43     5.016058     20.40844     39.73994         7     0.911     0.613  82.73   0
       341    725.5750    251.5728 300.3611200 +22.6777322     719.0234     72.30005      1.407     2.64      4.89569     20.40844     95.61048        10     0.885     0.797 -66.35   0
       342    482.1126    251.9939 300.2851586 +22.6049284     144.6294     72.24473      1.005     3.08     4.805887     20.40844     38.36234         5     0.797     0.481 -24.90   0
       343    370.4498    249.8581 300.2511020 +22.5708565     327.6472     72.39217      1.988     4.46     4.771628     20.40844      30.1819         7     1.025     0.584  13.85   0
       344    832.4407    248.6217 300.3953858 +22.7088821     306.3012     72.37375      1.041     2.89     4.812714     20.40844     54.65399         7     0.801     0.666 -64.70   0
       345    140.2627    244.8164 300.1811569 +22.5004132     608.1983     72.31848      1.283     2.44     5.016812     20.40844     99.23612         9     0.844     0.685  63.29   0
       346    678.1935    241.6702 300.3495711 +22.6606968     1680.202     72.30005      1.210     2.04     4.812804     20.40844     275.3072        16     0.931     0.831  78.48   0
       347    743.0280    241.1744 300.3699337 +22.6799696     457.0681     72.31848      1.138     1.91     4.854147     20.40844     108.2005        10     0.813     0.670  84.17   0
       348    161.8631    238.0204 300.1900764 +22.5049380     567.5104     72.30005      1.312     3.99     5.013976     20.40844     60.81765         9     0.926     0.744 -72.75   0
       349    949.7255    233.9528 300.4367201 +22.7397735     883.3908     72.33691      1.434     2.71     4.722508     20.40844     108.8796        15     1.015     0.863  86.57   0
       350    682.0493    232.9570 300.3536002 +22.6593472     807.9476     72.37375      1.462     2.53     4.770607     20.40844     103.8268        11     0.947     0.684  72.53   0
       351    451.5670    233.9144 300.2815187 +22.5905830     345.8758     72.30005      1.365     3.39     4.807297     20.40844     40.75984         5     0.793     0.420  67.05   0
       352    602.5635    232.2807 300.3290602 +22.6353471     1164.338     72.30005      1.200     2.18     4.729267     20.40844     176.4211        15     0.934     0.850  66.84   0
       353    423.5410    228.9520 300.2744070 +22.5807604     310.7836     72.39217      1.337     3.26     4.807423     20.40844     47.06776         5     0.723     0.631 -10.33   0
       354    528.7746    224.2390 300.3086927 +22.6109336     1074.823     72.35533      1.357     2.28     4.742154     20.40844     159.5619        16     1.052     0.913  63.72   0
       355    798.2074    223.7578 300.3927840 +22.6914847     1499.955     72.35533      1.237     1.96     4.776866     20.40844     267.6898        17     0.995     0.891 -59.80   0
       356    810.1103    222.8617 300.3967852 +22.6947907     804.6834     72.42898      1.289     2.26     4.777127     20.40844     129.3084        12     0.913     0.754  65.35   0
       357    857.0955    221.6783 300.4118171 +22.7085166     222.2496     72.46577      1.139     2.00     4.782525     20.40844     54.65665         5     0.703     0.431 -18.88   0
       358    971.0145    213.6626 300.4499458 +22.7403099     1632.303     72.30005      1.279     2.09     4.849256     20.40844     267.1241        17     0.982     0.867  68.65   0
       359    926.9724    213.0397 300.4364107 +22.7269491     1068.164     72.39217      1.379     2.19     4.775876     20.40844     187.4508        16     1.115     0.812 -59.78   0
       360    160.9861    206.6174 300.1999942 +22.4956595      786.585     72.30005      1.392     2.68     4.967265     20.40844     93.16901        13     1.015     0.743 -88.87   0
       361     22.8041    201.2466 300.1587967 +22.4526901     2152.529     72.31848      1.451     2.80     5.319389     20.40844     240.7009        24     1.210     1.003  70.89   0
       362    846.1051    197.9812 300.4160808 +22.6984128     779.8433     72.26318      1.268     2.56     4.781262     20.40844     121.7291        10     0.993     0.739 -12.15   0
       363    180.1912    194.5719 300.2098727 +22.4979580     5675.696     72.33691      1.353     2.46     4.893648     20.40844     686.6408        36     1.199     1.064  78.64   0
       364    163.7035    185.4962 300.2076920 +22.4904100      608.796     72.52093      1.283     3.37     4.901782     20.40844     68.66171        10     0.942     0.768 -29.25   0
       365    979.0917    181.7526 300.4628206 +22.7335492     18062.81     72.35533      1.320     2.28     5.129186     20.40844     2869.409        49     1.219     1.091 -86.39   0
       366    824.2411    175.8809 300.4164358 +22.6855131      3449.72     72.30005      1.239     2.11     4.778735     20.40844     576.6431        25     1.042     0.929  83.98   0
       367    928.0332    174.6276 300.4492064 +22.7162196     2806.326     72.35533      1.314     2.20     4.787227     20.40844     443.7177        25     1.081     0.957  85.28   0
       368    106.2873    176.0247 300.1929194 +22.4704793     231.0389     72.28162      1.143     3.82     4.917629     20.40844     33.77472         5     0.820     0.509 -36.17   0
       369    373.7870    171.0950 300.2776989 +22.5492332     703.6255     72.26318      1.368     2.91     4.829192     20.40844      76.8651        10     0.972     0.655  79.17   0
       370    126.7038    172.0618 300.2005503 +22.4754619     388.5984     72.42898      1.562     4.32     4.894581     20.40844     45.67537         7     1.024     0.637 -25.28   0
       371    297.9080    162.9016 300.2567524 +22.5241435     810.2338     72.52093      2.009     2.65     4.760753     20.40844     82.35943        10     0.895     0.716  24.29   0
       372    832.9756    161.3707 300.4238668 +22.6839554     254.9546     72.33691      1.608     4.13     4.779769     20.40844     25.99242         5     1.073     0.455  64.70   0
       373     63.9574    160.4557 300.1848167 +22.4533199     697.8521     72.33691      1.511     2.57     5.313835     20.40844     80.74835        10     0.897     0.686  72.44   0
       374    425.1060    158.5156 300.2977492 +22.5609946     1723.327     72.52093      1.293     2.19     4.997355     20.40844     256.8482        14     0.890     0.822 -83.61   0
       375    353.4348    158.8818 300.2753294 +22.5396270     514.2868     72.30005      1.369     2.46     4.768492     20.40844     88.81199         7     0.880     0.488 -83.15   0
       376    486.8612    157.2205 300.3173905 +22.5791220     386.4274     72.30005      1.438     4.15     4.888357     20.40844     38.32757         8     0.805     0.709  50.48   0
       377    168.6295    154.2828 300.2193500 +22.4829243     437.4878     72.35533      1.257     2.86     4.857338     20.40844     56.55254         7     0.883     0.529 -32.49   0
       378    713.6027    147.8031 300.3910629 +22.6443180     414.2349     72.11547      1.348     2.25     4.773018     20.40844     77.17036         7     0.797     0.604 -14.94   0
       379    561.1739    144.2406 300.3447381 +22.5976499     329.9901     72.39217      1.237     3.89     4.758475     20.40844     30.13819         5     0.963     0.451  46.54   0
       380    859.3613    142.2450 300.4382984 +22.6863533     464.5809     72.41058      1.323     3.38     4.784944     20.40844     48.66917         5     0.757     0.438  71.35   0
       381    989.3871    139.1273 300.4798626 +22.7243689     3585.307     72.35533      1.359     2.41     5.408841     20.40844     413.5439        33     1.354     1.064 -19.43   0
       382    199.1782    138.4173 300.2339937 +22.4875244     5880.847     72.31848      1.366     2.43     4.897537     20.40844     681.6293        32     1.222     1.016  68.79   0
       383    705.7766    138.5130 300.3916383 +22.6393041     467.8119     72.28162      1.524     2.81     4.765487     20.40844     49.18576         7     0.819     0.596  80.72   0
       384     50.2200    138.1065 300.1877984 +22.4427857     742.8297     72.26318      1.537     2.57     5.566263     20.40844     79.10841         8     0.817     0.620 -43.34   0
       385    170.8458    131.9162 300.2272946 +22.4771661     436.2162     72.31848      1.310     3.77     4.912611     20.40844     45.50437         8     0.910     0.711 -83.79   0
       386    214.7152    129.8130 300.2416155 +22.4897098     453.7827     72.28162      1.387     2.33     4.917636     20.40844     49.34453         6     0.706     0.564  42.22   0
       387    445.1899    123.7390 300.3152815 +22.5570192     6299.545     72.28162      1.275     2.18     5.022781     20.40844     956.4871        34     1.168     0.988  67.11   0
       388    488.2259    123.9688 300.3286025 +22.5699759     243.3059     72.33691      1.292     3.89     4.896069     20.40844     29.74202         5     0.838     0.517  39.21   0
       389    330.5757    123.5364 300.2796842 +22.5226247     690.7689     72.31848      1.172     2.23      4.91022     20.40844     95.59827        10     0.842     0.681  52.13   0
       390    502.0580    118.0615 300.3348248 +22.5724213     388.5941     72.39217      1.398     2.37     4.884705     20.40844     67.47006         7     0.854     0.657   5.36   0
       391    697.6805    113.6876 300.3971691 +22.6297430     953.5516     72.46577      1.485     3.30     4.744566     20.40844     140.8042        16     1.419     0.737 -77.54   0
       392    790.1980    112.0364 300.4265368 +22.6569643     509.6647     72.33691      1.422     2.88     4.770387     20.40844     65.02131        10     0.925     0.678  -5.80   0
       393      9.0134    110.6186 300.1839127 +22.4225414      306.789     72.30005      1.397     3.82     6.160151     20.40844      30.5928         5     1.249     0.335 -48.15   0
       394    138.1846    107.3319 300.2251164 +22.4603176     521.9612     72.33691      1.412     3.72     5.021054     20.40844     55.85864         9     1.043     0.666  83.59   0
       395    496.5412    106.0705 300.3369969 +22.5673231     500.0439     72.37375      1.464     1.86     4.898098     20.40844     73.19303         6     0.706     0.498  87.62   0
       396    573.6342    103.6485 300.3617859 +22.5897149     6161.401     72.37375      1.264     2.30     4.820732     20.40844     915.7677        33     1.181     0.979  83.49   0
       397    348.3959    102.5988 300.2920194 +22.5219489     1510.207     72.15243      1.374     2.34      4.97543     20.40844     192.8392        21     1.076     1.017  21.44   0
       398    614.6620    101.0052 300.3754209 +22.6012406     908.2064     72.31848      1.274     2.58     4.744092     20.40844     114.7547        12     0.886     0.777  13.50   0
       399    630.7977     96.9350 300.3817670 +22.6049020     744.7474     72.35533      1.586     2.44     4.741177     20.40844     89.56805        10     0.884     0.664  69.17   0
       400    900.2513     94.9234 300.4663999 +22.6849807     562.2701     72.33691      1.373     3.34      4.86952     20.40844     69.21166        10     1.024     0.655 -80.35   0
       401     97.2781     95.0508 300.2163862 +22.4445305     662.4081     72.33691      1.285     3.78      5.15275     20.40844     86.50743        11     1.093     0.789  42.61   0
       402    939.6757     93.6430 300.4791108 +22.6964097     266.9783     72.31848      1.050     2.81     5.007161     20.40844     55.28599         6     0.866     0.465  86.10   0
       403    669.0931     92.4574 300.3951489 +22.6150807     597.6744     72.39217      1.562     2.73     4.731372     20.40844     78.01629         9     0.965     0.613 -68.49   0
       404    155.4824     92.8421 300.2351927 +22.4613410     267.3102     72.30005      1.575     4.13     5.045663     20.40844     42.45653         5     0.917     0.532  40.40   0
       405    617.7711     88.5996 300.3804131 +22.5986054      2853.89     72.30005      1.274     2.22     4.744531     20.40844     414.2401        24     1.073     0.954  53.42   0
       406    258.6852     89.6346 300.2683202 +22.4913463     333.1411     72.30005      1.275     2.83     5.052619     20.40844     62.04884         8     0.925     0.577 -75.20   0
       407    632.9654     87.4145 300.3855302 +22.6028142     1026.757     72.33691      2.018     5.11     4.740661     20.40844     88.52441        13     1.503     0.640  60.78   0
       408    704.2557     80.0926 300.4101147 +22.6220525     1475.526     72.39217      1.269     2.48      4.73034     20.40844     208.9647        18     1.022     0.864  86.57   0
       409    864.7531     78.0772 300.4607947 +22.6695120     175.9401     72.33691      1.250     4.89     4.881339     20.40844     47.51323         7     1.151     0.736 -24.16   0
       410    388.0837     76.3504 300.3128808 +22.5262969     181.1168     72.31848      1.311     4.29     5.066159     20.40844     33.63976         5     1.088     0.481 -61.85   0
       411    781.8141     74.8278 300.4359926 +22.6437548     288.2461     72.35533      1.344     2.13     4.831334     20.40844     57.70988         5     0.672     0.662 -58.17   0
       412    642.2195     73.1713 300.3930324 +22.6014903      723.225     72.33691      1.267     2.67     4.738338     20.40844     94.33591        12     0.927     0.770 -70.35   0
       413    447.9657     72.8006 300.3326674 +22.5432134      1113.08     72.30005      1.425     2.42     4.986301     20.40844     152.2008        16     1.050     0.904  70.67   0
       414     20.5879     72.7325 300.1997956 +22.4151348     502.4944     72.33691      1.567     4.45     6.032422     20.40844     61.65476        11     1.234     0.728  74.70   0
       415    351.4545     70.9108 300.3032483 +22.5137613     821.8657     72.37375      1.322     2.55     4.995389     20.40844     112.6535        14     1.022     0.785  53.12   0
       416    733.6838     69.3864 300.4227571 +22.6277834     448.7744     72.30005      1.538     4.02      4.73034     20.40844      52.2509         9     1.046     0.742 -52.96   0
       417    994.6557     67.4481 300.5047577 +22.7053238     2332.361     72.37375      1.270     2.21     4.809737     20.40844     326.3645        22     1.033     0.959  69.41   0
       418    123.0513     60.9901 300.2354421 +22.4424746     3913.503     72.35533      1.425     2.54     5.332123     20.40844     468.9187        30     1.205     1.071  51.76   0
       419    691.1050     61.3158 300.4121070 +22.6127169     659.3099     72.52093      1.236     2.46      4.73034     20.40844     100.9115        11     0.842     0.792 -44.94   0
       420    253.8437     61.2291 300.2760267 +22.4817363     280.9236     72.37375      1.196     3.42     5.107307     20.40844     29.35239         5     0.981     0.344  44.15   0
       421    448.8720     58.1277 300.3377080 +22.5392683     265.9827     72.39217      1.041     3.01     4.939676     20.40844     54.24143         7     0.918     0.572  74.05   0
       422    545.4387     58.0403 300.3677983 +22.5681624     337.9177     72.41058      1.093     3.41     4.808469     20.40844     48.98019         5     0.782     0.431  67.85   0
       423    684.4661     53.3014 300.4126377 +22.6084251     808.8478     72.42898      1.181     3.26      4.73034     20.40844     112.4557        12     1.028     0.803  47.56   0
       424    239.0011     52.9656 300.2740909 +22.4749155     1149.473     72.30005      1.386     2.61      5.10994     20.40844     159.5731        17     1.038     0.974  39.22   0
       425    650.2073     52.5949 300.4021939 +22.5979660     306.4522     72.18936      1.018     2.26     4.736275     20.40844     45.67242         5     0.676     0.477 -13.80   0
       426    722.1060     48.1149 300.4260478 +22.6182011      765.804     72.52093      1.531     3.69      4.73034     20.40844     90.36736        12     1.250     0.625  67.55   0
       427    645.7351     47.9015 300.4023228 +22.5952777     499.9183     72.42898      1.199     2.23     4.737307     20.40844      75.3192         6     0.722     0.520  56.17   0
       428    742.2003     44.3814 300.4335204 +22.6231422     2389.237     72.26318      1.359     2.20     4.752337     20.40844     331.9484        24     1.079     0.992 -89.61   0
       429    447.7177     42.8492 300.3423033 +22.5345318     354.9735     72.35533      1.161     4.25     4.901253     20.40844     57.25313         7     0.882     0.585 -54.90   0
       430    125.6037     39.8837 300.2430795 +22.4371782     906.9276     72.26318      1.329     2.61      5.47627     20.40844     126.8499        14     0.937     0.863  74.72   0
       431    690.7090     37.0103 300.4198658 +22.6056097     867.9763     72.28162      1.302     2.69      4.73034     20.40844     119.7252        14     1.051     0.768  82.74   0
       432    397.4206     34.6117 300.3293215 +22.5171003     274.7217     72.31848      1.445     4.65     4.995691     20.40844     38.00039         8     1.130     0.544  42.04   0
       433    917.3141     37.7268 300.4902716 +22.6736331     597.1927     72.46577      1.285     2.89     5.078508     20.40844     100.5563        11     0.934     0.784 -55.17   0
       434    310.5836     31.2291 300.3034020 +22.4901169     194.5189     72.33691      1.168     3.49     5.127523     20.40844     30.43958         5     0.769     0.457 -72.67   0
       435    448.7603     29.2848 300.3470262 +22.5309458     347.0428     72.31848      1.311     3.66     4.857789     20.40844     44.92635         5     0.877     0.440 -46.07   0
       436    274.7721     26.3981 300.2938299 +22.4780006     462.8893     72.28162      1.483     3.94     5.197043     20.40844     51.69688         6     0.904     0.492  45.41   0
       437    543.2042     21.7641 300.3788660 +22.5570658     921.4137     72.35533      1.369     2.43     4.719742     20.40844     138.2397        14     0.918     0.860 -77.62   0
       438    678.7239     19.5104 300.4218063 +22.5969900     312.5634     72.50255      1.307     3.18      4.73034     20.40844     44.36306         5     0.733     0.476  15.88   0
       439    152.5274     19.2524 300.2581376 +22.4393211     443.2307     72.33691      1.221     2.74      5.63623     20.40844     69.23755         8     0.790     0.700  54.50   0
       440     96.4994   1012.4609 299.9180336 +22.7074411     2055.803     72.42898     10.530    15.22     39.04467     20.40844     62.98158        68     2.895     2.658   1.50  19
       441    337.0269     17.5584 300.3160605 +22.4941103     273.4345     72.37375      1.148     4.73     5.049474     20.40844     41.09822         7     0.932     0.682  63.35   0
       442     81.7657   1013.9303 299.9129776 +22.7034373     1403.855     72.33691      5.992    14.61     46.89508     20.40844     50.16647        41     3.276     1.812 -84.29  16
       443    154.9924   1023.3879 299.9326522 +22.7281375     939.8263     57.83912      8.814     9.91       23.729     20.40844     42.77932        23     3.130     0.874   4.69  27
       444     54.2342   1017.0316 299.9034149 +22.6960573     948.0792     72.35533      7.782    10.88     62.99479     20.40844     42.63329        17     2.829     1.166  -4.89  19
       445    604.0807   1010.8406 300.0764443 +22.8593327     6704.902     72.30005      1.610     3.16     3.871306     20.40844     551.6711        40     1.334     1.256  58.94   0
       446     75.8087   1011.7573 299.9118343 +22.7010257     811.4019     72.35533      2.857     3.64     48.95463     20.40844      40.5801         5     1.581     0.241  57.85   1
       447    118.2353   1007.5638 299.9263816 +22.7125653     1080.817     72.41058      8.978     9.75     31.23636     20.40844     35.02847        16     2.429     1.093 -47.96  24
       448     28.4301    993.2401 299.9031449 +22.6814910     1631.631     72.33691      5.214    15.34     57.79054     20.40844     52.93047        49     3.870     1.690 -18.86   3
       449    194.8528   1004.9456 299.9510455 +22.7348211     749.8288     72.37375      1.932     4.57     12.05118     20.40844     64.27077        13     1.391     0.942 -22.92   1
