#   1 NUMBER                 Running object number                                     
#   2 X_IMAGE                Object position along x                                    [pixel]
#   3 Y_IMAGE                Object position along y                                    [pixel]
#   4 ALPHA_J2000            Right ascension of barycenter (J2000)                      [deg]
#   5 DELTA_J2000            Declination of barycenter (J2000)                          [deg]
#   6 FLUX_APER              Flux vector within fixed circular aperture(s)              [count]
#   7 FLUXERR_APER           RMS error vector for aperture flux(es)                     [count]
#   8 FLUX_RADIUS            Fraction-of-light radii                                    [pixel]
#   9 FWHM_IMAGE             FWHM assuming a gaussian core                              [pixel]
#  10 BACKGROUND             Background at centroid position                            [count]
#  11 THRESHOLD              Detection threshold above background                       [count]
#  12 FLUX_MAX               Peak flux above background                                 [count]
#  13 ISOAREA_IMAGE          Isophotal area above Analysis threshold                    [pixel**2]
#  14 A_IMAGE                Profile RMS along major axis                               [pixel]
#  15 B_IMAGE                Profile RMS along minor axis                               [pixel]
#  16 THETA_IMAGE            Position angle (CCW/x)                                     [deg]
#  17 FLAGS                  Extraction flags                                          
         1    699.4657     16.4831 300.3929462 +22.6015909     652.9402     72.23515      1.327     2.32     5.358763     20.34865     112.0432        14     0.983     0.833 -64.75   0
         2    408.9749     13.8695 300.3032889 +22.5139131     760.8849       72.125      1.343     2.36     5.483786     20.34865     117.8521         9     0.894     0.622 -55.70   0
         3    748.1525      4.6610 300.4119563 +22.6127530     690.0768     70.69627      1.562     3.19     5.459599     20.34865     73.49294        12     0.927     0.881  11.97  16
         4    180.1708      3.5843 300.2354159 +22.4424549     3680.451     67.09998      1.616     3.10     5.380826     20.34865     403.3286        34     1.339     1.231  29.34  24
         5    603.0627      1.2899 300.3678210 +22.5683784     196.3176     55.96731      1.094     3.90     5.324908     20.34865     39.51554         6     1.057     0.412 -11.32  24
         6    506.1119      1.4769 300.3375547 +22.5394216     254.9754     57.11559      1.106     3.73     5.413063     20.34865     35.93698         6     0.801     0.498   3.96  24
         7    241.5224   1000.1851 299.9309701 +22.7469691     2329.669     72.14337      4.314    16.73     59.38706     20.34865     81.97646        80     3.450     2.254  -2.24   3
         8     95.0911   1011.1833 299.8818564 +22.7061799     4604.771     72.05148     18.898   108.71     86.37782     20.34865     150.0437      2483    22.499    17.033  60.51  27
         9     86.6777    950.9681 299.8988273 +22.6863906     7199.337     72.10663     26.364    97.85     27.90002     20.34865     1324.177      3347    20.182    13.162 -20.80  19
        10     85.5059    916.5522 299.9096554 +22.6761706     4452.343     72.14337     22.152    60.42     9.531713     20.34865     91.62506      1226    13.992     7.326 -25.88   3
        11    364.6904    998.5295 299.9698331 +22.7834455     437.8383     72.29015      1.674     5.36     4.471956     20.34865     44.74585         9     1.482     0.801 -83.28   0
        12    110.1893    981.9891 299.8960468 +22.7023411     1018.091     72.01469      3.225     4.40     63.08432     20.34865     37.17654         5     1.407     0.392  89.94   3
        13    182.4585    992.3986 299.9151323 +22.7270134     2002.641     72.08825      8.319    13.76     75.81983     20.34865     61.06415        42     2.629     2.004 -78.10   3
        14    228.1617    984.3654 299.9319602 +22.7384233     5408.004     72.18009      9.941    40.95     60.68504     20.34865     99.46593       497     8.961     5.194 -55.56  19
        15    176.2998    975.8430 299.9186023 +22.7204178     1992.369     72.10663      5.743    20.06     62.25533     20.34865     50.18126        67     4.659     2.399  75.97   3
        16    180.7485    998.0253 299.9127702 +22.7281137     2760.359     72.14337      5.084    16.14     81.31091     20.34865     67.92448        98     3.616     2.426  15.91   3
        17    935.2197    971.0281 300.1565756 +22.9465892     880.0425       72.125      2.357     7.93     4.300757     20.34865      41.3945        16     1.479     1.315  38.13   0
        18    555.6103    991.5485 300.0315513 +22.8387014     2322.326       72.125      1.989     4.86     4.033552     20.34865     135.0707        32     1.451     1.368  10.48   0
        19      4.3158   1017.1736 299.8516941 +22.6806494     3647.872     69.63879     22.287    63.91      -34.749     20.34865     75.33371       462    14.889     7.611 -68.67  27
        20    152.8491    955.3492 299.9179756 +22.7075040      2079.23     72.16174     12.861    17.92     44.66454     20.34865     52.22099        73     3.614     2.605   2.84   3
        21    660.4496    953.8386 300.0764838 +22.8593088     6798.472     72.14337      1.951     4.43     4.133957     20.34865     388.7677        48     1.540     1.446  32.49   0
        22    172.6706    950.1343 299.9258355 +22.7119562     878.8329     72.16174      5.124     9.28     39.59982     20.34865     37.70782        17     2.331     1.032  68.48   0
        23    254.3867    996.9130 299.9360363 +22.7498904      2841.41     72.06986      4.983    18.55     44.30898     20.34865     72.00779       125     3.679     3.043 -26.41   3
        24    252.0970    947.6553 299.9513462 +22.7350756      429.528      72.2168      1.602     5.80     19.58274     20.34865     56.73091         9     1.414     0.669   9.12   0
        25    568.7953    944.4913 300.0509658 +22.8291487     1599.289     72.03309      1.923     5.07     4.065864     20.34865     103.3088        26     1.407     1.265 -16.10   0
        26    462.5543    941.1239 300.0189721 +22.7963264     1137.991     72.10663      1.993     5.34     4.391761     20.34865     77.03837        24     1.429     1.232 -47.22   0
        27    393.3529    938.9783 299.9981254 +22.7749575     6675.445     72.16174      1.938     4.29     4.605935     20.34865     472.1416        44     1.481     1.456   0.24   0
        28      4.2507   1002.0288 299.8566006 +22.6762888     2788.434      69.4864      9.730    30.37    -28.29702     20.34865       61.568       179     6.906     3.707  16.75  27
        29    642.2024    986.7281 300.0600984 +22.8632801     8817.646     72.06986      2.059     5.25     4.091157     20.34865     519.0579        51     1.612     1.519  -5.72   3
        30    647.5971    984.5615 300.0624844 +22.8642755     9478.164     72.16174      2.010     4.70     4.101374     20.34865     563.7322        51     1.558     1.526 -12.43   3
        31    426.3190    925.8991 300.0126417 +22.7810912     375.4919     72.25348      1.310     4.38     4.560951     20.34865     45.25521         9     1.061     0.627 -88.11   0
        32    939.8906    918.0503 300.1752657 +22.9327700     2206.509       72.125      2.054     4.97     4.280169     20.34865     123.9381        31     1.591     1.200  16.92   0
        33    589.8322    915.2455 300.0670315 +22.8270605      327.869     72.18009      1.477     4.83     4.121722     20.34865     38.59271         8     1.005     0.809 -47.51   0
        34    438.2487    913.8427 300.0202768 +22.7812089     426.2083     72.14337      1.764     6.84     4.548155     20.34865     26.54074         9     1.238     1.060 -64.21   0
        35      2.4709    992.2036 299.8592435 +22.6729382     2343.934     62.22298     17.880    32.37    -26.03748     20.34865     70.75646       193     9.616     3.025 -82.01  27
        36    208.5635    986.2477 299.9252520 +22.7330827     4017.631     72.16174      7.979    31.05     67.18037     20.34865     87.73585       267     6.349     4.215 -83.49  19
        37    728.4226    906.8334 300.1129591 +22.8661860     807.6199       72.125      2.352     6.46     4.261827     20.34865     48.12927        17     1.332     1.123  73.17   0
        38    763.2409    901.0578 300.1256926 +22.8749618     1145.907     72.10663      1.919     4.94     4.297763     20.34865       79.741        21     1.352     1.109  -2.36   0
        39    540.6688    902.5063 300.0558589 +22.8086648     277.4892     72.25348      1.316     4.77     4.109483     20.34865     36.98682         6     1.295     0.498  -2.10   0
        40    785.5999    894.5875 300.1347685 +22.8798036     11363.64     71.94106      1.860     4.18     4.325337     20.34865     699.9669        50     1.459     1.431  10.24   0
        41    186.2985   1004.5534 299.9123725 +22.7316511     1062.662     72.16174      3.176    10.36     87.09663     20.34865     49.53651        22     1.966     1.523 -62.23   3
        42    246.9613    973.6623 299.9412896 +22.7409941     8140.243       72.125     10.403    31.50     37.55672     20.34865      169.493       838    11.222     5.370  63.14  19
        43    977.7652    894.3365 300.1947973 +22.9373023     277.5705       72.125      1.362     3.87     4.117146     20.34865     31.50987         5     1.033     0.415  84.91   0
        44    975.1949    894.0364 300.1940927 +22.9364462      388.703     72.14337      1.286     3.61     4.120855     20.34865      38.7085         5     1.411     0.266 -77.79   0
        45    830.5775    894.5177 300.1488178 +22.8932605     415.8502     72.08825      1.851     6.65     4.271862     20.34865     31.97314        10     1.205     1.030 -11.49   0
        46     97.0903    886.2562 299.9231079 +22.6709590     1217.517     72.18009      6.342     6.50     8.336889     20.34865     59.77514        20     1.622     1.137 -13.07   0
        47    490.6112    882.7842 300.0466815 +22.7879959     503.6745     72.06986      1.783     5.72     4.546502     20.34865     45.50412        10     1.216     0.913  49.93   0
        48    837.5065    882.2807 300.1549583 +22.8918216     484.8655     72.27182      1.862     5.36     4.217715     20.34865     36.93967         7     1.235     0.656 -13.04   0
        49    794.2299    876.7891 300.1432475 +22.8772776     1454.731       72.125      1.818     4.19     4.332603     20.34865     105.5728        25     1.303     1.205  -7.14   0
        50     86.9768    878.2529 299.9225660 +22.6656292     657.8719     72.14337      3.667     7.38     7.421948     20.34865     36.06071         9     1.696     0.900 -20.43   0
        51    976.1372    875.8376 300.2003051 +22.9314995     390.6262     72.14337      1.516     4.06     4.027952     20.34865     39.20543         6     1.242     0.379 -61.89   0
        52    646.5107    873.4177 300.0982943 +22.8320413     460.5402     72.05148      1.896     5.81     4.148832     20.34865      40.8371         8     1.089     0.957  13.80   0
        53    832.0873    870.1844 300.1572016 +22.8867234     1013.675     72.06986      2.378     5.53     4.211638     20.34865     57.48083        23     1.417     1.250 -80.15   0
        54    883.6205    860.4249 300.1764495 +22.8993584     527.7234     72.10663      2.917     6.19     4.083735     20.34865     41.46809         6     1.257     0.856  33.42   2
        55    731.7578    860.6453 300.1290184 +22.8539214     647.4238     72.19845      1.681     6.35     4.159976     20.34865     80.24519        15     1.301     0.875  34.14   0
        56    743.1699    857.4696 300.1336089 +22.8564291     538.8835       72.125      1.786     5.92     4.189059     20.34865     45.26537        13     1.275     0.985  -1.93   0
        57    444.6022    856.5987 300.0408689 +22.7666854       4233.8     71.90421      1.801     4.21     4.607032     20.34865     307.2161        34     1.356     1.294  20.37   0
        58    488.4727    844.5382 300.0584509 +22.7763767     299.7778     72.16174      1.587     4.18     4.586459     20.34865     33.87526         5     1.226     0.406  55.80   0
        59    741.9986    987.1546 300.0910652 +22.8933179     599.1791       72.125      1.988     7.05     4.154666     20.34865      42.2404        13     1.201     1.161 -63.43   0
        60    170.7826    842.3047 299.9603107 +22.6804625     824.3616     72.05148      2.297     3.44     6.893394     20.34865     66.75884         9     0.976     0.743  70.42   2
        61    146.9779    839.0167 299.9539771 +22.6723781     1559.486     72.10663      1.956     4.63     6.768862     20.34865     125.7448        27     1.410     1.315  29.45   0
        62   1018.6999    828.7478 300.2289012 +22.9307148     1987.656      72.2168      1.968     4.79     4.186024     20.34865     109.5074        30     1.401     1.347 -68.27  16
        63    973.0490    827.2677 300.2151340 +22.9166180     1953.046       72.125      1.889     4.58     4.289452     20.34865     124.3877        27     1.422     1.243 -47.62   0
        64    678.1906    827.7101 300.1230288 +22.8284106     431.9589     72.05148      1.649     4.65     4.306378     20.34865     36.27021         8     0.975     0.630   7.02   0
        65    179.4039    820.5966 299.9700487 +22.6768214     531.9257     71.92263      1.877     5.76     5.623415     20.34865     44.20948        11     1.181     1.011 -45.14   0
        66    756.8694    820.5901 300.1498706 +22.8499416     588.0613     72.10663      1.679     6.81     4.306921     20.34865     48.08614        13     1.292     1.018 -50.26   0
        67    624.5964    814.8264 300.1105149 +22.8086493     4826.881     72.08825      1.682     3.74     4.524336     20.34865     402.1312        34     1.322     1.231  32.03   0
        68    115.0541    815.6396 299.9516501 +22.6560954     357.5459       72.125      1.446     4.23     5.592696     20.34865     35.95362         6     0.869     0.594  87.22   0
        69    884.6913    814.8688 300.1915953 +22.8865909     712.7122     72.25348      0.613     1.03      4.47915     20.34865     399.8488         5     0.535     0.334  -6.65   0
        70    427.0059    812.1653 300.0498355 +22.7486562     528.5128       72.125      1.566     4.40     4.382163     20.34865     60.23106        14     1.328     0.818   7.90   0
        71    174.6632    808.4814 299.9725124 +22.6719239     1358.563     72.23515      1.928     4.64     4.951936     20.34865     111.0224        26     1.452     1.228  15.51   0
        72    645.0024    807.5377 300.1192433 +22.8126718     593.8303       72.125      1.492     4.34     4.502202     20.34865     77.55544        12     1.090     0.833   3.03   0
        73    194.6112    806.1882 299.9794618 +22.6772495     312.4688     72.01469      1.242     2.07     4.792879     20.34865     46.89104         5     0.693     0.448 -68.61   0
        74    561.9061    797.9943 300.0964543 +22.7850271     233.1143     72.01469      1.485     5.98     4.635128     20.34865     28.50813         7     1.064     0.945  58.30   0
        75   1017.6758    794.9639 300.2395647 +22.9206985     1124.743     72.08825      1.895     5.25     4.408313     20.34865     71.05734        23     1.367     1.235  22.27  16
        76    800.6661    794.6210 300.1719694 +22.8556033     4317.144     72.10663      1.710     3.91      4.35805     20.34865     332.2304        38     1.351     1.280  13.05   0
        77    209.0994    788.9176 299.9895816 +22.6766402     558.4982     72.29015      1.877     4.65     4.566237     20.34865     47.50305         7     0.931     0.722   4.86   0
        78    517.7402    787.3781 300.0861476 +22.7687409     692.9273     72.10663      1.639     4.94     4.539819     20.34865     68.54507        12     1.058     0.924 -66.65   0
        79    163.8687    784.9124 299.9768161 +22.6619244     1108.038     72.27182      2.069     4.79     4.555011     20.34865     107.0907        24     1.442     1.334  40.82   0
        80    313.6916    777.0073 300.0259928 +22.7045894     54075.15     72.03309      1.730     3.58     4.492959     20.34865     4484.275       103     1.538     1.474  12.79   0
        81    579.0625    780.3501 300.1075343 +22.7851028     499.9346     72.18009      1.604     4.36     4.668345     20.34865     51.46809        10     0.989     0.841  48.90   0
        82    984.4396    775.7878 300.2354244 +22.9052346     849.2057       72.125      1.869     5.07     4.471265     20.34865     68.86781        16     1.301     1.061  24.14   0
        83    571.6013    776.2597 300.1065393 +22.7816921     1694.979     72.08825      1.659     3.44     4.665122     20.34865     144.8067        21     1.146     1.081 -19.52   0
        84    242.2512    775.3073 300.0043175 +22.6826778     513.0665     72.19845      1.745     4.44     4.548055     20.34865     40.55106         7     0.912     0.615 -34.55   0
        85    600.4108    772.2701 300.1168119 +22.7891806     815.9223     72.10663      1.648     4.05     4.688881     20.34865     83.39545        17     1.149     1.069 -21.89   0
        86      1.1251    771.4526 299.9305985 +22.6092407       251.27     54.91574      1.034     3.21     5.299687     20.34865     64.75484         5     1.073     0.279 -80.11  24
        87    611.5323    770.5882 300.1208239 +22.7920305     721.3718       72.125      1.713     4.00     4.686981     20.34865     55.52199        14     1.126     0.845  38.30   0
        88    717.0853    766.7446 300.1549704 +22.8225551     470.3546     72.19845      1.577     5.31     4.344172     20.34865     44.09368        11     1.133     0.912 -64.32   0
        89    754.3894    757.3113 300.1696665 +22.8310215     903.1462     72.06986      1.757     4.32     4.280785     20.34865     77.02215        16     1.085     1.036  44.87   0
        90    363.4628    754.2700 300.0488723 +22.7129870     31707.37     72.16174      1.686     3.34     4.363202     20.34865     2965.567        73     1.445     1.387  14.68   0
        91    377.7047    754.7697 300.0531429 +22.7174004     2069.316     72.05148      1.661     3.41      4.32525     20.34865     202.4132        24     1.183     1.133  55.56   0
        92    253.2318    752.9963 300.0149844 +22.6795686     296.4021     72.08825      1.833     3.90     4.499355     20.34865     32.64221         5     0.852     0.512  40.85   0
        93    886.6003    750.3387 300.2131667 +22.8686206     2813.656     72.06986      1.761     3.81     4.359254     20.34865     233.2363        29     1.343     1.224 -33.39   0
        94    374.5302    748.5735 300.0541684 +22.7146701     721.8763       72.125      2.312     5.33     4.312667     20.34865     62.13483        17     1.400     0.962  53.26   1
        95    644.3998    746.1442 300.1390104 +22.7948595      894.929     72.03309      1.555     3.80     4.634466     20.34865     84.83163        18     1.189     0.991  83.27   0
        96    245.7463    746.0623 300.0149091 +22.6753340     910.4147     72.18009      1.769     4.51     4.508373     20.34865     75.81887        16     1.276     1.050 -38.99   0
        97    480.6302    746.2685 300.0879511 +22.7458145     500.4462     72.10663      1.731     4.73     4.418821     20.34865     40.48051         8     1.040     0.611  25.09   0
        98    539.0596    744.1269 300.1068453 +22.7627123     246.2924     72.16174      1.325     5.07     4.661025     20.34865     35.23503         7     1.068     0.680  66.81   0
        99    491.5912    741.3174 300.0929737 +22.7476784     879.7068     72.06986      1.648     3.30     4.465451     20.34865     102.2494        15     1.049     0.944 -58.73   0
       100     50.7057    741.5380 299.9557291 +22.6155357     549.3147      72.2168      1.684     4.27     4.981314     20.34865     57.92444         8     1.195     0.604 -14.43   0
       101    892.7988    738.2726 300.2190220 +22.8670096     450.9453     72.01469      1.610     3.70     4.324831     20.34865     52.41697         8     0.952     0.704 -35.65   0
       102    394.2067    737.7241 300.0638192 +22.7174547     321.4189     72.05148      1.223     2.44     4.230809     20.34865     48.02898         6     0.708     0.611  50.09   0
       103    646.0411    735.7347 300.1429049 +22.7923615     298.8376     72.08825      1.344     3.85     4.649623     20.34865     36.82302         6     0.925     0.459 -38.56   0
       104    437.2267    735.8265 300.0778292 +22.7298063     493.7602     72.08825      1.688     5.14      4.26178     20.34865      47.4788        12     1.188     0.843  20.32   0
       105     79.7601    735.4014 299.9667546 +22.6224913     458.3211     72.14337      1.641     3.74     4.731319     20.34865     50.16456         7     0.927     0.734 -50.34   0
       106    870.7026    732.8184 300.2139013 +22.8588246     562.4771     72.05148      2.017     6.60     4.271358     20.34865     42.39899        12     1.260     0.970 -25.24   0
       107    243.7623    730.3824 300.0193872 +22.6702395     608.5024       72.125      1.758     6.25     4.559775     20.34865     43.51151        11     1.287     0.852  83.26   0
       108    536.7209    719.1675 300.1142278 +22.7548442      601.482     72.10663      1.490     2.93     4.772241     20.34865     67.55395        10     0.914     0.761 -57.02   0
       109    445.9181    718.2389 300.0862505 +22.7273622     407.4869     72.08825      1.552     5.14     4.469686     20.34865      33.8183         9     1.217     0.613  55.99   0
       110    558.7065    716.6276 300.1219019 +22.7607036     1323.269     72.03309      1.602     3.51     4.805459     20.34865     150.7694        22     1.210     1.115   7.17   0
       111    953.0486    715.7493 300.2451409 +22.8785788     4540.767     72.16174      1.732     3.82     4.647593     20.34865     316.9545        35     1.358     1.286 -52.51   0
       112    941.2266    707.1083 300.2442598 +22.8725553     1719.853     72.06986      1.702     3.88     4.728731     20.34865     135.3074        26     1.317     1.218 -68.73   0
       113    304.7470    700.6779 300.0480135 +22.6800003     796.6021     72.16174      1.444     2.74     4.623617     20.34865     116.1662        14     0.981     0.875 -78.53   0
       114    767.9106    698.4081 300.1930245 +22.8181491     2662.521     72.03309      1.676     3.31     4.523426     20.34865     227.9241        33     1.543     1.147   2.18   0
       115    972.6167    697.3007 300.2572426 +22.8791351     1690.883     72.03309      1.825     3.82     4.817539     20.34865     133.9787        26     1.334     1.187  30.04   0
       116    850.1626    683.9647 300.2233693 +22.8386339     598.6059     72.19845      1.606     5.13     4.692629     20.34865     56.10322        13     1.150     0.930  42.38   0
       117    153.0584    684.4240 300.0061076 +22.6298504     565.3353       72.125      1.638     4.55     5.015485     20.34865     71.20183        12     1.203     0.937  46.08   0
       118    886.2857    675.3257 300.2374448 +22.8469687       149079     72.23515      1.641     3.29     4.847008     20.34865     13332.87       161     1.531     1.481 -37.55   0
       119    738.6575    675.6948 300.1912835 +22.8028607     820.3834     72.19845      1.593     3.16     4.545023     20.34865     99.81713        13     1.019     0.831  24.16   0
       120    918.8580    668.2526 300.2499053 +22.8546891     460.6524     72.18009      1.443     4.35     4.991124     20.34865     48.07162         8     0.833     0.686  50.45   0
       121    572.4063    663.9702 300.1432788 +22.7496855     1692.781       72.125      1.479     3.20     5.034999     20.34865     192.8345        20     1.145     0.991  48.84   0
       122    753.7834    661.4305 300.2006339 +22.8032928      9570.57     72.10663      1.549     3.02     4.647363     20.34865     996.7351        47     1.272     1.249 -54.73   0
       123    255.2089    656.3176 300.0470116 +22.6524151     4827.621     72.06986      1.561     3.08     4.995103     20.34865     542.7189        34     1.248     1.219  52.73   0
       124    337.0789    654.4644 300.0730891 +22.6764275     1261.015      72.2168      1.586     3.34     4.833778     20.34865     130.8425        17     1.191     0.889   8.24   0
       125    213.4126    652.1214 300.0353724 +22.6386788     435.8094     72.10663      1.540     4.62     5.086508     20.34865     45.71191         9     1.255     0.483  85.25   0
       126    545.5508    650.0171 300.1394455 +22.7376310     760.5858     72.16174      1.460     2.91     5.081592     20.34865     97.96581        12     1.023     0.815 -81.99   0
       127    537.2467    642.1302 300.1394208 +22.7328775     3229.867     72.10663      1.428     2.97      5.07892     20.34865     368.4188        26     1.119     1.082  66.50   0
       128    527.5180    635.8748 300.1384223 +22.7281657     1425.525     72.23515      1.476     2.88     5.074188     20.34865     175.2247        21     1.186     1.017  47.24   0
       129    921.2413    634.2507 300.2616954 +22.8456289     477.2214       72.125      1.548     4.44      4.96798     20.34865     40.71989         7     0.867     0.648 -24.32   0
       130    190.9253    632.2914 300.0348191 +22.6262449     550.1054     72.27182      1.520     3.33     5.093481     20.34865     63.69963        12     1.030     0.775 -54.69   0
       131    205.1362    630.3657 300.0398648 +22.6299532     633.5293       72.125      1.512     3.69     5.092425     20.34865     70.03991        16     1.181     0.968  34.83   0
       132    230.5230    627.3839 300.0487302 +22.6367089      497.159       72.125      1.561     3.99     5.080086     20.34865     60.64037        11     1.223     0.749   7.86   0
       133    974.2940    627.2205 300.2805348 +22.8594910     451.7508     72.05148      1.580     5.03     5.018425     20.34865      49.5123         8     1.021     0.879 -88.51   0
       134    261.8231    626.9808 300.0585987 +22.6459772     370.7125       72.125      1.631     4.96     5.021644     20.34865     47.41551         9     1.092     0.638  61.74   0
       135    551.1536    626.0038 300.1489913 +22.7324126     398.2159     72.10663      1.390     3.86     5.090867     20.34865     53.03273         9     0.915     0.762  70.15   0
       136    452.1948    625.6574 300.1182828 +22.7026596     1866.709     72.08825      1.524     2.80     4.991557     20.34865     222.1604        19     1.095     0.985   4.53   0
       137    106.1258    620.3176 300.0123381 +22.5973802     20135.79     72.23515      1.776     3.46     5.135359     20.34865     2108.431        60     1.476     1.408  20.26   0
       138     27.4097    622.3045 299.9872231 +22.5743426     680.6855     72.05148      1.725     4.04     5.439872     20.34865     65.68197        11     1.117     0.791 -31.68   0
       139    537.2422    620.8340 300.1463370 +22.7267594      1078.55     72.18009      1.443     2.87     5.093969     20.34865     138.3546        16     1.123     0.832 -31.50   0
       140    572.5606    620.0994 300.1575782 +22.7371304     377.4922       72.125      1.417     3.29     5.073003     20.34865     44.18286         7     1.007     0.542  13.51   0
       141    955.1990    607.5473 300.2809661 +22.8481186      1100.12     72.08825      1.596     3.14     4.993791     20.34865     101.7913        17     1.085     0.955  38.37   0
       142     52.3270    604.8196 300.0006466 +22.5767990     1521.298       72.125      1.958     5.32     5.355771     20.34865     118.8889        28     1.584     1.231 -80.97   0
       143    822.2877    605.2475 300.2402473 +22.8076631     567.4626     72.10663      1.505     4.53     4.787189     20.34865     55.59955        12     1.231     0.792  -6.15   0
       144    500.2287    601.5234 300.1410802 +22.7101224     557.3947     72.10663      1.561     3.10     5.081432     20.34865     62.86989        10     0.964     0.745  40.87   0
       145    894.8947    599.8163 300.2646605 +22.8278421      943.154     72.05148      2.183     5.23     4.872963     20.34865     69.66575        16     1.286     0.955  36.42   0
       146    293.8199    600.4440 300.0771733 +22.6479514      223.328     72.16174      1.368     2.48     5.001695     20.34865      42.7628         5     0.702     0.472 -17.43   0
       147    639.7637    598.3197 300.1855925 +22.7510063     399.4062     72.06986      1.543     4.65      5.01251     20.34865     41.27754         6     1.163     0.528 -30.14   0
       148    457.3873    593.9313 300.1302042 +22.6951044     818.5266     72.14337      1.605     3.59     5.027621     20.34865      90.2753        15     1.148     0.907  44.67   0
       149    605.2020    592.4402 300.1767320 +22.7389638     577.8035       72.125      1.521     3.18     5.059804     20.34865     63.38188         9     0.876     0.705 -72.33   0
       150    652.4026    590.8367 300.1919618 +22.7526423     455.2339     72.14337      1.415     2.67     4.996905     20.34865     65.98697         8     0.927     0.565  21.44   0
       151    622.9962    590.8858 300.1827817 +22.7438477     584.9548     72.05148      1.392     3.18     5.037041     20.34865     60.12548         9     0.805     0.747  29.55   0
       152    501.5289    589.6210 300.1453508 +22.7070933     807.7261       72.125      1.362     2.62     5.084443     20.34865     112.1622        14     1.016     0.793  35.31   0
       153    688.5353    589.1661 300.2037664 +22.7629851     235.6992       72.125      1.626     3.55     4.925769     20.34865     37.84747         5     1.000     0.363   5.12   0
       154    935.3093    585.3671 300.2819636 +22.8357875     3415.784     72.06986      1.635     3.07      4.97231     20.34865     339.6692        34     1.339     1.221 -19.92   0
       155    467.1111    585.1669 300.1360785 +22.6955010     1793.187     72.08825      1.454     3.10     5.044947     20.34865     169.3028        23     1.190     1.027  34.00   0
       156    832.0943    582.5076 300.2506918 +22.8040634     407.0246     72.29015      1.483     4.13     4.802639     20.34865     36.50233        10     0.990     0.760  64.85   0
       157    817.6750    581.1585 300.2466326 +22.7993581     218.8196     72.10663      1.223     3.70     4.804569     20.34865     41.47041         5     1.075     0.457 -83.92   0
       158    442.4449    580.5477 300.1298978 +22.6867830     324.1483     72.14337      1.194     2.95     5.001634     20.34865     54.15223         5     0.740     0.459 -19.37   0
       159     29.0153    578.4896 300.0019513 +22.5622527         5021     72.05148      1.786     3.37     5.463269     20.34865     564.6981        42     1.469     1.347  34.74   0
       160    496.5048    576.1979 300.1481453 +22.7017324     382.2757     72.03309      1.444     3.02     5.082346     20.34865     52.11799         7     0.936     0.472 -78.25   0
       161    974.9946    575.5365 300.2975411 +22.8448408     441.3375     72.08825      1.913     5.60     4.990533     20.34865     35.09938         8     1.112     0.794  -9.67   0
       162    330.4603    571.7509 300.0978939 +22.6506960     9261.021     72.18009      1.526     2.86     4.896153     20.34865      1176.56        40     1.254     1.197  67.02   0
       163    452.9320    568.9117 300.1369421 +22.6865837     9055.588     72.27182      1.459     2.88     5.020691     20.34865     1046.478        41     1.204     1.176  19.74   0
       164    699.3691    565.4405 300.2148488 +22.7594122     296.6892     72.16174      1.277     3.13     4.906288     20.34865     43.19318         6     0.855     0.482 -89.18   0
       165    864.6917    562.9637 300.2672070 +22.8082054     1893.829     72.06986      1.543     3.17      4.81664     20.34865     185.4761        28     1.324     1.139 -72.20   0
       166    949.3030    560.4324 300.2944285 +22.8328075     12670.11     72.10663      1.618     3.18     4.973232     20.34865     1211.045        52     1.353     1.320 -83.90   0
       167    513.4849    558.4900 300.1591845 +22.7017335     11730.26     72.29015      1.450     2.55      5.09943     20.34865     1503.663        42     1.209     1.158  48.34   0
       168    240.8547    553.8726 300.0758175 +22.6187042     1384.666       72.125      1.574     3.26     5.084574     20.34865     130.3231        19     1.134     1.049 -42.09   0
       169    683.1240    554.3848 300.2133751 +22.7513698      489.015       72.125      1.356     2.24     4.945367     20.34865     82.41383         7     0.706     0.630  67.69   0
       170    162.0155    553.5787 300.0513902 +22.5949848     89.12615     72.10663      1.276     4.20      5.24141     20.34865     24.07026         5     0.782     0.644 -87.38   0
       171    399.0371    553.0463 300.1253137 +22.6658770     354.2017     72.16173      1.453     2.61     4.924094     20.34865     48.75597         5     0.656     0.537  -0.70   0
       172    488.1798    551.3091 300.1536348 +22.6920891     390.7971     72.05148      1.327     3.70     5.076149     20.34865     58.59464        10     1.080     0.758 -43.34   0
       173    445.1954    546.6418 300.1417646 +22.6778692     4446.882     72.14337      1.419     2.67     5.006831     20.34865     534.0249        28     1.174     1.059  50.16   0
       174    787.9215    547.0312 300.2484364 +22.7806396     760.0908     72.10663      1.309     2.89     4.828904     20.34865     97.00062        12     1.032     0.706 -15.15   0
       175    423.5197    545.0612 300.1355288 +22.6709202     1451.969     72.19845      1.458     3.41     4.970448     20.34865     194.1469        19     1.086     0.993  20.18   0
       176    177.7983    544.5995 300.0592143 +22.5971391     684.4681     71.90421      1.506     3.68     5.225368     20.34865     79.96763        10     1.078     0.666 -11.58   0
       177    865.0595    542.4041 300.2739983 +22.8024051     1565.724     72.08825      1.529     3.19     4.830302     20.34865     153.2045        19     1.115     0.988 -14.97   0
       178    111.9267    541.9090 300.0396037 +22.5766175     369.0376     72.29015      1.865     3.64     5.342362     20.34865     37.72557         5     0.646     0.591  -5.67   0
       179    385.6416    540.5957 300.1251863 +22.6582871     393.0673     72.14337      1.440     3.35     4.897308     20.34865     45.30957         5     1.044     0.311 -68.53   0
       180    745.5537    539.2137 300.2377638 +22.7657060     926.0501     72.14337      1.531     3.08     4.830838     20.34865     105.8712        16     1.071     0.947 -77.52   0
       181    561.8290    534.2491 300.1821153 +22.7092526     206722.2     72.14337      1.421     2.64     5.165719     20.34865     24156.41       196     1.476     1.384 -19.24   0
       182    950.1694    536.0747 300.3026087 +22.8260631     368.2292     72.14337      1.523     3.61     4.968622     20.34865     37.06607         5     0.978     0.384  31.41   0
       183    247.8978    534.0353 300.0844497 +22.6151202     3610.033       72.125      1.558     3.09      5.06873     20.34865     371.2383        31     1.230     1.189  36.86   0
       184    813.6432    530.6702 300.2617708 +22.7836382     602.1949     72.08825      1.790     4.03     4.837392     20.34865     50.72079         9     0.923     0.837 -31.66   0
       185    452.4031    514.7319 300.1543698 +22.6708632     2768.455     72.10663      1.564     2.54     5.001209     20.34865     335.0569        29     1.395     1.089 -80.13   0
       186    297.0773    517.0106 300.1052792 +22.6249725     515.5302     72.10663      1.501     4.03     4.992194     20.34865     61.59269         8     0.947     0.675  85.94   0
       187    901.9879    515.1697 300.2943624 +22.8056299     211.0304       72.125      1.396     2.51     4.910268     20.34865     38.73374         5     0.773     0.482  56.58   0
       188    864.0721    511.0519 300.2838705 +22.7930959     521.9137       72.125      1.802     4.16     4.830639     20.34865      47.2453         9     0.934     0.780  -8.05   0
       189    769.8789    503.1838 300.2570473 +22.7626336     415.7237       72.125      1.444     2.91     4.844065     20.34865     48.06875         8     0.834     0.700  -6.70   0
       190    849.4424    500.9238 300.2825952 +22.7858044     1709.378     72.10663      1.419     2.72     4.837293     20.34865     187.6476        19     1.079     0.947 -54.86   0
       191    736.4187    500.4444 300.2475037 +22.7518274     362.1382     72.14337      1.587     4.86     4.832451     20.34865      39.5762         5     1.154     0.580 -34.71   0
       192    720.6770    498.4399 300.2432467 +22.7465376     2588.288     72.10663      1.419     2.74     4.864686     20.34865     333.6535        25     1.139     1.049 -65.73   0
       193    965.5427    495.8916 300.3204537 +22.8191093     350.6263     72.18009      1.524     5.27     4.968622     20.34865     44.18322         9     1.312     0.599 -46.94   0
       194    625.3376    495.4203 300.2145103 +22.7171185     567.4011     72.08825      1.496     2.96     5.146326     20.34865      56.8703         9     0.902     0.786 -34.06   0
       195    930.1245    495.4147 300.3095556 +22.8083715     225.6965     72.14337      1.192     3.43     4.968622     20.34865     38.54156         5     0.820     0.414  22.18   0
       196    507.8631    494.4108 300.1782390 +22.6816410     707.7814     72.06986      1.336     2.67     5.216713     20.34865     78.38317        11     0.861     0.796 -39.45   0
       197    978.0573    492.5341 300.3254495 +22.8218892     1365.966     72.16174      1.684     3.15     4.968622     20.34865     129.0187        21     1.132     1.097 -40.96   0
       198    963.8760    491.7224 300.3212871 +22.8174115     770.6741     72.23515      1.693     3.98     4.968622     20.34865     69.85893        13     1.048     0.862  27.55   0
       199    849.7036    490.7746 300.2859717 +22.7829646     2464.434     72.05148      1.848     4.22     4.838346     20.34865     239.0698        34     1.826     1.229  73.26   0
       200    786.1720    490.9726 300.2660925 +22.7640016     194.8652     72.08825      1.389     3.78     4.856578     20.34865     28.81197         5     0.810     0.508  36.21   0
       201    603.0001    489.0317 300.2096237 +22.7085925     641.8768     72.06986      1.461     2.78      5.24004     20.34865     68.05083        10     0.874     0.733  88.65   2
       202    602.5040    485.4100 300.2106448 +22.7074032      469.858     72.05148      1.530     3.02       5.2518     20.34865     43.54423         5     0.744     0.466  19.87   3
       203    389.4020    488.8596 300.1431537 +22.6445551     386.7507     72.10663      1.263     2.37     4.848521     20.34865     63.01782         5     0.790     0.521  37.30   0
       204    887.9507    485.9990 300.2994537 +22.7930406     4309.726     72.10663      1.468     2.99     4.880011     20.34865     440.1722        35     1.273     1.191  77.14   0
       205    441.5587    487.4427 300.1598523 +22.6597753     313.8106      72.2168      1.320     2.52     4.946541     20.34865     61.41671         7     0.845     0.576 -32.04   0
       206    979.6805    476.7542 300.3310791 +22.8178367     675.3654     72.10663      1.522     2.90     4.954402     20.34865     82.86902        12     0.893     0.862  74.88   0
       207    119.8759    476.2246 300.0633990 +22.5601469      816.095     72.14337      1.529     3.93     4.981257     20.34865     100.3009        15     1.209     0.884 -19.75   0
       208    749.6027    474.1846 300.2601394 +22.7482267     246.8886     71.97788      1.287     5.54     4.843199     20.34865     30.18088         7     1.402     0.617  37.44   0
       209    918.8658    473.9041 300.3130259 +22.7988161     320.2772     72.23514      1.437     3.76     4.951756     20.34865     40.70862         5     0.850     0.629  26.97   0
       210    780.8693    470.5223 300.2710778 +22.7565351     305.1526     72.23515      1.358     3.75     4.865523     20.34865     45.76337         6     0.817     0.494  -6.43   0
       211    386.4122    469.3861 300.1485443 +22.6380660     291.8284     72.05148      1.337     4.07     4.865536     20.34865     39.57065         6     0.858     0.552 -47.50   0
       212    975.5596    465.7964 300.3333503 +22.8134520     274.1628     72.14337      1.451     3.34     4.919879     20.34865     53.50944         5     1.011     0.323  66.85   0
       213    112.5071    466.3918 300.0642993 +22.5551152     227.9288     72.03309      1.173     4.04     4.957077     20.34865     55.14028         7     1.035     0.451 -11.53   0
       214    720.0284    460.4951 300.2553626 +22.7354367     472.1861     72.03309      1.425     3.08     4.868195     20.34865     51.13561         8     0.844     0.652 -40.33   0
       215    608.9126    458.1558 300.2214889 +22.7014905     379.3204     72.10663      1.355     3.74     5.251976     20.34865     45.28451         7     0.924     0.593  14.80   0
       216    661.2619    456.3287 300.2383964 +22.7166424     735.2336     72.16174      1.303     2.56     4.990502     20.34865     99.20141        12     0.923     0.765 -26.43   0
       217    975.8716    449.1861 300.3388396 +22.8087681     611.2973       72.125      1.379     3.15     4.864637     20.34865     86.04469        10     0.931     0.784 -29.09   0
       218    722.2730    448.6656 300.2599022 +22.7327083     755.4796     72.16174      1.392     2.74     4.866757     20.34865     102.6769        12     0.952     0.796  22.85   0
       219    879.3755    444.9539 300.3101025 +22.7786714     1063.751     72.14337      1.453     3.39     4.933594     20.34865     113.1876        18     1.137     1.026  69.02   0
       220    863.5883    441.2485 300.3063802 +22.7728805      449.313     72.14337      1.225     3.04     4.929914     20.34865     75.24254        10     0.912     0.793 -38.85   0
       221    607.9241    439.1775 300.2273410 +22.6957404     3192.647     72.10663      1.356     2.55     5.261525     20.34865     390.8974        26     1.109     1.019 -26.46   0
       222    968.1214    437.8545 300.3400989 +22.8031896     490.0859     72.16174      1.492     5.52     4.855167     20.34865     52.31095        11     1.133     0.893  80.48   0
       223    380.0639    426.3107 300.1605491 +22.6237907      243.473     72.23515      1.270     6.11     4.956265     20.34865     42.85359         9     1.368     0.767 -80.45   0
       224    447.8658    426.0654 300.1817385 +22.6440325     337.0298     72.18009      1.270     3.87     5.085711     20.34865     48.46299         8     0.874     0.619  40.75   0
       225    993.9552    425.1476 300.3522864 +22.8072652      354.454     72.14337      1.898     4.01      4.70966     20.34865     31.77774         6     1.361     0.338  -4.67   0
       226   1019.2327    418.6240 300.3622941 +22.8129522     1412.827       72.125      1.472     3.00     4.563527     20.34865     156.2996        19     1.094     1.009  -5.94  16
       227    977.5323    417.2131 300.3497357 +22.8000687     920.2435     72.14337      1.420     2.98     4.750876     20.34865     107.1712        14     1.019     0.864 -28.39   0
       228    891.4202    418.1885 300.3225477 +22.7745794     585.2329     72.10663      1.438     3.36     4.988775     20.34865     59.84386        10     0.993     0.668 -25.04   0
       229    718.4913    413.2102 300.2702308 +22.7213838     1077.338     72.06986      1.285     2.61     4.885246     20.34865     134.0065        15     0.944     0.889  57.81   0
       230    514.2667    413.3437 300.2065469 +22.6602667     548.3531     72.18009      1.391     3.29     5.345252     20.34865     61.50655         7     0.785     0.736  38.58   0
       231    222.5007    411.4203 300.1163491 +22.5723011     637.4437     72.05148      1.651     3.73     4.999678     20.34865     73.68253        12     1.061     0.896 -39.22   0
       232   1018.0755    405.7479 300.3661119 +22.8089019     4365.654     72.14337      1.569     3.08      4.59824     20.34865     464.9856        33     1.254     1.216 -63.33  16
       233    284.8438    406.8671 300.1372233 +22.5896756     3846.457     72.10663      1.491     2.88     5.049036     20.34865      465.517        29     1.213     1.089  43.79   0
       234    232.0034    401.6481 300.1224764 +22.5723426     7705.582     72.10663      1.518     2.82     5.009388     20.34865     876.4354        41     1.281     1.213  31.20   0
       235    997.9769    396.8064 300.3627399 +22.8003161     1764.352     72.10663      1.483     3.10     4.700403     20.34865     187.3244        23     1.148     1.058  64.62   0
       236    372.8375    395.9228 300.1681611 +22.6128963     4991.263     72.08825      1.445     2.73     4.902829     20.34865     632.9126        34     1.169     1.136  36.81   0
       237    617.1197    392.7552 300.2452724 +22.6851518      18637.2     72.10663      1.362     2.59     5.216675     20.34865     2515.814        50     1.216     1.136 -82.15   0
       238    634.7319    392.8321 300.2507360 +22.6904476     879.0153       72.125      1.893     6.12     5.105558     20.34865     78.89768        14     1.528     0.690 -39.25   0
       239    464.5069    394.6453 300.1971172 +22.6399897       353.11     72.14337      1.319     3.91     5.157901     20.34865     38.46035         6     0.917     0.478   1.57   0
       240    243.4977    391.2267 300.1294340 +22.5727941     313.8964     72.06986      1.504     3.79     5.030846     20.34865     29.74703         5     1.026     0.401  -7.33   0
       241    474.7781    389.7935 300.2018903 +22.6416722     338.3385     72.10663      1.819     4.02     5.210143     20.34865     30.97739         6     0.798     0.578  44.79   0
       242    860.4674    388.8498 300.3224127 +22.7568783     248.1679     72.10663      1.317     4.34     4.907588     20.34865     42.35728         5     0.881     0.610  54.22   0
       243    814.5120    383.6125 300.3097777 +22.7416178     368.4879     72.06986      1.493     5.56     4.894516     20.34865     44.23067         9     1.229     0.710  13.24   0
       244    237.0132    380.0327 300.1310488 +22.5676361     278.4704     72.10663      1.398     4.05     5.023337     20.34865     38.66238         7     0.904     0.518 -43.45   0
       245    950.9266    375.5351 300.3549580 +22.7801192      802.576     72.16174      1.495     3.07     4.831934     20.34865     109.0029        15     1.156     0.881 -38.72   0
       246    171.7456    372.7156 300.1131206 +22.5459757     1986.526     72.19845      1.565     3.18     4.829903     20.34865     224.7392        27     1.295     1.122  50.97   0
       247    557.7176    362.1722 300.2366874 +22.6585739     6625.212       72.125      1.342     2.45     5.286887     20.34865     818.8839        33     1.136     1.075  66.08   0
       248    971.4339    362.6104 300.3655521 +22.7825373     1239.409     72.10663      1.603     3.16     4.800898     20.34865      137.088        21     1.248     1.056 -16.72   0
       249    272.6461    361.6549 300.1480982 +22.5730348     672.8156     72.16174      1.467     3.88      5.17836     20.34865     75.46589        13     1.081     0.851  52.34   0
       250    130.2785    354.2805 300.1062059 +22.5282544      640.139     72.25349      1.600     3.79     4.840189     20.34865     61.40956        13     1.067     0.909  21.96   0
       251    817.3012    354.4003 300.3201266 +22.7340521     381.0906     71.99628      1.600     3.43     4.855256     20.34865     36.91236         5     0.758     0.448  19.00   0
       252    671.6667    352.8748 300.2752131 +22.6900198     462.5922     72.19845      1.343     3.39      4.87715     20.34865     69.43293         8     1.048     0.556  44.19   0
       253    762.0375    351.3023 300.3038973 +22.7166204     1286.951       72.125      1.457     2.84     5.070201     20.34865     137.0696        17     1.024     0.944  74.74   0
       254    464.3702    348.3850 300.2120848 +22.6266561     6068.447       72.125      1.341     2.37     5.109643     20.34865     786.2309        32     1.121     1.076 -87.10   0
       255    953.7809    343.1499 300.3663571 +22.7716572     644.7164     72.10663      1.416     3.35     4.789545     20.34865     69.45524        14     1.103     0.847  38.89   0
       256    856.3000    342.9071 300.3360203 +22.7424181     1444.154     72.29015      1.486     2.80     4.811404     20.34865      162.657        16     1.028     0.910  58.32   0
       257    449.2089    337.2590 300.2109731 +22.6189180      459.232     72.08825      1.552     4.23     4.989725     20.34865      56.0658         7     0.996     0.564 -19.56   0
       258    531.7022    335.0917 300.2373691 +22.6430002      508.294     72.30848      1.379     3.30     5.235121     20.34865     54.14839         7     0.713     0.692  88.96   0
       259    809.5697    334.2352 300.3242578 +22.7259390     183.0256     72.14337      1.051     3.39     4.888813     20.34865     27.80249         5     0.757     0.439 -68.18   0
       260    829.3259    330.5289 300.3316223 +22.7307857     503.0397     72.19845      1.244     3.28     4.858866     20.34865     81.72549        13     1.082     0.832  76.33   0
       261    351.9076    327.5636 300.1838254 +22.5869875     2646.973     72.08825      1.448     2.55      4.96586     20.34865     345.7012        23     1.116     1.004 -89.08   0
       262     70.5119    324.9594 300.0971350 +22.5019224     1089.738     72.10663      1.679     3.31     5.019749     20.34865     116.6035        20     1.267     1.029 -71.85   0
       263    321.2646    316.9226 300.1777398 +22.5747509     29863.84      72.2168      1.449     2.87     5.167136     20.34865     3528.524        67     1.350     1.232  80.61   0
       264    855.9229    314.7057 300.3450522 +22.7341940     1408.156     72.25348      1.379     2.69     4.808498     20.34865     186.0585        17     1.052     0.917 -67.67   0
       265    811.9307    312.4843 300.3320507 +22.7203901     410.7535      72.2168      1.572     2.31     4.915672     20.34865     55.99588         5     0.730     0.461 -19.87   0
       266     17.5919    304.6552 300.0872711 +22.4802311     4949.161       72.125      1.727     3.40     5.555096     20.34865      529.066        39     1.399     1.314  55.78   0
       267    771.1154    303.7979 300.3221398 +22.7056768     589.2945     72.05148      1.421     2.78     5.068615     20.34865     76.01655         9     0.922     0.603  56.54   0
       268    195.2416    303.2312 300.1429702 +22.5330613     596.1743     72.14337      1.609     2.59     4.905704     20.34865     60.72114         9     0.883     0.680   8.42   0
       269    420.0215    302.2500 300.2132417 +22.6001162     464.1684       72.125      1.228     2.50     4.774612     20.34865     78.54907         8     0.772     0.722 -18.88   0
       270    731.7280    296.8544 300.3121108 +22.6918915     1879.677       72.125      1.416     2.77     5.177941     20.34865     219.8177        21     1.140     0.977 -81.71   0
       271    540.1424    291.5306 300.2541294 +22.6330068     338.3597     72.14337      1.306     3.18     5.172009     20.34865     49.23401         8     1.017     0.697 -87.43   0
       272    946.7330    290.0284 300.3813913 +22.7542663     642.2267     72.10663      1.492     3.78     4.700057     20.34865     71.59807        10     0.965     0.814  46.59   0
       273    393.4194    281.2749 300.2117628 +22.5861213     2230.908       72.125      1.666     3.22     4.989742     20.34865     261.9508        24     1.314     1.031  58.73   0
       274    606.1360    280.3252 300.2783256 +22.6495440     384.3299     72.16174      1.375     2.17     5.199036     20.34865      54.4002         6     0.701     0.591 -66.95   0
       275    832.5572    274.3220 300.3508634 +22.7155863     793.6761     72.10663      1.651     2.92      4.88282     20.34865     82.37629        12     0.950     0.827 -63.88   0
       276    825.3681    275.5204 300.3482323 +22.7137798     323.8295       72.125      1.625     4.13     4.907483     20.34865     37.74475         5     0.980     0.497  -3.45   0
       277    715.0352    272.4280 300.3148295 +22.6798711      373.816     72.14337      1.133     2.20     5.085333     20.34865     68.21977         8     0.767     0.653 -87.06   0
       278    731.7960    272.4454 300.3200495 +22.6848925     386.4894     72.10663      1.675     3.87     5.126879     20.34865     35.97095         7     0.959     0.679  -6.04   0
       279    683.2798    271.2794 300.3053026 +22.6700360     429.4253     72.25349      1.641     3.77     5.006608     20.34865     31.08996         5     0.906     0.451  44.99   0
       280    469.4038    260.6816 300.2421017 +22.6029584     1167.089     72.05148      1.378     2.59     5.219825     20.34865     165.7122        16     1.021     0.900  76.10   0
       281     42.5985    260.8621 300.1092471 +22.4751517     221.1268     72.08825      1.299     3.44     5.673928     20.34865     26.85447         5     0.770     0.445  70.88   0
       282    714.3885    252.7571 300.3210079 +22.6740207     2159.158       72.125      1.413     2.63     5.042383     20.34865     279.0424        22     1.211     0.959 -72.89   0
       283    852.5959    254.2324 300.3636301 +22.7158035     320.9113     72.10663      1.481     4.16     4.827005     20.34865     41.70914         6     0.722     0.683  10.41   0
       284    975.5645    247.1674 300.4042917 +22.7505590     3195.936     72.16174      1.511     2.79     4.816124     20.34865     371.8296        29     1.239     1.127 -61.86   0
       285    422.5320    236.6212 300.2353088 +22.5820073       574.47       72.125      1.300     2.49     5.117852     20.34865     99.17891        12     0.903     0.813 -16.88   0
       286     97.5695    230.6634 300.1361297 +22.4829525     1407.956     72.14337      1.686     3.82      5.41004     20.34865     145.0858        23     1.388     1.008 -24.76   0
       287    128.3369    230.7848 300.1456574 +22.4922064     684.9601     72.08825      1.610     2.47      5.21017     20.34865     91.25414         9     0.856     0.693   9.09   0
       288    991.1604    227.3992 300.4155706 +22.7495355     490.9133     72.14337      1.463     3.79     4.853354     20.34865     74.48587        12     1.275     0.827  62.29   0
       289    835.0021    224.5367 300.3677726 +22.7019968     341.4124       72.125      1.370     4.54     4.887156     20.34865     36.49042         8     0.831     0.704 -78.70   0
       290    181.5704    222.9605 300.1647503 +22.5059082     488.9949     72.10663      1.439     3.08     5.183343     20.34865      81.6404        10     1.033     0.683 -36.11   0
       291    976.3501    220.7933 300.4130902 +22.7432047     376.9333       72.125      1.565     2.38     4.883466     20.34865       44.644         6     0.695     0.606  24.66   0
       292    857.5608    216.1988 300.3775134 +22.7063474     321.0622     72.14337      1.524     4.70     4.833766     20.34865     45.95969         6     1.312     0.478 -52.32   0
       293    785.8737    213.9766 300.3558742 +22.6842593     727.6199     72.18009      1.392     3.79     5.031308     20.34865     98.03815        11     1.107     0.711  82.29   0
       294    376.3151    213.4548 300.2284319 +22.5615090     391.3348     72.19845      1.399     3.01     5.350284     20.34865     52.58973         8     0.936     0.590 -70.29   0
       295    922.1260    207.2595 300.4005566 +22.7230906     157.8027     72.16174      1.342     4.46     4.942756     20.34865     30.48661         6     0.908     0.622 -64.00   0
       296    884.0146    203.3553 300.3899311 +22.7105664      2293.43     72.14337      1.531     2.62     4.869918     20.34865     273.8354        24     1.186     1.038 -58.97   0
       297    302.6081    200.3230 300.2097480 +22.5356609      2159.46     72.08825      1.424     2.56     5.423958     20.34865     274.7897        24     1.128     1.062  68.60   0
       298    380.5615    195.4065 300.2356058 +22.5575935      1088.42     72.16174      1.573     3.23     5.404203     20.34865     106.3027        17     1.109     0.948 -42.59   0
       299    782.4600    195.1134 300.3609262 +22.6778117     453.3278      72.2168      1.214     3.28     5.104461     20.34865     76.56095        10     1.048     0.639 -10.57   0
       300    538.9546    195.0149 300.2850595 +22.6049052     361.9125     72.14336      2.105     3.68     5.022326     20.34865     28.69279         5     0.628     0.619   3.56   0
       301    889.8062    192.2912 300.3953257 +22.7091156     432.7554     72.03309      1.671     4.85     4.927705     20.34865     37.22864         7     0.964     0.692 -11.79   0
       302    427.6690    192.0132 300.2513726 +22.5707241     285.9713     72.14337      1.252     3.47     5.378098     20.34865     46.79723         5     0.839     0.414  72.12   0
       303    197.3808    187.9118 300.1810321 +22.5005758     783.5151     72.06986      1.550     2.33     5.398429     20.34865      88.9996        11     0.915     0.693 -16.86   0
       304    735.1696    184.7537 300.3495389 +22.6606813     1735.513     72.14337      1.399     2.44     4.982689     20.34865      238.465        23     1.266     0.910  40.59   0
       305    800.1628    184.4790 300.3698952 +22.6800493     615.0551     72.08825      1.475     3.08     5.215679     20.34865     76.01431        10     0.960     0.694 -88.81   0
       306    218.8630    181.2016 300.1898902 +22.5050829     612.6829     72.10663      1.470     3.17      5.47482     20.34865     78.41902        11     1.116     0.623  -9.81   0
       307   1006.9486    177.3874 300.4367160 +22.7398645     892.3748     72.16174      1.449     3.24     5.406938     20.34865     104.6893        15     1.060     0.931 -23.75   0
       308    739.1035    176.0654 300.3535824 +22.6593593     781.1791     72.23514      1.418     3.01     4.991529     20.34865      95.3016        13     1.036     0.775  69.06   0
       309    659.7248    175.4738 300.3290283 +22.6354349     1283.187     72.19845      1.286     2.46      4.94546     20.34865     175.5468        17     1.014     0.890 -31.82   0
       310    855.2022    166.8001 300.3927949 +22.6914294     1443.323     71.90421      1.437     3.01     4.917174     20.34865     160.4375        22     1.184     1.030 -70.71   0
       311    585.8590    167.1299 300.3087138 +22.6109278     962.0338     72.16174      1.297     2.84     4.797696     20.34865     112.7603        13     0.999     0.756  73.90   0
       312    867.2251    166.1781 300.3967473 +22.6948470     942.9087     72.08825      1.582     3.38      4.85828     20.34865     98.26371        13     1.075     0.859  58.54   0
       313    914.0456    164.8356 300.4117907 +22.7084661     404.9921     72.16174      1.399     3.44     5.206939     20.34865     48.10599         5     1.291     0.264 -11.87   0
       314    984.0657    156.4606 300.4363580 +22.7269981     1110.624     72.16174      1.488     3.24     5.517414     20.34865       124.92        20     1.156     1.054  80.73   0
       315      7.9887    153.1644 300.1334075 +22.4338520     438.8459       72.125      1.616     3.10     6.214617     20.34865     69.72266         8     1.060     0.607 -16.05   0
       316    217.9315    149.1047 300.2000055 +22.4955817     620.8734     72.27182      1.320     2.91     5.478028     20.34865      86.1058        11     0.907     0.799  39.86   0
       317     79.8415    143.8443 300.1587646 +22.4527040     2210.421     72.19845      1.632     3.39     5.656974     20.34865     221.1947        29     1.308     1.199  31.18   0
       318    903.1088    141.1653 300.4160519 +22.6983833     803.1898     72.10663      1.473     3.63     5.211119     20.34865     92.07413        13     1.117     0.953 -89.59   0
       319     29.2558    140.9942 300.1439627 +22.4367291     568.2991     72.10663      1.708     3.95     6.043548     20.34865     54.47253        10     0.921     0.866  26.12   0
       320    237.2890    137.2008 300.2098864 +22.4979590     5561.456     72.03309      1.526     2.86     5.480897     20.34865     634.8881        39     1.331     1.199  77.91   0
       321    219.1967    138.4211 300.2038622 +22.4928909     319.7276     72.08825      1.235     4.20     5.482551     20.34865     36.66218         6     0.748     0.674 -75.33   0
       322     21.4119    131.5536 300.1445845 +22.4316673     1400.417       72.125      1.840     3.67     6.096805     20.34865     147.2001        23     1.412     1.163 -89.50   0
       323    221.1299    128.1725 300.2077855 +22.4905250     616.7979     72.10663      1.529     3.58     5.487051     20.34865     77.83237        11     1.232     0.669 -44.79   0
       324    881.3750    119.0420 300.4164423 +22.6855161     3567.189     72.18009      1.480     2.92     5.221968     20.34865     384.0291        30     1.205     1.142  58.40   0
       325    985.1183    117.7475 300.4492364 +22.7161703     2868.022     72.16174      1.634     3.21     5.520419     20.34865     298.9622        31     1.343     1.185 -55.80   0
       326    183.7372    114.9850 300.2004279 +22.4755360     370.8871     72.08825      1.449     2.78     5.480279     20.34865      50.8602         6     0.833     0.555  -0.59   0
       327    431.0136    113.8749 300.2777444 +22.5492635     652.9838     72.14336      1.401     2.81     5.508425     20.34865     81.60498        10     0.893     0.712  81.85   0
       328    545.1913    111.9889 300.3139177 +22.5828992     340.7307     72.01469      1.054     2.48     5.177586     20.34865     52.83067         6     0.721     0.545 -57.72   0
       329    355.1650    105.7369 300.2567678 +22.5242154     764.1259       72.125      1.760     3.09     5.505856     20.34865     82.13543        14     1.081     0.878  -2.66   0
       330    121.0215    102.6681 300.1849147 +22.4532115     644.4386       72.125      1.688     5.71     5.507115     20.34865     68.62852        16     1.275     1.147  77.02   0
       331    482.2293    101.3817 300.2977431 +22.5610033     1721.197     72.10663      1.395     2.53     5.498205     20.34865     221.3423        20     1.099     0.976 -77.21   0
       332    410.1004    102.0443 300.2750670 +22.5396014     424.3845     72.14336      1.341     3.01     5.502486     20.34865     53.26968         9     0.783     0.769  85.26   0
       333    543.7939    100.7864 300.3171132 +22.5792595     398.7536     71.99628      1.428     3.31     5.275723     20.34865      61.2971         7     0.896     0.648  74.63   0
       334    225.8273     96.5221 300.2195050 +22.4828368     426.8357       72.125      1.571     3.24     5.501028     20.34865     52.71675         5     0.759     0.430 -24.04   0
       335    698.7820     95.2033 300.3672237 +22.6240339     256.4026     72.03309      1.616     3.85     5.308967     20.34865     26.67875         5     0.936     0.455 -44.64   0
       336    771.1089     90.9595 300.3911504 +22.6444516     388.4152       72.125      1.377     3.91     5.405365     20.34865     65.52795         8     1.123     0.624 -46.51   0
       337    916.6169     85.4660 300.4383212 +22.6863935     484.4282     72.10663      1.851     2.81     5.328965     20.34865     67.77489         6     0.748     0.661 -58.61   0
       338    666.9336     82.9228 300.3612758 +22.6109719     232.0744      72.2168      1.377     2.42      5.23744     20.34865     40.68238         5     0.602     0.593 -33.51   0
       339    256.2290     81.0940 300.2339637 +22.4875074     6130.201     72.05148      1.552     2.98     5.473617     20.34865     623.8473        36     1.325     1.192  71.00   0
       340    762.4775     82.0151 300.3913576 +22.6392960     341.6433     72.14337      1.438     3.68     5.402567     20.34865      52.8941         6     0.850     0.644 -52.93   0
       341    107.3533     80.2865 300.1879177 +22.4426869     758.9745     72.08825      1.935     5.13     5.474464     20.34865     75.25722        16     1.364     1.037  71.23   0
       342    885.3866     79.1243 300.4306320 +22.6752282     352.0123     72.14337      1.451     4.10      5.31737     20.34865     41.73402         6     0.820     0.669 -49.12   0
       343    228.0699     75.1952 300.2271141 +22.4773795     416.7088     72.08825      1.448     2.98     5.498459     20.34865     43.53498         5     0.778     0.498 -51.94   0
       344    271.6995     72.4175 300.2415892 +22.4896464     513.4333     72.03309      1.664     2.96     5.449665     20.34865     53.14957         5     0.876     0.468 -12.22   0
       345     17.8640     71.1471 300.1630582 +22.4132533     449.9951     72.16174      1.508     4.38     5.787646     20.34865     40.65132         7     1.175     0.464  33.98   0
       346    502.3069     66.6093 300.3152657 +22.5570141     6419.444     72.05148      1.444     2.62     5.432486     20.34865     749.3309        34     1.246     1.097  84.28   0
       347    387.5870     66.3902 300.2796123 +22.5226113     642.9497     72.01469      1.431     3.29     5.494238     20.34865     78.70837        13     1.002     0.887  69.54   0
       348    754.6830     56.1472 300.3973102 +22.6295215     878.5488     72.16174      2.142     5.08     5.407326     20.34865     94.68135        13     1.371     0.991 -62.86   2
       349    559.1943     61.4918 300.3346458 +22.5725679     377.2603     72.03309      1.305     2.60     5.302631     20.34865      48.8266         6     0.749     0.499  -2.30   0
       350    847.4286     55.7409 300.4263680 +22.6571461     457.8313       72.125      1.232     3.05     5.258731     20.34865     60.99424         8     0.939     0.608  33.25   0
       351     67.1670     52.6826 300.1843677 +22.4227185     346.9895     72.08825      1.605     4.47     5.470078     20.34865     32.12202         6     1.033     0.549 -64.03   0
       352    195.4008     50.5879 300.2249248 +22.4605243     365.3394     71.94106      1.176     2.98     5.455142     20.34865      57.7612         5     0.726     0.447 -21.17   0
       353    553.9010     49.1786 300.3369867 +22.5674424     531.2427     72.05148      1.544     2.24     5.305089     20.34865     58.46809         6     0.691     0.569 -46.74   0
       354    630.7509     46.7258 300.3617283 +22.5897332     6338.007       72.125      1.427     2.61     5.275615     20.34865      877.579        36     1.236     1.108 -88.29   0
       355    405.5412     45.6005 300.2919389 +22.5220089     1462.347     72.08825      1.487     2.61     5.490047     20.34865     198.6957        17     1.129     0.899  60.71   0
       356    671.8270     44.0285 300.3754052 +22.6012472     977.3328     72.08825      1.426     3.02     5.234606     20.34865     124.0184        12     1.024     0.777  65.68   0
       357    741.9763     42.2212 300.3978606 +22.6217134     453.5457       72.125      1.872     3.39     5.474433     20.34865     63.29096         8     1.248     0.624 -45.57   0
       358    687.9077     40.2226 300.3816512 +22.6049633     673.0975     72.05148      1.293     2.52     5.297071     20.34865     90.18253        10     0.895     0.694 -62.05   0
       359    154.5570     38.1967 300.2162355 +22.4447314     766.8424     72.14337      1.704     3.21     5.380428     20.34865     78.61443        12     1.022     0.772 -22.71   0
       360    957.8315     37.8906 300.4666008 +22.6850238     528.7706     72.06986      1.504     3.21     5.285583     20.34865       62.362        10     0.924     0.736  57.85   0
       361    996.9622     37.5883 300.4789124 +22.6966366     302.4748       72.125      1.498     4.49     5.349381     20.34865     36.61009         7     1.233     0.465   8.06   0
       362    726.3481     35.5637 300.3951450 +22.6151227     464.1751     72.14337      1.209     4.48     5.463068     20.34865     61.81161        11     1.306     0.645 -43.47   0
       363    674.9918     31.6202 300.3804123 +22.5986243     2789.736     72.08825      1.478     2.76     5.242429     20.34865     369.7127        29     1.258     1.077  86.02   0
       364    689.9490     30.4173 300.3854647 +22.6027530     916.2053       72.125      1.684     3.88     5.309659     20.34865      85.2773        18     1.392     0.875  58.04   0
       365    315.5808     32.4002 300.2682119 +22.4912825     458.5082     72.05148      1.558     4.82     5.421353     20.34865     41.78691         9     1.034     0.638   6.99   0
       366    761.4133     23.2532 300.4100676 +22.6220696      1516.99     72.14337      1.487     2.94     5.356781     20.34865     164.0176        20     1.081     1.029 -55.98   0
       367    258.2941   1013.2617 299.9319334 +22.7557515     1551.856      72.2168      4.191    13.59      47.3368     20.34865     51.79763        35     2.600     1.976 -59.97  18
       368    504.9761     15.7556 300.3325750 +22.5431884     1017.167     72.16174      1.349     2.44     5.417591     20.34865     140.6675        12     0.893     0.827  68.16   0
       369     78.1982     15.2721 300.1999179 +22.4152742     461.1513     72.03309      1.374     3.53     5.258369     20.34865        53.54         8     0.986     0.759 -33.62   0
       370    742.1250   1014.7075 300.0821405 +22.9012663     303.8958     72.29015      1.602     5.06     4.060019     20.34865      27.8813         6     1.093     0.662 -79.68   0
       371    791.3297     12.6418 300.4228353 +22.6279642     376.5877     72.08825      1.482     3.00     5.101755     20.34865     51.92397         6     1.012     0.451 -10.35   0
       372    303.9307   1012.2352 299.9464660 +22.7691495     1810.654       72.125      5.894     6.96     5.966781     20.34865     73.63548        35     1.873     1.407  -7.44  16
       373    157.0148   1008.8922 299.9018546 +22.7241075     446.1976     72.05148      2.227     6.76     92.65573     20.34865     41.37766        10     1.544     1.163  76.05   0
       374    140.3890   1006.6681 299.8974084 +22.7184803     1464.335       72.125      3.040    10.15     89.28229     20.34865      57.9425        23     2.000     1.436 -89.96   2
