#   1 NUMBER                 Running object number                                     
#   2 X_IMAGE                Object position along x                                    [pixel]
#   3 Y_IMAGE                Object position along y                                    [pixel]
#   4 ALPHA_J2000            Right ascension of barycenter (J2000)                      [deg]
#   5 DELTA_J2000            Declination of barycenter (J2000)                          [deg]
#   6 FLUX_APER              Flux vector within fixed circular aperture(s)              [count]
#   7 FLUXERR_APER           RMS error vector for aperture flux(es)                     [count]
#   8 FLUX_RADIUS            Fraction-of-light radii                                    [pixel]
#   9 FWHM_IMAGE             FWHM assuming a gaussian core                              [pixel]
#  10 BACKGROUND             Background at centroid position                            [count]
#  11 THRESHOLD              Detection threshold above background                       [count]
#  12 FLUX_MAX               Peak flux above background                                 [count]
#  13 ISOAREA_IMAGE          Isophotal area above Analysis threshold                    [pixel**2]
#  14 A_IMAGE                Profile RMS along major axis                               [pixel]
#  15 B_IMAGE                Profile RMS along minor axis                               [pixel]
#  16 THETA_IMAGE            Position angle (CCW/x)                                     [deg]
#  17 FLAGS                  Extraction flags                                          
         1    509.6744     15.9575 300.3326262 +22.5431153     1098.875     72.36205      1.532     2.71     5.022538     20.42073     132.4948        16     1.180     0.911 -77.94   0
         2    413.7234     14.5220 300.3032164 +22.5139868     804.1618     72.49102      1.309     4.07     4.686011     20.42073     107.1051        14     1.210     0.867  76.31   0
         3    795.5895     13.1281 300.4226382 +22.6278354     405.5348     72.38049      1.081     2.82     5.605167     20.42073     68.67545         7     0.944     0.525  58.58   0
         4    184.9610      3.9392 300.2354688 +22.4424606     3853.994     68.65256      1.659     3.13     5.410817     20.42073     381.5139        35     1.413     1.217  58.19  24
         5    753.2390      4.9563 300.4120821 +22.6128175     673.3566     71.67649      1.500     2.83     5.631851     20.42073      86.9204        11     0.916     0.796 -15.12  16
         6    607.6857      1.6481 300.3677920 +22.5683256      231.548     58.14999      1.055     2.31     5.527564     20.42073      51.7878         5     0.710     0.442  75.18  24
         7    510.7326      1.6891 300.3375789 +22.5393282     256.7227     58.44756      1.089     2.49     5.084638     20.42073       40.094         5     0.719     0.444  13.36  24
         8    233.3129    984.7823 299.9320673 +22.7385583     5639.834     72.32516      9.150    33.84        54.97     20.42073     107.9918       485     7.525     5.362 -71.81  19
         9    100.6386   1010.8765 299.8823302 +22.7062295     4289.536     72.36205     14.881    74.50     85.95216     20.42073     149.4841      1567    14.766    10.431  40.41  27
        10    178.2493    970.7835 299.9194993 +22.7180228     1252.893     72.41735      5.968    12.46     56.90177     20.42073     47.74065        33     2.768     1.560  61.16   3
        11    179.9848    980.0842 299.9170133 +22.7212107     1577.423     72.34361      3.795    10.51     64.31492     20.42073     51.76208        29     2.306     1.334  40.18   3
        12    511.0909    976.3894 300.0212361 +22.8194658     511.8563     72.32516      1.665     4.85     3.187244     20.42073     50.43582         7     0.995     0.670 -12.88   0
        13    667.0210    973.3159 300.0708045 +22.8653316     383.9778     72.32516      1.923     6.02     3.493101     20.42073     38.70173         6     1.311     0.879  20.16   0
        14    244.7317   1001.1141 299.9303052 +22.7466681     3097.488     72.47261      5.467    22.92     54.53766     20.42073     79.17337       138     4.762     3.064  -6.99  19
        15      5.4631    993.1905 299.8585094 +22.6725937     2982.471     72.34361     13.984    29.77    -23.03668     20.42073     61.52891       209     5.793     4.248  45.97  27
        16    939.6556    971.3577 300.1564407 +22.9464690     692.6961     72.36205      2.055     7.78     3.679826     20.42073     39.30056        17     1.483     1.154  48.66   0
        17      2.9573    966.4578 299.8664271 +22.6641784     1068.178     64.71021      4.603     5.89    -13.60028     20.42073     40.86464         7     1.475     0.663  -0.48  19
        18    368.8389    998.5085 299.9697610 +22.7831512     334.2549     72.38049      1.818     6.83     3.936789     20.42073     30.74504        10     1.197     1.094  36.43   0
        19    157.5348    956.3256 299.9177622 +22.7076614     1763.455     72.41735      7.440    16.34     46.50785     20.42073     53.40015        62     3.546     2.092  27.99   1
        20      6.8699    960.0092 299.8697402 +22.6635041     1029.027     72.36205      6.461     9.60    -8.912372     20.42073     33.55893        14     2.414     1.065 -12.28  24
        21    665.2293    954.1957 300.0764665 +22.8593054     6907.824     72.34361      1.926     4.40     3.591676     20.42073      415.718        46     1.512     1.433  47.62   0
        22    144.7459   1007.4810 299.8971450 +22.7184926     1390.666     72.41735      3.054    11.76     87.90289     20.42073     49.02096        31     2.329     1.653   1.46   1
        23    545.0237    948.9188 300.0407391 +22.8217559     375.1964     72.34361      1.985     4.63     3.515056     20.42073     40.50325         5     1.230     0.613  21.74   0
        24    256.8912    948.2354 299.9512889 +22.7351496     623.7257     72.34361      1.818     5.69     16.88179     20.42073     50.61214        13     1.321     0.913  -8.06   0
        25    816.9892    948.3826 300.1256589 +22.9031176      330.844     72.34361      1.334     5.22     3.755841     20.42073     43.00558         6     1.040     0.740  -4.37   0
        26    573.5743    945.0554 300.0508876 +22.8292065     1491.819     72.38049      1.824     4.29     3.582925     20.42073     108.5188        25     1.353     1.137  12.41   0
        27    173.1541    944.8243 299.9263592 +22.7090495     446.9948     72.39892      2.461     3.74     35.53982     20.42073     37.67012         5     1.303     0.308 -29.43   0
        28    467.5337    941.2402 300.0191092 +22.7963182        910.7     72.34361      1.718     5.36     3.551859     20.42073     71.18277        21     1.235     1.209 -23.18   0
        29    398.1412    939.3209 299.9981342 +22.7749585     6559.047     72.41735      1.858     4.00     3.800339     20.42073     506.1556        42     1.452     1.365  -3.13   0
        30    431.1186    926.1771 300.0126733 +22.7810762     476.6984     72.34361      1.753     4.49     3.730502     20.42073      50.7745        10     1.177     0.919  71.04   0
        31    715.2161    926.0000 300.1012150 +22.8661920     272.9673     72.25132      1.623     3.79       3.7538     20.42073     31.19922         5     1.221     0.337  23.94   0
        32    184.4816    998.4237 299.9124451 +22.7278191     2542.023     72.34361      5.361    21.34     79.24776     20.42073     77.12495       108     4.748     2.663   8.95  19
        33    560.1746    991.7996 300.0315073 +22.8386055     2429.253     72.32516      1.985     4.84     3.185488     20.42073     143.8512        30     1.379     1.350  11.59   0
        34    944.5928    918.2872 300.1752455 +22.9327026     2218.182     72.28825      1.994     5.35     3.756966     20.42073     125.9263        32     1.476     1.363 -11.92   0
        35    594.0621    915.0739 300.0670211 +22.8267420     359.3388     72.41735      1.641     3.78     3.771634     20.42073     29.99458         5     1.043     0.394  57.67   0
        36    251.8034    974.3383 299.9412155 +22.7411103     8833.765     72.36205     11.632    38.23     32.52243     20.42073     179.2406       993    13.065     5.142  66.32  19
        37    733.4272    906.9636 300.1130827 +22.8661832     803.7818     72.38049      2.097     7.43     3.841004     20.42073     55.73367        18     1.705     1.007  50.42   0
        38    768.0681    901.3322 300.1257118 +22.8749464     1022.105     72.43578      1.867     4.65     3.894713     20.42073     85.35345        22     1.304     1.216 -56.40   0
        39    545.2045    902.3887 300.0559300 +22.8084545     383.7348     72.25132      1.518     5.24     3.861496     20.42073     37.55758         6     1.084     0.716  -2.77   0
        40    646.8477    987.2557 300.0599838 +22.8632860     8490.067     72.41735      2.021     4.72      3.41929     20.42073     504.9398        44     1.552     1.420  45.74   3
        41    790.4166    894.9841 300.1347435 +22.8798197     11308.83     72.34361      1.857     4.11     3.949527     20.42073     741.7254        55     1.485     1.444 -33.52   0
        42    836.1162    895.3456 300.1488745 +22.8936157     426.3799     72.43578      1.708     4.26     3.943682     20.42073     39.05301        10     1.370     0.905  27.90   0
        43    652.5738    984.8185 300.0625608 +22.8643029     9530.446     72.41735      2.007     4.77     3.429774     20.42073      478.606        53     1.600     1.519   8.12   3
        44    191.0501   1006.1410 299.9119767 +22.7320030     789.4778     72.43578      2.572     8.36     85.26621     20.42073     51.50326        15     2.001     1.040 -18.79   3
        45    746.8646    987.7175 300.0910011 +22.8933979     825.1044     72.49102      2.040     7.98     3.465372     20.42073     48.26035        21     1.587     1.121 -47.73   0
        46     90.1546    944.2369 299.9007498 +22.6839766     6002.286     72.41735     29.478   120.25     22.72236     20.42073     1289.158      5018    22.093    18.161 -69.52  18
        47    188.3592   1002.2994 299.9123898 +22.7300940     1299.105     72.36205      3.264     9.48     82.17763     20.42073     58.73587        25     2.795     0.897 -10.52   3
        48    102.4188    886.0417 299.9234878 +22.6709686      1313.96     72.39892      6.821     9.13     7.982466     20.42073     56.67074        19     2.133     1.205 -68.95   3
        49    495.0832    883.1239 300.0465882 +22.7878988     414.0221     72.47261      1.583     5.31     4.005235     20.42073     37.79636         9     1.123     0.708   8.24   0
        50    798.9968    877.1552 300.1432169 +22.8772697     1403.419     72.38049      1.880     4.35     4.070488     20.42073     87.34052        27     1.414     1.212  -4.84   0
        51    981.4559    877.1238 300.2001349 +22.9319172     433.1574     72.41735      1.749     5.63      3.76708     20.42073      33.0904         8     1.382     0.647 -22.61   0
        52     91.4139    875.9583 299.9233462 +22.6647750     563.5064     72.39892      5.367     6.87     6.492621     20.42073     31.64556        10     1.700     0.779  35.91   0
        53    650.8549    874.8395 300.0977989 +22.8322131     491.4102     72.38049      1.771     4.82     3.972035     20.42073     40.87588         8     1.051     0.626 -33.98   0
        54    514.6728    874.7037 300.0554259 +22.7913547     326.0541     72.50943      1.768     5.23     4.045208     20.42073     30.80851         6     1.140     0.677  74.05   0
        55    836.9680    870.5406 300.1572072 +22.8867458     854.5845     72.41735      2.065     6.38     4.060882     20.42073     62.85017        19     1.580     1.117  34.53   0
        56      4.4734   1014.8345 299.8511605 +22.6785007     3445.374     70.38017     14.930    61.68    -33.05099     20.42073     79.02376       564    14.335     7.363 -86.92  27
        57    330.9240    869.4204 299.9999513 +22.7347438     39.65433     72.38049      2.155     4.41     4.490051     20.42073     27.69334         5     1.480     0.374 -13.01   0
        58    945.8789    867.7040 300.1920986 +22.9185551     488.5156     72.49102      1.769     4.21     3.840426     20.42073     41.30913         8     1.238     0.664 -27.04   0
        59    885.4798    861.9318 300.1751355 +22.8988053     553.2084     72.49102      1.618     6.10     3.996788     20.42073     44.18824        12     1.125     0.929  18.86   0
        60    736.5466    860.8938 300.1290377 +22.8538876     760.0641     72.43578      1.759     6.32      4.02775     20.42073     71.03996        15     1.306     1.043 -47.94   0
        61    747.8635    858.0605 300.1334864 +22.8564649     555.6133     72.41735      1.559     4.65     4.059793     20.42073      45.8065        14     1.240     0.839 -14.73   0
        62    449.3458    856.9901 300.0408474 +22.7666854     4312.115     72.38049      1.763     3.64     4.195341     20.42073     389.1062        39     1.358     1.352  60.43   0
        63    228.2411    845.8196 299.9756847 +22.6971765     533.5919     72.41735      1.652     3.34     4.758963     20.42073     55.50597         7     1.014     0.589  78.47   0
        64    492.1432    845.3961 300.0579410 +22.7761880     409.8166     72.34361      1.689     4.46     4.221192     20.42073     32.23042         7     1.320     0.429 -10.84   0
        65    174.3490    842.8616 299.9598885 +22.6801629     1015.388     72.43578      2.199     6.24      6.20737     20.42073     59.11833        19     1.509     1.045 -35.52   0
        66    185.5296    992.3088 299.9147604 +22.7263800     2118.017     72.54623      5.545    14.12     73.78451     20.42073     63.05538        51     3.024     1.834 -55.82   3
        67    151.5738    839.6957 299.9538370 +22.6724228     1724.547     72.32516      2.002     4.36     6.272093     20.42073     139.1357        30     1.489     1.309   7.27   0
        68    184.9367    977.6252 299.9193529 +22.7219914     972.5118     72.36205      4.945     6.57     61.82185     20.42073     42.36931         8     1.959     0.618  68.42   3
        69   1022.8505    829.0477 300.2286861 +22.9304981     1531.429     60.81952      1.606     4.39     3.708141     20.42073     124.4206        21     1.380     0.944 -80.43  24
        70     27.2029    829.5451 299.9184825 +22.6321989     411.2012     72.32516      1.430     3.60     4.637933     20.42073     40.33408         5     0.963     0.388  83.12   0
        71    977.8575    827.4961 300.2151507 +22.9165788     2182.732     72.45419      1.915     4.52     3.833095     20.42073     134.4473        28     1.409     1.232 -25.52   0
        72    683.0419    827.9436 300.1230772 +22.8283922     506.9192     72.34361      1.872     5.50     4.063483     20.42073     48.10973         9     1.194     0.715 -21.92   0
        73    761.2440    821.2601 300.1496233 +22.8499040     603.0345     72.39892      1.441     3.45     4.209097     20.42073      58.7604        13     0.958     0.931  13.82   0
        74    184.5377    820.6578 299.9702752 +22.6768496     531.9316     72.43578      1.815     6.18     5.205575     20.42073     50.42813        11     1.731     0.619 -86.60   0
        75    629.4004    815.2798 300.1104812 +22.8086811     4948.106     72.25132      1.633     3.36     4.071076     20.42073     429.0694        36     1.285     1.223 -12.21   0
        76    120.0293    815.7788 299.9518064 +22.6560998     302.7106     72.38049      1.798     4.33     5.021955     20.42073     34.13609         6     1.576     0.338  71.55   0
        77    431.9223    811.9315 300.0500738 +22.7485287     582.0038     72.49102      1.656     4.67     4.511804     20.42073     60.70725        12     1.295     0.822  51.33   0
        78    179.6304    808.9714 299.9725484 +22.6720251     1472.093     72.38049      1.899     4.19     4.857263     20.42073     99.51842        24     1.338     1.194  -7.41   0
        79    650.1104    808.0108 300.1192967 +22.8127999     704.9272     72.32516      1.622     4.35     4.078347     20.42073     64.20253        14     1.144     0.896 -26.48   0
        80    447.9893    806.7678 300.0567539 +22.7518632     272.9774     72.38049      1.548     5.60     4.505887     20.42073     31.20221         6     1.094     0.809 -87.08   0
        81    198.8535    806.0369 299.9794796 +22.6769489     387.6733     72.39892      1.522     4.02     4.688766     20.42073     43.66177         9     1.121     0.744  14.24   0
        82   1022.3551    795.3326 300.2394935 +22.9206599     1071.594      63.3135      1.795     5.30     3.647244     20.42073     68.84438        21     1.406     1.045  69.64  24
        83    805.4564    794.9413 300.1719634 +22.8555888     4177.062     72.45419      1.703     3.93     4.442474     20.42073     315.8101        34     1.330     1.274  51.14   0
        84    214.0342    789.3262 299.9896324 +22.6767074     494.7021     72.36205      1.692     5.50     4.579822     20.42073     48.62592        10     1.327     0.802 -11.56   0
        85    522.5631    787.4099 300.0862651 +22.7686596     607.9582     72.38049      1.539     3.99     4.384518     20.42073     69.19779        12     1.157     0.843  44.68   0
        86    168.7961    785.2400 299.9768941 +22.6619672     1192.452     72.39892      1.878     4.68     4.579822     20.42073     96.56155        23     1.431     1.172  35.26   0
        87    584.0403    780.5151 300.1076528 +22.7851048     571.2028     72.34361      1.757     6.29     4.237612     20.42073     51.26822        14     1.157     0.962 -48.95   0
        88    318.4376    777.3588 300.0259967 +22.7045813     53758.31     72.47261      1.713     3.47     4.578347     20.42073      5073.71        92     1.485     1.425  10.48   0
        89    576.4523    776.5007 300.1065943 +22.7816780     1614.643     72.47261      1.571     3.01     4.272924     20.42073     180.8375        22     1.161     1.087 -81.13   0
        90    989.1656    775.9803 300.2354280 +22.9051600     892.6246     72.39892      1.836     4.93     3.753872     20.42073     59.92616        16     1.190     0.967  33.09   0
        91    247.4219    775.6852 300.0044499 +22.6828062     347.9205     72.32516      0.998     3.43     4.578917     20.42073     44.76509         5     0.971     0.351  67.43   0
        92    605.2313    772.5944 300.1168285 +22.7891806     995.9971     72.38049      1.677     3.73     4.210955     20.42073     88.78793        20     1.183     1.103  87.86   0
        93      4.4835    772.2028 299.9300632 +22.6089376     794.6548     70.34225      1.928     6.37     4.601268     20.42073     61.82676        15     1.393     1.001 -31.92  16
        94    616.2385    771.2144 300.1207060 +22.7920827     680.8916     72.39892      1.457     3.07     4.206768     20.42073     80.07736        12     0.992     0.813 -11.22   0
        95    936.6608    768.9927 300.2213181 +22.8874295     390.4751     72.36205      1.653     5.32     4.075814     20.42073     35.25925         7     1.467     0.545  42.85   0
        96    721.7263    767.4096 300.1548125 +22.8225966     294.5309     72.38049      1.355     4.08     4.198233     20.42073     47.09583         9     1.078     0.627  34.01   0
        97    759.2769    757.5761 300.1697133 +22.8310210     765.3932     72.39892      1.536     4.11     4.246608     20.42073     72.80534        14     1.071     0.940 -14.99   0
        98    368.1975    754.6533 300.0488597 +22.7129835     31743.54     72.34361      1.624     3.16     4.565231     20.42073     3484.063        69     1.387     1.336  12.59   0
        99    891.2932    750.7780 300.2130873 +22.8686089     2885.902      72.3067      1.728     3.68     4.195647     20.42073     213.9189        34     1.368     1.269  64.48   0
       100    379.6870    748.9722 300.0542817 +22.7147972     534.0889     72.38049      1.725     5.42     4.569914     20.42073     56.55122        10     1.098     0.964  38.26   0
       101    250.5445    746.5248 300.0148989 +22.6753748     868.0864     72.39893      1.689     3.76     4.565096     20.42073     85.90709        17     1.149     1.007 -23.92   0
       102    649.1418    746.8492 300.1388767 +22.7949442     894.0407     72.43578      1.556     3.25     4.286149     20.42073     92.59185        14     1.037     0.905  -7.98   0
       103    486.7576    746.7226 300.0883415 +22.7462460     532.1431     72.34361      2.328     6.41     4.560976     20.42073     53.44242        11     2.056     0.561  -3.75   0
       104    496.3585    741.7153 300.0929582 +22.7476859     770.8116     72.34361      1.348     2.51     4.551938     20.42073     123.2817        12     0.918     0.805 -69.85   0
       105     55.7710    742.0916 299.9557857 +22.6156871     558.8748     72.34361      2.397     5.40     4.586208     20.42073     33.16886         8     1.152     0.776  -8.00   0
       106    897.3362    738.6636 300.2189098 +22.8669373     519.4641     72.41735      1.642     5.24     4.207767     20.42073     43.34253        10     0.993     0.781  33.07   0
       107    442.1513    736.5029 300.0777761 +22.7299421      542.318     72.41735      1.772     3.54     4.597128     20.42073     43.77917         7     0.837     0.724  63.96   0
       108    397.7539    737.5767 300.0636080 +22.7169421      391.476     72.39892      2.145     4.29     4.578467     20.42073     42.05791         5     0.975     0.538  37.53   0
       109    382.3917    755.1479 300.0531162 +22.7173807     1950.679     72.38049      1.664     3.59     4.576789     20.42073     192.3429        23     1.307     1.051  34.92   0
       110    650.2155    735.8093 300.1427995 +22.7920950     377.6573      72.3067      1.543     5.99      4.32276     20.42073     31.07196         7     1.426     0.708  34.44   0
       111     84.0824    735.6361 299.9666822 +22.6223276     370.3933     72.36205      1.475     3.58     4.583929     20.42073      54.6694         7     1.100     0.595 -34.09   0
       112    875.4576    733.2262 300.2138533 +22.8588228     505.7047     72.38049      2.015     5.69     4.230848     20.42073     39.21774         7     1.130     0.807  67.08   0
       113    248.4910    731.2088 300.0192377 +22.6703638     507.1707      72.3067      1.674     3.78     4.566691     20.42073     61.32812        11     1.097     0.811   4.31   0
       114    571.7745    721.4903 300.1230171 +22.7644790     357.0075      72.3067      1.424     3.13     4.431674     20.42073     58.48139         7     0.972     0.499  49.56   0
       115    541.1294    719.4446 300.1141376 +22.7547084     705.5196     72.34361      1.602     5.29     4.500122     20.42073     72.96455        13     1.248     0.865  69.80   0
       116    450.5430    718.7109 300.0861706 +22.7273492     433.9217     72.41735      1.503     2.91     4.600436     20.42073     61.40033         8     0.885     0.810  72.50   0
       117    957.8305    716.1538 300.2450973 +22.8785822      4520.59     72.41735      1.663     3.52     4.003989     20.42073      365.875        34     1.294     1.255  10.29   0
       118    563.3356    716.8262 300.1219045 +22.7606108     1257.794     72.36205      1.509     3.04     4.457609     20.42073     149.7568        17     1.034     1.019  30.85   0
       119    483.0428    716.8782 300.0968842 +22.7365636     429.0247     72.36205      1.478     4.85     4.594036     20.42073     50.72034         8     1.019     0.655  19.78   0
       120    644.8849    712.1283 300.1488348 +22.7836960     406.3579     72.49102      1.567     5.04     4.328803     20.42073     34.49303         8     1.005     0.715  66.08   0
       121    946.4514    707.5149 300.2443547 +22.8726921     1620.322     72.36205      1.716     3.78     4.157764     20.42073     137.3213        22     1.260     1.131  48.04   0
       122    309.2912    700.9791 300.0479743 +22.6799171      894.649     72.32516      1.540     3.81     4.582742     20.42073     91.10225        20     1.260     1.056  50.83   0
       123    175.5215    701.7955 300.0061040 +22.6400423     271.2885     72.28825      1.293     5.69      4.59138     20.42073     36.14568         7     1.236     0.737 -59.90   0
       124    977.5001    697.6282 300.2572550 +22.8791462     1876.138     72.28825      1.859     3.90     3.813478     20.42073     137.8278        28     1.355     1.284  58.39   0
       125    772.7443    698.7426 300.1930330 +22.8181520     2512.149     72.45419      1.582     3.14      4.32696     20.42073     275.1687        28     1.366     1.019 -11.27   0
       126    157.8304    685.2293 300.0059863 +22.6299835       583.72     72.38049      1.559     3.87     4.598053     20.42073     59.95708        13     1.188     0.787 -14.35   0
       127    854.8782    684.3583 300.2233167 +22.8386165     530.9968     72.36205      1.566     4.94     4.478763     20.42073     51.55775        12     1.032     0.976 -81.40   0
       128    891.0693    675.6982 300.2374181 +22.8469647     149034.3     72.50943      1.624     3.29     4.515155     20.42073     13173.64       156     1.491     1.465 -50.05   0
       129    653.5233    679.2852 300.1621990 +22.7768497     334.8285     72.49102      1.276     4.92     4.324839     20.42073     53.21842        10     1.133     0.812 -21.40   0
       130    743.3517    675.9377 300.1912812 +22.8027959     727.9396     72.41735      1.481     3.70     4.285134     20.42073     73.93571        15     1.118     0.925 -40.82   0
       131    923.3853    668.7396 300.2497595 +22.8546405     396.3241     72.34361      1.484     4.76     4.513866     20.42073     43.35147         8     1.133     0.772  32.25   0
       132    577.3326    664.4592 300.1432806 +22.7497647     1701.141     72.41735      1.404     2.62     4.519927     20.42073     196.8113        21     1.092     0.986  73.82   0
       133    758.5422    661.8216 300.2006030 +22.8032897     9627.713     72.38049      1.519     3.00     4.338672     20.42073     1044.381        42     1.256     1.199  28.31   0
       134    240.4832    663.2115 300.0388418 +22.6484478      364.705     72.34361      1.164     3.03     4.599478     20.42073     64.30948         5     0.860     0.517 -35.34   0
       135    259.9783    656.6956 300.0470223 +22.6524224     4968.927     72.28825      1.548     3.16     4.598379     20.42073     556.8947        34     1.250     1.202  14.48   0
       136    342.0486    654.7466 300.0731878 +22.6764654     1055.434     72.41735      1.450     2.93     4.594959     20.42073     119.4332        17     1.088     0.919  -9.72   0
       137    217.7232    652.4713 300.0352527 +22.6385414     503.9545     72.49102      1.590     4.55     4.597421     20.42073     51.89503         9     1.115     0.795  13.31   0
       138    550.3587    650.3539 300.1394621 +22.7376315     800.4897     72.43578      1.391     2.81     4.660573     20.42073     86.17966        12     0.938     0.809   8.12   0
       139    541.9581    642.4809 300.1394036 +22.7328532     3428.388     72.34361      1.474     2.72     4.697104     20.42073     378.3638        29     1.209     1.120   0.98   0
       140    532.2249    636.2047 300.1384114 +22.7281342     1556.701     72.34361      1.425     2.91     4.693586     20.42073     165.2114        20     1.029     1.002  -9.37   0
       141    926.0013    634.5320 300.2616900 +22.8455907     566.9536     72.34361      1.704     4.37     4.512255     20.42073     52.58335        11     1.136     0.853 -24.64   0
       142    443.0655    633.2582 300.1116081 +22.7005716     307.4337     72.41735      1.438     4.41     4.566681     20.42073     35.38139         5     0.894     0.691 -21.64   0
       143    195.6413    632.2551 300.0349531 +22.6261186     716.9451     72.34361      1.486     3.66     4.599273     20.42073     73.25381        13     1.027     0.873 -78.61   0
       144    209.8317    630.8348 300.0398273 +22.6299654     523.4737     72.39892      1.529     4.42     4.598094     20.42073     72.00227        15     1.238     0.928 -62.55   0
       145    979.3127    627.3677 300.2806504 +22.8594905     478.4474     72.34361      1.583     4.23     4.186677     20.42073      54.2299        10     0.999     0.895 -34.92   0
       146    235.8546    627.5068 300.0490015 +22.6368120     647.3879     72.43578      1.581     3.33     4.590291     20.42073     68.16048        11     0.995     0.784 -67.79   0
       147    556.2790    626.7821 300.1489638 +22.7326348     354.1056     72.38049      1.273     3.71     4.727749     20.42073     58.43561        10     1.047     0.671  22.21   0
       148    456.9276    625.8991 300.1183141 +22.7026123     1711.979     72.52782      1.444     3.15     4.563446     20.42073      196.367        20     1.104     1.007  53.49   0
       149    490.9862    625.3107 300.1291091 +22.7126490     230.5234     72.32516      1.217     4.35     4.600626     20.42073      33.5837         7     0.782     0.690 -13.36   0
       150    110.9265    620.7382 300.0123562 +22.5974123     19940.82     72.41735      1.700     3.41     4.602219     20.42073      2178.38        60     1.455     1.361  25.62   0
       151     32.0247    622.5456 299.9872472 +22.5742692     815.6533     72.39892      1.925     3.50     4.583408     20.42073     73.80661        12     1.027     0.868 -10.86   0
       152    577.0934    620.9832 300.1573307 +22.7372049     340.6855      72.3067      1.296     4.46     4.703189     20.42073     47.81612         7     0.962     0.587 -76.23   0
       153    541.9706    621.2483 300.1463052 +22.7267584     1119.227     72.39892      1.549     3.62      4.76483     20.42073     103.3662        16     1.235     0.880  -5.30   0
       154    295.2664    612.7000 300.0722916 +22.6503715     344.6206     72.47261      1.262     2.67     4.536913     20.42073     42.77048         6     0.689     0.647  56.08   0
       155    625.6551    609.2747 300.1762618 +22.7483889     283.2678     72.39892      1.305     3.32     4.606339     20.42073     38.10259         6     0.698     0.665  -2.14   0
       156    959.8077    607.6260 300.2809780 +22.8479760     1047.988     72.38049      1.622     3.62     4.398298     20.42073     92.29889        19     1.166     1.067  19.13   0
       157     57.0290    604.9711 300.0007257 +22.5767254     1569.708     72.34361      2.231     4.79     4.578443     20.42073     118.4936        27     1.662     1.108  87.29   0
       158    827.0425    606.0516 300.2400783 +22.8077757     414.7026     72.39892      1.344     2.57     4.437771     20.42073     60.79325         8     0.818     0.627 -38.16   0
       159    123.1877    605.3662 300.0211606 +22.5966775     410.3622     72.36205      1.680     4.95     4.591842     20.42073     42.63063         7     1.167     0.595 -16.39   0
       160    900.2174    600.2372 300.2647883 +22.8280129     979.6559     72.38049      1.960     5.77     4.521178     20.42073     73.51488        19     1.694     0.933 -13.19   2
       161    895.6600    599.5640 300.2635854 +22.8264550     326.3962     72.39892      1.946     4.03     4.523254     20.42073     38.96004         5     1.189     0.391 -53.89   2
       162    604.8614    599.3548 300.1730061 +22.7393102     12371.43     72.41735      1.597     5.63     4.810499     20.42073      1708.23        24     1.684     0.531  62.43   0
       163    298.1060    601.2391 300.0768976 +22.6479324     388.2347     72.39892      1.284     4.26     4.514507     20.42073     39.62878         7     0.878     0.588 -24.85   0
       164    462.0307    594.1898 300.1302030 +22.6950349     760.0836     72.38049      1.421     3.05     4.618636     20.42073     92.40927        11     0.920     0.810  56.62   0
       165    609.9290    592.5406 300.1767982 +22.7388706     476.1781     72.41735      1.387     4.00     4.862915     20.42073      59.4844        12     1.022     0.939 -31.12   0
       166    657.1798    591.2476 300.1919396 +22.7526523      481.644     72.41735      1.262     2.99     4.566422     20.42073     54.01023         8     0.764     0.702 -31.68   0
       167    627.7534    590.8622 300.1828963 +22.7437275     592.1418     72.39892      1.452     2.60     4.762843     20.42073     90.00313        11     0.880     0.819  44.89   0
       168    506.2373    589.9644 300.1453394 +22.7070666     945.8041     72.45419      1.451     2.97     4.822166     20.42073     108.2234        15     1.093     0.897  -1.06   0
       169    693.0068    589.2957 300.2037379 +22.7628219     323.8821     72.26978      1.578     3.88     4.429603     20.42073     31.79274         5     0.843     0.513  52.30   0
       170    940.0887    585.6759 300.2819561 +22.8357625     3318.808     72.50943      1.575     3.23     4.472916     20.42073     306.1798        31     1.248     1.227  33.19   0
       171    471.8703    585.5388 300.1360763 +22.6954985     1770.958     72.41735      1.376     2.68     4.695792     20.42073     201.7429        19     1.081     0.914   5.46   0
       172    837.4367    583.2901 300.2507131 +22.8043454     264.4042     72.36205      1.393     4.02     4.464501     20.42073     41.82914         5     1.128     0.423  31.45   0
       173     33.7614    578.9331 300.0019517 +22.5622765     5193.222     72.34361      1.766     3.71     4.478738     20.42073     498.5883        40     1.386     1.362  51.01   0
       174    335.2287    572.1453 300.0978969 +22.6507056      9222.24     72.38049      1.469     2.83     4.443389     20.42073     990.7161        40     1.262     1.155  48.51   0
       175    457.6736    569.2527 300.1369459 +22.6865672     9118.396     72.39892      1.412     2.65      4.70485     20.42073     1046.582        38     1.159     1.129  34.53   0
       176    869.3068    563.4857 300.2670846 +22.8081939     1917.282     72.56461      1.499     2.83     4.536058     20.42073     205.9597        20     1.091     0.999  43.86   0
       177    954.0731    560.8083 300.2943962 +22.8327985      12464.2     72.36205      1.576     3.18     4.462736     20.42073     1227.515        46     1.293     1.264 -57.87   0
       178    518.2440    558.8597 300.1591806 +22.7017291     11659.51     72.41735      1.407     2.60     5.157927     20.42073     1486.574        44     1.203     1.150  44.82   0
       179    687.7811    554.7292 300.2133363 +22.7513239     595.3608     72.41735      1.440     3.06     4.586872     20.42073     84.11067        14     0.999     0.983   2.36   0
       180    245.6216    554.2859 300.0758207 +22.6187207     1465.734     72.32516      1.634     3.18     4.459391     20.42073     153.8812        20     1.113     1.077  43.64   0
       181    403.3621    553.3481 300.1252048 +22.6657256     374.1939     72.39892      1.388     2.89     4.393294     20.42073     45.18266         5     0.831     0.594  45.33   0
       182    492.6703    551.8517 300.1534932 +22.6920545     410.8748     72.38049      1.372     5.41     5.061275     20.42073     51.74977        10     1.184     0.697 -11.17   0
       183    552.5728    550.3473 300.1726361 +22.7095676     189.3016     72.39892      0.937     3.39     5.404643     20.42073     37.01229         5     0.987     0.337  21.26   0
       184    793.1367    547.3961 300.2485580 +22.7807643      818.328     72.34361      1.418     3.72     4.374851     20.42073     77.45483        17     1.085     1.011 -16.23   0
       185    449.8593    546.9755 300.1417479 +22.6778274     4519.885     72.38049      1.452     3.05      4.71056     20.42073     526.5754        32     1.310     1.077  23.55   0
       186    428.2605    545.4404 300.1355228 +22.6709150     1360.883     72.38049      1.418     2.63     4.488406     20.42073     163.4627        20     1.135     1.014  74.57   0
       187    182.5804    544.7870 300.0593001 +22.5970967       724.79     72.34361      1.541     3.00      4.42276     20.42073     96.47019        15     1.021     0.947  23.27   0
       188    869.8578    542.7141 300.2740026 +22.8023874     1502.233     72.49102      1.529     3.31     4.529346     20.42073     147.6383        20     1.198     0.982 -12.76   0
       189    566.5616    534.5983 300.1821075 +22.7092333     206508.4     72.39892      1.410     2.43     5.434701     20.42073     29342.02       190     1.444     1.363  -5.00   0
       190    390.2781    540.8415 300.1251939 +22.6582132     303.0057     72.36205      1.362     4.42     4.388071     20.42073     40.51156         8     0.920     0.656  86.83   0
       191    750.2925    539.3490 300.2378146 +22.7656230     1016.592     72.45419      1.560     3.39     4.413109     20.42073     129.0624        17     1.157     0.940  77.38   0
       192    843.4252    538.6960 300.2670641 +22.7933193      258.389     72.30671      1.205     3.40     4.470015     20.42073      33.4673         5     0.725     0.460 -71.25   0
       193    954.3721    536.8073 300.3022844 +22.8259868      198.493     72.38049      1.401     3.69     4.471098     20.42073     24.66429         5     1.011     0.387   4.73   0
       194    252.6158    534.4360 300.0844420 +22.6151182     3468.033     72.38049      1.523     2.80     4.467605     20.42073     393.8565        30     1.204     1.119  40.62   0
       195    335.2396    534.2512 300.1102063 +22.6398276     254.4517     72.38049      1.546     3.71     4.424932     20.42073     31.50936         5     0.946     0.419  45.23   0
       196    818.4654    530.7507 300.2618610 +22.7835628     745.5926     72.39892      1.822     3.17     4.403773     20.42073     68.74152        11     1.007     0.724  43.68   0
       197    598.1841    521.2558 300.1962903 +22.7148715     164.6307     72.36205      1.220     2.66     5.405292     20.42073     44.35707         6     0.709     0.598  44.41   0
       198    457.1949    515.3265 300.1543088 +22.6709345     2850.145     72.32516      1.475     2.71     4.777524     20.42073     337.8213        31     1.552     1.019 -85.30   0
       199    301.6705    517.6251 300.1051604 +22.6249933     424.1481     72.38049      1.460     2.52     4.494797     20.42073     76.18709         6     0.709     0.616 -63.91   0
       200    907.1802    515.3696 300.2945238 +22.8056976     258.7238     72.38049      1.175     3.44     4.442766     20.42073     34.20546         5     0.757     0.453  15.97   0
       201    868.5964    511.7247 300.2836727 +22.7931004     255.0561     72.28825      1.295     4.66     4.449807     20.42073     40.10977         9     1.048     0.625   5.77   0
       202    688.3050    511.1442 300.2276533 +22.7389552     258.1538     72.43578      1.216     4.09     4.630284     20.42073     41.07426         7     1.055     0.657  52.11   0
       203    774.3312    503.3967 300.2569831 +22.7624864     414.4598     72.36205      1.519     4.33     4.392009     20.42073     45.11415         8     0.938     0.750 -36.34   0
       204    854.3088    501.2279 300.2826252 +22.7858056      1817.85     72.36205      1.495     2.83     4.412544     20.42073     185.8777        21     1.135     0.986  72.76   0
       205    725.3891    498.8583 300.2432003 +22.7465283     2611.321     72.34361      1.359     2.52     4.474925     20.42073     337.5243        23     1.130     0.972  64.14   0
       206    969.9203    496.5064 300.3202225 +22.8190510     407.2229     72.50942      1.502     4.79     4.460502     20.42073     49.09248         8     1.013     0.642  39.85   0
       207    630.1247    495.5146 300.2145992 +22.7170406     360.0486     72.49102      1.279     2.34     5.166903     20.42073        61.95         6     0.691     0.621 -52.96   0
       208    512.4738    494.5917 300.1782529 +22.6815377     751.7226     72.34361      1.481     3.55     5.158503     20.42073     111.0238        15     1.143     0.925  63.09   0
       209    982.8346    493.0000 300.3253907 +22.8219074     1300.285     72.32516      1.545     3.24     4.477028     20.42073     121.7315        20     1.145     1.013  18.23   0
       210    968.2979    491.9628 300.3211916 +22.8172588     746.0172     72.38049      1.486     3.55     4.455942     20.42073     83.25331        12     1.003     0.826  22.37   0
       211    854.5103    491.2906 300.2859146 +22.7830088     2160.471     72.54623      1.710     3.89     4.390826     20.42073     236.7959        25     1.491     0.999  72.57   0
       212    607.6514    488.1890 300.2099762 +22.7082052      821.709     72.38049      2.055     7.42     5.398326     20.42073     74.98975        17     2.056     0.758  81.02   0
       213    892.7113    486.3613 300.2994297 +22.7930259     4330.258     72.36205      1.449     2.61     4.386393     20.42073     555.8158        32     1.249     1.120 -74.21   0
       214    446.0188    488.2914 300.1596073 +22.6598203     340.8119      72.3067      1.403     3.93     4.705617     20.42073     39.23888         9     0.863     0.815 -64.26   0
       215    393.8173    489.3141 300.1430262 +22.6444746     223.6494     72.34361      1.303     2.90     4.559173     20.42073      42.1436         6     0.725     0.619  82.94   0
       216    553.3245    482.4718 300.1949099 +22.6902915     255.0554     72.45419      1.293     2.76     5.399114     20.42073     46.68423         5     0.716     0.468 -18.80   0
       217    984.5131    476.9861 300.3311140 +22.8178041     776.1207     72.32516      1.549     3.18     4.482268     20.42073     81.36979        14     1.062     0.872  74.30   0
       218    124.6120    476.5139 300.0634438 +22.5601210     979.1248     72.32516      1.510     3.19     4.475219     20.42073     105.4574        16     1.101     0.919   8.53   0
       219    785.3430    470.3616 300.2711420 +22.7562865     410.8635     72.38049      1.254     2.84     4.385477     20.42073     52.61024         5     0.731     0.454  75.84   0
       220    391.2302    470.1720 300.1484355 +22.6382012     192.8333     72.38049      1.311     4.28     4.625533     20.42073     34.68371         5     0.745     0.702 -40.39   0
       221    145.5604    468.5530 300.0725407 +22.5641150     219.4014     72.41735      1.448     4.75     4.525539     20.42073     35.77887         5     1.120     0.583  55.66   0
       222    117.4891    466.5856 300.0644524 +22.5551357     437.2503     72.32516      1.440     3.22     4.511187     20.42073     53.32382         9     0.890     0.772  21.85   0
       223    980.6173    466.3724 300.3333443 +22.8135857     353.1869     72.38049      1.518     4.84     4.480603     20.42073     38.34619         8     0.982     0.677   8.89   0
       224    724.8207    460.8362 300.2553677 +22.7354290     440.4904     72.39892      1.297     2.61     4.486614     20.42073     76.49403         9     0.883     0.722  44.61   0
       225    613.7172    458.5260 300.2214961 +22.7014974      298.083     72.49102      1.381     4.14     5.179818     20.42073     35.64186         7     1.053     0.465 -11.10   0
       226    666.2300    456.8405 300.2384050 +22.7167377     906.6655     72.39892      1.497     2.58     4.783833     20.42073     108.8157        15     0.999     0.861 -10.96   0
       227    644.8251    455.1289 300.2322910 +22.7098364     152.3192     72.38049      1.205     4.32     4.932426     20.42073     33.20053         5     0.767     0.692  51.88   0
       228    980.6746    449.5473 300.3388244 +22.8087637     597.6946     72.38049      1.379     2.55     4.488102     20.42073      78.3427        10     0.841     0.772  32.78   0
       229    726.8617    449.1166 300.2598085 +22.7326712     861.5212     72.47261      1.295     2.40     4.483935     20.42073     124.8511        10     0.844     0.718 -10.47   0
       230    884.0270    445.3916 300.3100220 +22.7786458     1054.867     72.38049      1.410     2.90     4.384007     20.42073     117.5585        16     1.008     0.927  49.46   0
       231    868.3243    441.6237 300.3063476 +22.7728626     727.6288     72.41735      1.579     2.58     4.379647     20.42073     85.31068        12     0.952     0.788 -33.53   0
       232    849.1096    441.7181 300.3003244 +22.7671387     346.3765     72.49102      1.377     3.54     4.378663     20.42073     46.66476         5     1.051     0.442  -5.18   0
       233    612.6579    439.4780 300.2273495 +22.6957060     3201.249     72.41735      1.357     2.40     5.035909     20.42073     469.4884        23     1.055     1.048  37.64   0
       234    972.9093    438.8449 300.3398757 +22.8033619     546.4066     72.36205      1.466     4.30     4.479027     20.42073     63.55445        10     1.026     0.732  62.24   0
       235    719.8286    433.1891 300.2627866 +22.7259870     121.8468     72.38049      1.232     3.75     4.528825     20.42073     29.70163         5     0.930     0.434 -45.48   0
       236     88.7806    430.1775 300.0673462 +22.5360784     402.8257     72.38049      1.499     3.80     4.553515     20.42073     39.46094         7     1.027     0.500  24.71   0
       237    452.5055    426.4952 300.1816871 +22.6440105     468.3909     72.54623      1.390     2.65     4.795358     20.42073     49.60316         6     0.829     0.444 -70.91   0
       238   1023.3692    418.7972 300.3621301 +22.8126932     966.7675     57.98914      1.201     2.62     4.578968     20.42073     156.6741        13     1.097     0.703 -89.36  24
       239    895.8988    418.5223 300.3224471 +22.7744718      517.874     72.50942      1.308     3.33     4.396089     20.42073     77.46369        10     1.016     0.759  69.76   0
       240    982.4489    417.4587 300.3497946 +22.8000649     1013.468     72.43578      1.490     3.59     4.505389     20.42073     112.9641        19     1.159     1.025 -38.14   0
       241    631.8482    415.4796 300.2411179 +22.6945548     296.6848     72.39892      1.276     3.37       4.8475     20.42073     45.16166         6     0.750     0.648  48.76   0
       242    723.2899    413.5788 300.2702308 +22.7213857         1022      72.3067      1.209     2.44     4.525094     20.42073     139.0756        15     1.030     0.817 -44.52   0
       243    518.9147    413.7116 300.2065141 +22.6602280       281.09     72.50943      1.294     2.67      4.85088     20.42073      64.0496         9     0.932     0.772  81.63   0
       244    227.4903    411.6612 300.1164837 +22.5723346     571.8412     72.47261      1.169     2.41     4.807671     20.42073     93.45689        11     0.873     0.764  55.93   0
       245    289.5727    407.2454 300.1372282 +22.5896691     3810.383     72.41735      1.476     2.75     4.803135     20.42073     452.1199        33     1.232     1.135  54.24   0
       246   1022.5581    406.0557 300.3660127 +22.8087852     3875.316     62.29362      1.451     3.14     4.580069     20.42073     396.3868        26     1.270     1.000  74.12  24
       247    236.7666    401.9810 300.1225105 +22.5723344     7500.699     72.38049      1.494     2.93     4.816742     20.42073      928.778        38     1.267     1.142  45.07   0
       248    615.5321    401.7923 300.2404770 +22.6857354      315.559     72.36205      1.169     2.13     4.867594     20.42073     52.78113         5     0.677     0.487  76.90   0
       249   1002.7189    397.0965 300.3627292 +22.8002723     1737.343     72.52782      1.498     2.97      4.54364     20.42073     202.8661        23     1.177     1.062 -62.22   0
       250    377.5795    396.3202 300.1681583 +22.6128972     5016.294     72.38049      1.380     2.51     4.832946     20.42073     644.0009        30     1.113     1.082  51.58   0
       251    621.7940    393.1162 300.2452437 +22.6851166     18800.21      72.3067      1.348     2.54      4.86431     20.42073     2365.633        57     1.276     1.182  21.37   0
       252    639.3771    393.2672 300.2506730 +22.6904245     825.8674     72.36205      1.657     4.73     4.851693     20.42073     75.08665        16     1.455     0.757 -36.57   0
       253    469.2789    394.6627 300.1972408 +22.6398884     405.8561     72.47261      1.093     2.24     4.803876     20.42073     48.53497         5     0.681     0.464 -10.54   0
       254    865.2051    389.4320 300.3223155 +22.7569202     301.6182     72.36205      1.201     2.86     4.395617     20.42073     45.15604         5     0.716     0.465  18.31   0
       255    818.7063    383.6712 300.3096843 +22.7413475    -70.74278     72.49102      1.304     3.93     4.411376     20.42073     55.39289         9     0.998     0.733 -85.58   0
       256    241.9593    380.0736 300.1312350 +22.5675987     494.2332     72.36205      1.666     3.98       4.8354     20.42073     58.30808        10     1.069     0.853 -64.00   0
       257    955.5185    375.8267 300.3549039 +22.7800318       790.45     72.36205      1.620     3.27     4.458031     20.42073     81.81641        15     1.052     0.991 -69.03   0
       258    665.0475    374.3945 300.2647966 +22.6926850     213.0095     72.36205      1.135     4.45     4.852139     20.42073     33.48032         6     0.835     0.674 -30.21   0
       259    176.5432    373.1019 300.1131532 +22.5459945     1955.183     72.47261      1.424     2.69     4.915178     20.42073     263.0681        23     1.152     1.002   3.40   0
       260    562.4595    362.4797 300.2367023 +22.6585447     6564.128     72.43578      1.347     2.35     4.831736     20.42073     887.0653        36     1.153     1.099  84.53   0
       261    976.3041    363.1214 300.3655127 +22.7825958     1242.801     72.49102      1.498     3.29      4.49446     20.42073     125.1532        18     1.125     0.968  19.57   0
       262    277.3206    361.8469 300.1481490 +22.5729586     681.9424     72.39892      1.428     3.16     4.818399     20.42073     76.14642        13     1.007     0.909  12.85   0
       263    822.9146    354.7119 300.3203944 +22.7342791     408.7525     72.50943      1.161     1.94     4.431997     20.42073     67.57076         7     0.688     0.622   5.46   0
       264    134.8797    355.0202 300.1060662 +22.5283166     618.7554     72.38049      1.508     3.72     4.955215     20.42073     74.69733        10     1.033     0.731 -46.35   0
       265    676.0134    352.8948 300.2751906 +22.6897870     568.8885      72.3067      1.259     2.30     4.855196     20.42073     76.34801         8     0.773     0.643 -19.46   0
       266    766.6931    351.6505 300.3038585 +22.7165724      1159.04     72.45419      1.385     2.52     4.465467     20.42073     153.3446        14     1.092     0.801  56.20   0
       267    469.1538    348.7552 300.2120992 +22.6266594     6180.594     72.41735      1.355     2.47     4.799896     20.42073     810.2666        36     1.208     1.075  56.59   0
       268    861.2012    343.3497 300.3360213 +22.7424687     1506.517     72.36205      1.405     2.88     4.456123     20.42073     182.6146        19     1.124     0.965  89.51   0
       269    958.5513    343.7712 300.3662527 +22.7717180     506.9732     72.39892      1.300     3.08     4.472204     20.42073     71.22768        12     0.975     0.812  39.51   0
       270    453.8291    337.5705 300.2109570 +22.6188558     539.3661     72.34361      1.434     2.89     4.793183     20.42073     72.50504         9     0.923     0.722  82.63   0
       271    537.0492    334.4178 300.2378936 +22.6428706     697.1942     72.41735      2.175     8.14     4.801485     20.42073     74.47858        15     2.360     0.784 -60.12   0
       272    517.2141    333.5215 300.2320071 +22.6366736     284.6802     72.39892      1.213     3.51     4.792922     20.42073     38.80352         5     0.784     0.453 -19.12   0
       273    833.8143    331.0195 300.3314812 +22.7307271     522.3251     72.34361      1.359     3.51     4.520431     20.42073     77.31286        11     0.962     0.800  33.65   0
       274    594.7287    328.4803 300.2577861 +22.6584338     1208.113     72.49102      0.722     1.03     4.858854     20.42073     592.3235         5     0.652     0.315 -56.63   0
       275    356.6877    327.9044 300.1838566 +22.5869837     2542.384     72.56461      1.429     2.72     4.886088     20.42073     322.9934        25     1.139     1.053  47.10   0
       276     75.0989    325.3977 300.0970939 +22.5018950     1113.606     72.26978      1.640     3.21     5.013482     20.42073     102.6145        17     1.169     0.857   9.59   0
       277    325.9993    317.3092 300.1777445 +22.5747473     30117.71     72.25132      1.420     2.71     4.840395     20.42073     3523.578        71     1.332     1.218  63.05   0
       278    304.3656    321.6271 300.1696125 +22.5695073    -21.84582     72.39892      1.017     3.51     4.822018     20.42073      35.5917         5     1.035     0.344  20.40   0
       279    860.7162    315.1500 300.3450200 +22.7342127     1207.114     72.36205      1.310     2.71      4.58191     20.42073     149.3825        15     0.946     0.911  65.83   0
       280    816.2821    312.9807 300.3318669 +22.7202925     259.8113     72.36205      1.146     2.34     4.600799     20.42073     47.45887         5     0.757     0.470  27.24   0
       281    200.1297    304.0981 300.1428758 +22.5332444     545.6562     72.50942      1.655     5.90     4.875018     20.42073     61.36386        13     1.556     0.833 -76.97   0
       282     22.2648    305.0765 300.0872664 +22.4802256     4888.393     72.47261      1.688     3.23     5.366885     20.42073      535.593        38     1.451     1.267  25.17   0
       283    775.7762    303.8660 300.3221945 +22.7055495     544.8527     72.36205      1.348     3.09     4.672531     20.42073     87.82738         9     0.942     0.721 -75.27   0
       284    424.6386    302.6117 300.2132116 +22.6000679     617.9446     72.38049      1.629     4.01     4.796718     20.42073      74.1807        11     1.189     0.700  47.17   0
       285    602.5522    300.0361 300.2694517 +22.6525992     89.42461     72.39892      0.969     3.56     4.867485     20.42073     35.49122         5     0.771     0.593  -4.72   0
       286    736.5333    297.2535 300.3121061 +22.6919034     1966.794     72.41735      1.384     2.62     4.759684     20.42073     248.4196        20     1.036     1.004  34.32   0
       287    544.9938    292.1440 300.2540828 +22.6330984     333.9555     72.36205      1.244     3.62     4.804909     20.42073     54.97617         7     1.067     0.488  39.55   0
       288    951.6371    290.4995 300.3813797 +22.7543237     610.6408     72.38049      1.278     2.84     4.524258     20.42073     68.36986        10     0.893     0.766 -84.69   0
       289     88.8972    287.9675 300.1135249 +22.4952821     658.4711     72.36205      0.455     1.96     5.131868     20.42073     487.7788         5     0.423     0.284 -22.76   0
       290    805.6341    283.0042 300.3382718 +22.7084846     269.3931     72.38049      1.219     3.89     4.708257     20.42073     40.37315         5     0.917     0.474  83.64   0
       291    398.2420    281.5530 300.2118263 +22.5861111     2201.546     72.41735      1.674     3.83     4.798082     20.42073      215.948        26     1.460     0.956  72.67   0
       292    829.4692    276.1389 300.3479313 +22.7136420     377.2193     72.41735      1.320     2.76     4.719395     20.42073     45.14608         5     0.732     0.448  67.57   0
       293    837.4769    274.9232 300.3508228 +22.7156883     531.2748     72.47261      1.176     2.39     4.720986     20.42073     82.24687        10     0.848     0.714   9.87   0
       294    736.5888    272.2691 300.3202284 +22.6847351     212.5317     72.38049      0.996     2.96     4.839657     20.42073      33.8563         5     0.708     0.471 -74.38   0
       295    719.8373    272.1131 300.3150575 +22.6796770     415.1748     72.36205      1.411     4.53     4.860516     20.42073      61.6263         8     1.080     0.651  70.07   0
       296    688.2396    272.0060 300.3052441 +22.6701893     339.8664     72.41735      1.267     4.35     4.899778     20.42073     35.09664         7     0.779     0.692  60.71   0
       297    474.1635    261.0762 300.2421034 +22.6029610     1243.281     72.34361      1.348     2.92     4.734294     20.42073     151.3093        16     1.006     0.896  72.25   0
       298    281.0881    261.0881 300.1820087 +22.5451422     359.4764     72.54623      1.530     3.76     4.829031     20.42073     42.91421         6     0.821     0.652 -87.32   0
       299     46.7965    261.6296 300.1089824 +22.4751025     272.5247     72.34361      1.896     3.85     5.561393     20.42073     40.95972         5     1.049     0.406  15.68   0
       300    326.8162    259.7173 300.1966807 +22.5584450      176.392     72.34361      1.126     3.39      4.79571     20.42073     40.84571         5     0.956     0.348 -48.80   0
       301    559.6099    258.8006 300.2694512 +22.6278892     313.4607     72.19589      1.193     4.23     4.828199     20.42073     34.31709         5     0.971     0.525 -38.45   0
       302    857.1133    254.5306 300.3635617 +22.7156974     398.8129     72.49102      1.461     4.08     4.752808     20.42073     45.78699         6     0.970     0.499   1.00   0
       303    719.0033    253.0539 300.3209798 +22.6739463     2280.897     72.34361      1.371     2.88     4.899295     20.42073     284.1466        24     1.102     1.005 -84.57   0
       304    980.3409    247.6333 300.4042414 +22.7505759     3175.877     72.39892      1.515     2.60     4.709723     20.42073     423.8158        29     1.198     1.154 -50.86   0
       305    527.0104    246.1647 300.2633963 +22.6144972      174.184     72.36205      1.178     3.36     4.791386     20.42073     40.25476         5     0.808     0.491  53.61   0
       306    427.1311    236.7130 300.2353627 +22.5818757     609.8065     72.50943      1.297     2.38     4.754146     20.42073     95.77779         9     0.813     0.689  71.85   0
       307    132.7321    230.8298 300.1456834 +22.4920068     623.6783     72.36205      1.629     5.25     5.208515     20.42073     72.52864        12     1.355     0.958  82.51   0
       308    102.1798    231.1033 300.1360967 +22.4829315     1336.038     72.28825      1.714     3.47     5.464438     20.42073       124.18        19     1.251     0.930 -21.90   0
       309    995.9326    228.0274 300.4154660 +22.7495974     405.1287     72.36205      1.267     3.19     4.833831     20.42073     57.73947         9     0.944     0.717  50.15   0
       310    839.9512    224.9712 300.3677968 +22.7020593      402.781     72.39892      1.305     3.26      4.80054     20.42073      55.0412         8     0.982     0.632  14.92   0
       311    186.1741    223.0540 300.1648221 +22.5057838     385.6843     72.39892      1.387     3.66     4.993728     20.42073      52.3472         9     0.824     0.748 -50.58   0
       312    981.3743    220.7192 300.4132933 +22.7431402     344.1433     72.36205      1.221     3.65     4.819231     20.42073      51.1952         5     1.017     0.377 -15.04   0
       313    862.1490    216.8140 300.3773652 +22.7063534     331.1122     72.39892      1.254     3.65      4.79999     20.42073     58.35757         5     0.806     0.493  40.98   0
       314    790.5930    214.5354 300.3557901 +22.6842898     606.5158     72.36205      1.412     2.96     4.819375     20.42073     82.51897        10     0.980     0.676  57.68   0
       315    381.2065    214.1557 300.2283833 +22.5616409     522.3218     72.39892      1.656     3.27     4.743396     20.42073     59.36112         8     0.896     0.725 -79.07   0
       316    881.6338    208.1433 300.3862545 +22.7096877     352.8857     72.39892      1.268     3.03     4.782762     20.42073     50.04499         5     0.868     0.485  36.44   0
       317    888.8281    203.6277 300.3899630 +22.7105405     2171.736     72.34361      1.453     2.62     4.779116     20.42073     281.8177        26     1.231     1.096  71.68   0
       318    307.2519    200.6814 300.2097389 +22.5356218     2178.741     72.41735      1.421     2.50     5.023071     20.42073     311.3144        25     1.147     1.113  55.18   0
       319    385.2630    195.9347 300.2355545 +22.5576188      1034.82     72.41735      1.473     2.72     4.738864     20.42073     113.5148        17     1.003     0.972  63.06   0
       320    786.9962    195.3278 300.3608976 +22.6776884     493.6475     72.32516      1.339     3.11     4.816042     20.42073     65.68568         8     0.819     0.662  38.77   0
       321    432.4018    192.8604 300.2512245 +22.5708494     349.8786     72.34361      1.668     2.79     4.730678     20.42073     36.27208         5     0.727     0.448 -69.57   0
       322    894.2856    192.3164 300.3953335 +22.7089185     301.5034     72.49102      1.373     4.66     4.786699     20.42073     39.19603         7     1.022     0.604 -38.21   0
       323    202.1104    188.0547 300.1811271 +22.5005028     685.4662     72.41735      1.407     3.05      5.25795     20.42073      78.5026        12     0.940     0.842 -14.44   0
       324    740.0464    185.1042 300.3495760 +22.6607001     1629.321     72.39892      1.314     2.58     4.853047     20.42073     221.5163        19     1.046     0.955  32.71   0
       325    804.8297    184.7225 300.3698971 +22.6799730      584.607     72.36205      1.354     2.37     4.797789     20.42073     108.7644        10     0.991     0.621  40.54   0
       326     54.1203    184.7025 300.1362046 +22.4552050      307.047     72.50943      1.556     4.65     5.685255     20.42073     41.60001         5     0.951     0.644 -72.38   0
       327    223.6268    181.1162 300.1900687 +22.5049541     525.7545     72.38049      1.547     3.29      5.32255     20.42073      64.4915        10     1.055     0.781  27.08   0
       328   1011.2045    177.7403 300.4365403 +22.7396923     836.6219     72.34361      1.429     2.62     4.893686     20.42073     127.8165        13     0.963     0.842  29.19   0
       329    513.1276    177.6310 300.2812978 +22.5906387     331.5602     72.38049      1.202     2.89     4.770401     20.42073     42.10693         7     0.739     0.635 -18.68   0
       330    743.8823    176.5575 300.3535431 +22.6593894     794.7849     72.34361      1.524     2.45     4.832969     20.42073     117.2721        14     1.000     0.890  22.33   0
       331    664.4933    175.5427 300.3291284 +22.6353420     1247.481     72.43578      1.367     2.62     4.933897     20.42073     190.8517        18     1.101     0.933  62.59   0
       332    485.3203    172.0059 300.2744624 +22.5806973     471.8895      72.3067      1.687     2.32     4.726872     20.42073     46.90893         7     0.692     0.660 -63.53   0
       333    860.0299    167.3613 300.3927408 +22.6914913     1428.327     72.38049      1.415     2.74     4.796551     20.42073     191.9438        20     1.123     1.028  51.91   0
       334    590.7913    167.4896 300.3087760 +22.6109690     1044.475      72.3067      1.364     2.30     4.828526     20.42073     138.7269        16     1.015     0.871 -20.96   0
       335    871.8677    166.0278 300.3968653 +22.6946486     941.6494     72.36205      1.752     4.50     4.800263     20.42073     95.37309        20     1.491     0.945  75.17   0
       336    988.7512    156.7573 300.4363369 +22.7269385     1208.842     72.41735      1.560     2.55     4.924846     20.42073     154.6249        17     1.144     0.956 -44.49   0
       337     12.5435    153.1907 300.1335001 +22.4336973     426.1615     72.36205      1.416     2.49     5.820613     20.42073     64.91946         8     0.842     0.625 -35.51   0
       338    222.6645    149.4504 300.2000358 +22.4955674     623.0612     72.43578      1.430     3.49     5.477906     20.42073     90.06549        13     1.109     0.830 -41.39   0
       339     84.5042    144.2321 300.1587690 +22.4526837     2307.793     72.34361      1.610     3.07     5.523383     20.42073     241.9583        26     1.273     1.128  14.77   0
       340    907.5450    141.5850 300.4159192 +22.6982862     733.9828     72.36205      1.378     2.81     4.868819     20.42073     100.6006        12     0.945     0.852  33.08   0
       341     34.7391    141.2946 300.1442540 +22.4369307     432.9658     72.47261      1.217     3.34     5.692614     20.42073     56.36881         6     0.768     0.526 -49.19   0
       342    242.0114    137.5669 300.2099059 +22.4979469     5724.997     72.36205      1.500     2.74     5.512836     20.42073     703.0659        35     1.278     1.145  56.61   0
       343    224.0663    138.9130 300.2038879 +22.4929594     216.0814     72.47261      1.093     3.71     5.478689     20.42073     36.47084         7     0.882     0.534 -44.21   0
       344     26.1295    131.6826 300.1446943 +22.4315904      1355.58     72.50943      1.769     3.55     5.689843     20.42073     145.5531        22     1.353     1.102  51.50   0
       345    225.4726    128.2013 300.2077977 +22.4903026     632.6064     72.26978      1.616     3.83     5.479471     20.42073     76.57063        10     1.095     0.786 -86.05   0
       346    886.1475    119.3524 300.4164522 +22.6854886     3635.543     72.41735      1.479     2.78     4.858418     20.42073     485.5179        31     1.235     1.147  74.79   0
       347    989.9120    118.1428 300.4492183 +22.7161713     2861.877     72.45419      1.525     3.02     5.340558     20.42073     344.3635        30     1.264     1.229 -19.89   0
       348    435.4566    114.3281 300.2776363 +22.5491884     693.7898     72.39892      1.556     3.38     4.697906     20.42073     81.99664        10     1.002     0.794  -1.75   0
       349    188.9864    115.1742 300.2006730 +22.4756319     364.4856     72.38049      1.404     2.91     5.451305     20.42073     51.89981         6     0.886     0.452 -33.13   0
       350    549.8210    112.3227 300.3138987 +22.5828431     381.7498     72.38049      1.547     4.18     4.824531     20.42073      39.9673         7     0.886     0.793 -60.23   0
       351    359.6483    106.1431 300.2566930 +22.5241405     802.6767     72.43578      2.419     4.24     5.260535     20.42073      66.4662        12     1.254     0.791  23.54   2
       352    126.0683    103.2071 300.1849882 +22.4533487     647.7104     72.34361      1.621     3.36     5.441885     20.42073     64.36832        10     0.999     0.890 -56.44   0
       353    486.9138    101.6183 300.2977774 +22.5609370     1742.637     72.32516      1.500     3.10     4.704965     20.42073     199.0721        22     1.193     1.025  57.21   0
       354    415.1301    102.3243 300.2751996 +22.5396525     604.8971     72.45419      1.381     2.46     4.714583     20.42073     72.07932         8     0.773     0.652 -37.97   0
       355    548.4042    101.0883 300.3170990 +22.5791884       292.19     72.28825      1.372     4.24     4.822475     20.42073     56.87694        11     1.135     0.886   7.01   0
       356    230.5291     96.9084 300.2195138 +22.4828244     387.5415     72.52782      1.325     5.14     5.491247     20.42073     51.04882         8     1.057     0.707 -56.16   0
       357    775.5957     91.2373 300.3910903 +22.6443316      533.551     72.41735      1.908     3.47     5.014938     20.42073      40.7991         5     0.732     0.476 -77.59   0
       358    131.9266     87.3422 300.1919516 +22.4505452     206.0803     72.41735      1.353     3.47     5.437126     20.42073     35.22768         5     0.814     0.428 -17.27   0
       359    921.3322     86.1694 300.4381846 +22.6864610     407.6864     72.36205      1.341     3.27      5.09385     20.42073     42.50521         7     0.834     0.599 -60.17   0
       360    767.8029     82.2348 300.3915787 +22.6394103     318.7275     72.38049      1.469     3.66     5.074697     20.42073     48.59547         7     0.948     0.729  62.82   0
       361    671.9922     82.8941 300.3615007 +22.6109371     241.0066     72.26978      1.347     3.95      5.04426     20.42073     33.45916         5     0.848     0.527 -58.88   0
       362    260.9257     81.3960 300.2339967 +22.4874685     5929.878     72.28825      1.534     2.84        5.519     20.42073     702.5263        38     1.344     1.175  64.90   0
       363    112.1337     81.3870 300.1877281 +22.4429058     753.2975     72.32516      1.533     3.03     5.443213     20.42073     87.53512        10     1.038     0.653 -19.70   0
       364    736.7888     72.9209 300.3849290 +22.6274530      284.906     72.36205      0.908     1.76     5.115831     20.42073     62.21349         6     0.685     0.522  40.79   0
       365    276.2844     72.4362 300.2416785 +22.4894922     297.2107     72.36205      1.414     3.95     5.519431     20.42073     48.65766         6     1.005     0.533  31.07   0
       366     23.0523     71.8010 300.1631465 +22.4134679     437.3139     72.34361      1.219     2.14     5.562716     20.42073     63.58469         6     0.718     0.537 -46.58   0
       367    507.1169     66.8672 300.3153321 +22.5569909     6332.395     72.49102      1.425     2.81     4.831963     20.42073     806.9432        36     1.257     1.104  72.18   0
       368    392.0303     66.6370 300.2795759 +22.5224777      788.438     72.39892      1.662     3.71     4.968921     20.42073     85.92144        12     1.103     0.754  69.78   0
       369    564.0566     61.9739 300.3346521 +22.5726235     282.4144     72.38049      1.162     4.92     5.116342     20.42073      40.7834         7     1.042     0.659 -68.42   0
       370    759.7926     56.8007 300.3973248 +22.6296960     791.9176     72.19589      1.492     2.75     5.252832     20.42073     104.3301        12     0.938     0.820  62.77   0
       371    851.9135     55.5363 300.4264596 +22.6568848     610.1555     72.47261      1.375     3.64     5.238796     20.42073     76.18233        10     1.036     0.707  82.63   0
       372    199.9622     51.0627 300.2248649 +22.4604957     553.7281     72.39892      1.501     2.58     5.433849     20.42073     53.51356         7     0.853     0.513  41.21   0
       373    558.4528     49.6725 300.3368931 +22.5674086     471.2946     72.38049      1.549     2.55     5.203623     20.42073     56.40009         7     0.802     0.603  19.58   0
       374    635.4328     47.0033 300.3617403 +22.5896744     6378.122     72.38049      1.416     2.65     5.272799     20.42073     733.0996        37     1.268     1.072  79.75   0
       375    410.2648     45.8993 300.2919723 +22.5219736     1579.677     72.47261      1.486     3.22     4.748594     20.42073     178.8988        21     1.196     0.997  59.04   0
       376    676.7358     44.2827 300.3754927 +22.6012486     849.9553     72.49102      1.399     2.96     5.331389     20.42073     120.1915        18     1.082     1.047  87.22   0
       377    746.6120     41.9228 300.3980374 +22.6214725     493.5154     72.38049      1.853     2.67     5.353471     20.42073     67.03821         5     0.857     0.600  15.65   0
       378    692.8600     40.4209 300.3817694 +22.6049613     579.3212     72.32516      1.296     2.54     5.360724     20.42073     84.24564        10     0.861     0.718 -68.91   0
       379    159.2626     38.2213 300.2163696 +22.4446175     707.0483     72.34361      1.601     3.74       5.4221     20.42073     68.59164        13     1.038     0.984  -9.31   0
       380      6.9777     38.7631 300.1688573 +22.3991619     334.1168     72.39892      1.365     6.04     5.587494     20.42073      39.3306         9     1.288     0.797  68.29  16
       381    962.5971     38.4678 300.4665197 +22.6850690     483.3555     72.36205      1.195     3.07     5.514378     20.42073     70.40352         7     0.921     0.470  12.20   0
       382    731.2679     36.1907 300.3951118 +22.6152334     365.0066     72.38049      1.203     2.99     5.390115     20.42073     64.16245         8     0.906     0.615  23.32   0
       383    679.6670     31.8989 300.3804193 +22.5985627      2724.24     72.47261      1.421     2.80     5.419699     20.42073     349.8946        29     1.256     1.072  87.13   0
       384    320.3427     32.7089 300.2682607 +22.4912635     352.8778     72.43578      1.179     2.81     5.425624     20.42073     59.04448         8     0.880     0.612   3.25   0
       385    694.8584     30.6434 300.3855607 +22.6027460     982.4515     72.36205      1.909     4.64     5.427087     20.42073      80.8503        20     1.496     1.002  54.10   0
       386    766.0552     23.5846 300.4100415 +22.6220113     1568.183     72.36205      1.429     2.62     5.501284     20.42073     217.6545        22     1.171     1.028  61.18   0
       387    262.7850   1015.5126 299.9312354 +22.7562139     2276.895     72.32516      4.721    15.60     40.54047     20.42073       60.012        72     2.895     2.386  65.30  19
       388    704.1541     16.8373 300.3929317 +22.6015544     825.4758     72.41735      1.399     3.65     5.530467     20.42073     103.4251        14     1.129     0.920   1.82   0
       389    167.9047   1018.3875 299.9007960 +22.7285694      692.744      72.3067      2.736     6.56     98.36382     20.42073      34.0248         9     1.454     0.831  87.84  18
       390     83.2974     16.0183 300.1999466 +22.4154871      609.929      72.3067      2.677     5.19     5.469799     20.42073     60.84098        10     1.351     0.636 -18.59   0
       391    745.8386   1013.8521 300.0821776 +22.9005938     349.7512     72.38049      1.804     6.50      3.33345     20.42073     30.33251        10     1.566     0.757  27.72  16
       392    308.4445   1012.6401 299.9463727 +22.7690883     1634.004     72.45419      6.726     6.24     5.951821     20.42073     77.74558        36     1.761     1.536  20.66  16
       393    161.6695   1008.3863 299.9021115 +22.7238307     853.5244     72.39892      2.673    10.45     90.63713     20.42073     52.89749        19     2.156     1.410  49.96   0
       394    213.8157    986.5275 299.9254365 +22.7332092     4182.845     72.38049      8.536    41.21     65.37191     20.42073     90.90836       434     9.223     5.109  82.90  19
