#   1 NUMBER                 Running object number                                     
#   2 X_IMAGE                Object position along x                                    [pixel]
#   3 Y_IMAGE                Object position along y                                    [pixel]
#   4 ALPHA_J2000            Right ascension of barycenter (J2000)                      [deg]
#   5 DELTA_J2000            Declination of barycenter (J2000)                          [deg]
#   6 FLUX_APER              Flux vector within fixed circular aperture(s)              [count]
#   7 FLUXERR_APER           RMS error vector for aperture flux(es)                     [count]
#   8 FLUX_RADIUS            Fraction-of-light radii                                    [pixel]
#   9 FWHM_IMAGE             FWHM assuming a gaussian core                              [pixel]
#  10 BACKGROUND             Background at centroid position                            [count]
#  11 THRESHOLD              Detection threshold above background                       [count]
#  12 FLUX_MAX               Peak flux above background                                 [count]
#  13 ISOAREA_IMAGE          Isophotal area above Analysis threshold                    [pixel**2]
#  14 A_IMAGE                Profile RMS along major axis                               [pixel]
#  15 B_IMAGE                Profile RMS along minor axis                               [pixel]
#  16 THETA_IMAGE            Position angle (CCW/x)                                     [deg]
#  17 FLAGS                  Extraction flags                                          
         1    474.8824     17.5879 300.3326100 +22.5431195     1242.713     72.11915      1.792     3.35     6.114178     20.35219     124.5571        17     1.138     0.960 -67.27   0
         2     47.8100     17.2935 300.1997740 +22.4152079     411.5112     72.08238      1.622     4.45     7.483945     20.35219     50.61438         9     1.148     0.815  63.78   0
         3   1021.9453     12.9794 300.5047427 +22.7053735     2134.885     64.90274      1.719     3.81     7.038815     20.35219     198.3223        28     1.403     1.172 -67.81  24
         4    150.1868      5.3475 300.2354869 +22.4424259     3994.711     72.04559      1.934     3.55     6.989335     20.35219      373.365        46     1.569     1.471  72.12  24
         5    718.3789      6.8095 300.4120030 +22.6128494      583.093     72.11915      1.474     3.01     7.546226     20.35219     66.95894         9     0.851     0.745  -5.44   0
         6    217.0610    975.5411 299.9414056 +22.7410904     7714.248     72.19263      8.082    33.09     43.01537     20.35219        166.9       788    11.367     5.198  62.74  18
         7     66.0175   1011.1230 299.8828528 +22.7059838     4909.659     72.13752     14.900    73.35     76.40013     20.35219     170.1788      1695    14.771    10.106  38.48  27
         8     57.1452    956.5086 299.8978559 +22.6876593      5204.28     72.19263     20.503    35.36     41.18029     20.35219     1313.469      3039    21.101    14.651  -8.21  19
         9    145.7218    978.6717 299.9181943 +22.7205893     1998.226     72.24769      6.098    16.63     63.08951     20.35219     50.04683        68     3.671     2.094  77.95   1
        10    905.4041    973.7021 300.1565017 +22.9468807     799.8754     72.04559      2.592     7.21     4.849365     20.35219      48.8951         7     1.726     0.844 -58.42   2
        11    712.3358    989.7888 300.0910408 +22.8936613     709.6262     72.06399      2.845     9.23     4.154122     20.35219     40.62676        18     1.570     1.513  58.82   0
        12    612.5680    989.0244 300.0601865 +22.8635433     9743.484     72.13752      2.410     5.92     4.720181     20.35219     420.2428        54     1.800     1.698  22.80   3
        13    630.1806    955.8675 300.0764604 +22.8593010     6901.312     72.10077      2.138     4.91     4.710537     20.35219     350.7944        53     1.668     1.577   2.95   0
        14    474.6986    977.7122 300.0209070 +22.8189696     413.1321      72.3027      1.928     4.56     4.760969     20.35219     31.44416         5     0.824     0.716 -14.16   0
        15    151.1327    998.9865 299.9132703 +22.7280395     3201.852     72.13752      6.636    23.36      80.3223     20.35219     72.52248       208     5.051     3.846  62.53  18
        16    538.7827    946.4103 300.0510519 +22.8291932     1591.448     72.10077      2.005     5.67      4.75217     20.35219     90.14793        25     1.390     1.273  22.33   0
        17    433.5004    942.8830 300.0194021 +22.7966212     1042.887      72.3027      2.204     6.75     4.912911     20.35219     71.30236        18     1.667     0.948  68.72   2
        18    363.0507    940.9240 299.9981015 +22.7749374     6443.993     72.13752      2.125     4.92     5.011237     20.35219     388.4763        51     1.637     1.558 -19.17   0
        19    396.7000    927.8220 300.0128394 +22.7812655      488.375     72.08238      2.283     5.12     5.018485     20.35219     31.13753         7     1.031     0.719  84.19   0
        20    618.5096    986.9598 300.0627099 +22.8647313     6490.668     72.13752      1.832     5.27     4.695173     20.35219     443.4003        36     1.744     1.066  85.26   3
        21    616.0000    986.9882 300.0619185 +22.8639873     4104.358     71.93512      1.481     4.98     4.708062     20.35219     364.4114        17     1.699     0.633  87.92   3
        22     55.6782    918.0983 299.9098891 +22.6762026     3238.103     72.24769     12.142    49.91      21.9618     20.35219     79.49742       740    10.301     6.711 -34.48  19
        23    909.7102    919.9796 300.1753176 +22.9327340     2219.521     72.08238      2.262     5.96     4.917821     20.35219     103.3615        39     1.788     1.433 -32.05   0
        24    698.6131    908.1313 300.1133182 +22.8660967     810.2098      72.1559      2.161     7.83      4.79818     20.35219     53.92831        15     1.975     0.927  49.40   0
        25    732.9127    903.1536 300.1256325 +22.8749429     1113.283     72.10077      2.043     5.65     4.744039     20.35219      66.3875        22     1.452     1.226 -73.47   0
        26    334.6171   1000.0400 299.9700236 +22.7833760     535.9133      72.1559      2.247     3.35     5.322371     20.35219     37.04359         5     0.866     0.481  84.51   0
        27    755.3762    896.6436 300.1347549 +22.8798022     11226.87     72.19263      2.014     4.59     4.810246     20.35219     568.4694        55     1.576     1.544 -17.59   0
        28    946.7703    896.6522 300.1944703 +22.9371284     435.2592      72.1559      1.932     6.07     5.054332     20.35219     31.01426         8     1.983     0.523  48.91   0
        29    800.5051    896.5283 300.1488689 +22.8932875     462.5613     72.24769      1.852     6.65     4.874661     20.35219     32.18693        12     1.262     0.984   4.37   0
        30    525.3458    993.5079 300.0315475 +22.8386867     2288.604     72.19263      2.111     5.24     4.753281     20.35219     119.9218        36     1.633     1.365 -23.31   0
        31    807.3552    884.4149 300.1549444 +22.8918590     449.6416      72.1559      1.781     4.76     4.955822     20.35219     30.94827         6     1.352     0.475 -39.97   0
        32    460.6459    884.4556 300.0468547 +22.7879856     398.6721     72.17426      1.803     3.96     4.807195     20.35219     36.33239         7     0.879     0.832  53.64   0
        33    764.0131    878.7321 300.1432724 +22.8772438     1407.433      72.1559      2.078     5.24     4.954909     20.35219     84.47662        28     1.446     1.315 -32.66   0
        34    802.2286    872.1091 300.1573460 +22.8867878     834.5361     72.11915      2.513     7.94     5.023043     20.35219     48.27013        15     1.719     1.026 -78.05   0
        35    911.4453    868.9701 300.1924451 +22.9185947      405.462     72.17426      1.996     4.95     5.056923     20.35219     30.96818         6     1.088     0.637  34.26   0
        36    851.4067    863.8503 300.1753740 +22.8991437      420.635     72.13752      1.609     4.21     5.068354     20.35219     37.56524         7     1.071     0.471  81.68   0
        37    702.1653    862.9302 300.1291221 +22.8541769     702.0717     72.13752      2.419     7.11     5.008931     20.35219     43.30686        15     1.243     1.139  18.29   0
        38    414.3419    858.6260 300.0408303 +22.7666907     4107.696     72.13753      1.910     4.42      5.12394     20.35219     291.4206        38     1.487     1.356 -21.67   0
        39    712.8209    859.3189 300.1336188 +22.8563316     601.2009     72.10077      1.852     5.68     5.023272     20.35219      49.6933        11     1.329     0.685  57.13   0
        40    458.6365    847.4985 300.0582432 +22.7767725     432.2701     72.13752      1.432     3.46     4.903181     20.35219     26.74538         5     1.106     0.312 -69.82   0
        41    209.2006   1001.9421 299.9303733 +22.7463064     1711.483     72.08238      3.387    10.62     64.18256     20.35219     68.83176        42     2.410     1.796  31.71   1
        42    140.3745    843.9341 299.9603380 +22.6803315     853.6146     72.11915      2.303     7.04     8.374348     20.35219     55.77854        13     1.447     0.959 -88.99   0
        43    116.9114    841.0151 299.9539891 +22.6724571     1512.289     72.08238      2.047     4.46     8.490578     20.35219     117.0007        29     1.533     1.339  23.49   0
        44    988.5233    830.8450 300.2288996 +22.9307147     2097.417     72.11915      2.091     5.18     5.239683     20.35219     107.2848        33     1.533     1.418 -10.86   0
        45    942.8715    829.1490 300.2151995 +22.9165594     2123.492     72.13752      2.004     5.14     5.251263     20.35219     156.2469        30     1.512     1.311 -42.20   0
        46    726.3636    823.3359 300.1495390 +22.8500507     646.8564     72.13753      1.856     6.12     5.045188     20.35219     38.18771        13     1.174     0.998  15.95   0
        47    149.4495    822.5364 299.9701156 +22.6769132     418.1578     72.19263      1.685     5.04     7.004044     20.35219     34.83627         7     1.197     0.777  67.03   0
        48    594.4705    816.7894 300.1105478 +22.8086581     4709.694     72.11915      1.809     3.99     4.940536     20.35219     340.2316        39     1.442     1.326  -7.05   0
        49    396.7845    814.0372 300.0498561 +22.7486267     601.9088     72.13752      1.678     5.38     5.142538     20.35219     45.24268        13     1.199     0.972 -52.06   0
        50    144.5356    810.4647 299.9725104 +22.6719757     1419.654     72.19263      1.958     4.75       6.2531     20.35219     97.86009        26     1.478     1.237  38.46   0
        51    615.1059    809.4434 300.1193672 +22.8127306     733.9984     72.13752      1.934     4.33     4.971153     20.35219     54.52953        16     1.223     0.952  -1.36   0
        52    164.8379    807.2406 299.9798736 +22.6771385     349.1653     72.21098      1.481     3.51     5.970829     20.35219     36.04781         5     1.123     0.316  79.87   0
        53    987.5547    797.5473 300.2394207 +22.9208525     1086.595      72.1559      1.965     6.76     5.268587     20.35219     67.47978        23     1.585     1.215  39.57   0
        54    770.5106    796.6327 300.1719870 +22.8556008     4337.937     72.10077      1.882     4.06     5.069463     20.35219     284.2412        38     1.415     1.369 -15.33   0
        55    178.8681    790.8890 299.9895522 +22.6766531     418.7282     72.28437      1.563     5.42     5.591543     20.35219     59.77398         9     1.518     0.819 -21.01   0
        56    487.4393    789.1624 300.0861761 +22.7686529     582.9666     72.21098      1.871     5.98     5.074843     20.35219      45.5198        11     1.078     0.934  57.14   0
        57    134.0193    786.8569 299.9769113 +22.6620477     999.8713     72.13752      1.946     5.53     5.692955     20.35219     69.66612        22     1.455     1.296  12.53   0
        58    549.4379    782.6503 300.1076092 +22.7853600       458.49     72.13752      1.685     4.52     4.875408     20.35219     44.44681         7     1.096     0.531 -45.09   0
        59    283.4961    778.9679 300.0259838 +22.7046002     53258.57     72.10077      1.895     3.89     5.221746     20.35219     3761.044       103     1.633     1.582  -5.88   0
        60    954.3009    777.7257 300.2354815 +22.9051991     768.8267     72.26603      1.887     6.21     5.379715     20.35219     49.49168        18     1.308     1.179 -80.19   0
        61    541.5934    778.1854 300.1066158 +22.7817272     1812.994     72.04559      1.929     3.75     4.866345     20.35219     130.5496        24     1.293     1.119  -7.72   0
        62    212.2707    777.1766 300.0044006 +22.6827328     503.9849      72.1559      1.698     4.07     5.493583     20.35219     49.57959         7     0.884     0.563 -51.18   0
        63    258.0207    775.8096 300.0190814 +22.6960565     325.5985     72.11915      2.055     3.89     5.330253     20.35219     25.51581         5     0.898     0.735   0.11   0
        64    570.3548    774.2188 300.1168675 +22.7892051     812.0786     72.17426      1.650     4.10     4.911443     20.35219     92.26389        15     1.185     0.919  49.17   0
        65    581.6063    772.6891 300.1208711 +22.7921367     582.2889     72.04559      1.673     5.11     4.941793     20.35219     52.66198        17     1.263     1.099  11.55   0
        66    686.8279    769.2414 300.1547920 +22.8226664     455.5053      72.1559      1.704     6.04     4.992421     20.35219     36.84842         9     1.074     0.956 -32.98   0
        67    724.2389    759.3839 300.1696611 +22.8310391     712.2053      72.1559      1.923     6.80     5.045585     20.35219     60.40458        15     1.208     1.073 -51.98   0
        68    333.2428    756.2451 300.0488527 +22.7129887     31554.65     72.19263      1.860     3.68     5.247348     20.35219     2636.368        82     1.559     1.507   8.27   0
        69    347.5112    756.9033 300.0530810 +22.7174543     1957.645     72.32103      1.812     3.74     5.245139     20.35219      162.338        30     1.357     1.252 -12.14   2
        70    344.7534    750.7860 300.0542101 +22.7148714      607.594      72.1559      1.705     5.44     5.258397     20.35219     45.09615        10     1.129     0.739  70.44   3
        71    856.4497    752.4938 300.2131422 +22.8686503     2826.466     72.19263      1.898     4.03     5.437711     20.35219     224.2498        34     1.433     1.360 -57.02   0
        72    614.1479    748.2950 300.1389406 +22.7948776     769.7947     72.21098      1.646     3.53     5.035014     20.35219     89.19868        15     1.209     0.824 -16.54   0
        73    450.8468    748.6624 300.0879382 +22.7460568     569.9648      72.1559      2.079     3.84      5.06567     20.35219     47.47971         8     0.927     0.748 -37.87   0
        74    215.9694    747.5695 300.0151718 +22.6753437     781.2802     72.11915      1.817     5.73     5.474096     20.35219     56.13435        17     1.373     1.090  47.72   0
        75    461.4576    743.1208 300.0930439 +22.7476448     832.8998     72.17426      1.875     4.74     5.036395     20.35219     69.00193        15     1.268     0.871 -18.48   0
        76     21.4684    743.2985 299.9560650 +22.6157961     428.2755     72.22934      1.419     3.97      5.39597     20.35219     47.83188         7     1.279     0.353 -73.32   0
        77    862.5419    740.0453 300.2190883 +22.8668961     548.4062     72.17426      1.797     5.85     5.498767     20.35219     42.06946        13     1.340     0.975 -83.32   0
        78    363.5816    739.4805 300.0637455 +22.7172683     396.4754     72.13753      1.951     5.38     5.258183     20.35219     32.94168         6     1.165     0.700  41.34   0
        79     49.7253    737.6160 299.9666966 +22.6226399     474.6684     72.13752      1.537     3.14     5.440522     20.35219     52.19839         5     0.933     0.404  76.99   0
        80    840.9856    735.9443 300.2136947 +22.8592632     248.6997     72.11915      1.789     3.69     5.382939     20.35219     30.10457         5     1.030     0.380  33.04   0
        81    213.8424    733.1228 300.0192038 +22.6705592     464.7512     72.10077      1.781     6.19     5.477164     20.35219     33.59408        11     1.121     0.961  26.40   2
        82    536.8391    722.8275 300.1231222 +22.7644018     414.8038      72.1559      1.696     5.46     4.935736     20.35219      38.4373         9     1.217     0.794 -27.12   0
        83    506.4735    721.4583 300.1141058 +22.7549110      640.842     72.17426      1.701     5.49     5.040885     20.35219     48.38399        12     0.992     0.873  16.83   0
        84    922.8999    717.8783 300.2451277 +22.8785933     4767.831     72.26603      1.912     4.05     5.719064     20.35219     270.3924        44     1.576     1.397 -27.67   0
        85    528.0998    718.8203 300.1217010 +22.7606325     1383.987     72.06399      1.613     3.72     5.000089     20.35219     124.5547        22     1.262     1.070 -31.52   0
        86    415.7633    720.6736 300.0861051 +22.7275058     290.6372     72.08238      1.227     3.36     5.177734     20.35219     33.09617         5     1.142     0.286 -55.60   0
        87    911.2474    709.3202 300.2442713 +22.8726447     1707.369      72.1559      1.865     4.05     5.726088     20.35219     124.7884        26     1.342     1.195  -4.45   0
        88    274.3169    702.7001 300.0479068 +22.6799535     894.5117      72.3027      1.816     4.68      5.39599     20.35219      81.9134        16     1.255     0.987   5.95   0
        89    942.7040    699.5042 300.2572791 +22.8792386     1648.431      72.3027      1.900     4.46     5.712718     20.35219     128.7805        29     1.417     1.346  44.82   0
        90    737.5739    700.4827 300.1929579 +22.8181060     2480.543     72.11915      1.791     3.96     5.193676     20.35219     177.8765        31     1.386     1.217  21.52   0
        91    819.9673    686.5464 300.2231864 +22.8387709     658.2324      72.1559      1.942     5.24     5.505387     20.35219     43.65953        10     1.270     0.610  38.68   0
        92    123.6921    686.3750 300.0063448 +22.6301138     463.0256     72.08238      1.752     3.81     5.608757     20.35219      53.8236         9     1.102     0.582 -77.92   0
        93    856.1662    677.4088 300.2374493 +22.8469813     147694.5     72.13752      1.789     3.71      5.76847     20.35219     10519.82       159     1.642     1.544 -52.78   0
        94    618.9248    681.1682 300.1622386 +22.7770222     344.4977     72.13752      1.373     4.53     5.344023     20.35219      40.5699         8     0.921     0.634  45.15   0
        95   1003.0092    679.4124 300.2826334 +22.8915106     1197.026     72.02719      1.773     4.20     5.721259     20.35219     96.87831        24     1.425     1.085   2.44   0
        96    708.5886    677.7202 300.1913135 +22.8028844     892.9548     72.11915      1.950     4.18     5.209133     20.35219     65.67802        16     1.192     0.939   3.01   0
        97    888.5468    670.3593 300.2498440 +22.8546479     495.5488     72.11915      1.812     5.30     5.845319     20.35219     45.24713        11     1.142     0.922 -17.23   0
        98    542.0711    665.9219 300.1432389 +22.7496215     1646.454     72.24769      1.644     3.35     5.505333     20.35219      162.748        28     1.546     1.197  48.56   0
        99    723.6370    663.4192 300.2006518 +22.8032804     9598.618      72.1559      1.713     3.46     5.285908     20.35219      844.284        45     1.367     1.335 -65.72   0
       100    206.2166    664.5825 300.0390960 +22.6485975     325.0993     72.11915      1.592     3.47     5.570228     20.35219     24.89514         5     0.789     0.441 -19.68   0
       101    225.0631    658.2178 300.0470276 +22.6524193     4905.985     72.11915      1.806     3.64     5.570228     20.35219     449.2095        39     1.393     1.360  12.96   0
       102    307.1057    656.4075 300.0731498 +22.6764886     1165.619     72.02719      1.689     3.54     5.484232     20.35219     113.1047        20     1.207     1.047  11.78   0
       103    182.7791    653.9980 300.0352416 +22.6385334      401.413     72.06399      1.627     4.78     5.570228     20.35219     42.26659         8     1.126     0.574 -23.00   0
       104    515.4943    652.0509 300.1394633 +22.7376752     778.8345     72.21098      1.606     3.65     5.598846     20.35219      72.6909        14     1.036     0.910  24.29   0
       105    507.0666    644.0984 300.1394204 +22.7328660     3163.979     72.22934      1.611     3.29     5.628344     20.35219     272.5674        29     1.263     1.195 -24.29   0
       106    497.3202    637.8975 300.1383979 +22.7281649     1483.834     72.26603      1.676     3.31     5.624888     20.35219     138.5748        20     1.155     1.035 -25.11   0
       107    891.0392    636.2986 300.2616856 +22.8456007     567.3272     72.13752      1.763     7.94     5.882974     20.35219     42.75399        16     1.608     1.097  29.07   0
       108    160.8069    634.3574 300.0347846 +22.6263086     653.6107      72.1559      1.551     4.30     5.570228     20.35219     58.84222        11     1.148     0.696 -49.76   0
       109    174.9941    632.6242 300.0397611 +22.6300637      659.861     72.11915      1.689     3.49     5.570228     20.35219      71.6756        11     1.074     0.872 -27.92   0
       110    943.8636    629.3627 300.2804260 +22.8594166     443.0807     72.13752      1.421     5.88     5.960836     20.35219     49.53339         9     1.066     0.935  74.31   0
       111    422.0806    627.5627 300.1183174 +22.7026558     1850.273     72.10077      1.646     3.25     5.514334     20.35219     171.7177        25     1.217     1.158 -51.97   0
       112    201.3379    629.1182 300.0490959 +22.6369535     443.0747     72.22934      1.489     4.64     5.570228     20.35219     40.12033         7     0.987     0.620 -42.40   0
       113    997.8890    625.3626 300.2985916 +22.8744340     796.4196     72.11915      1.777     4.81     5.999331     20.35219     62.48332        15     1.249     0.940  60.09   0
       114    455.7379    627.0327 300.1289727 +22.7125869     303.2283     72.13752      1.501     4.06     5.559215     20.35219     42.43298         5     1.098     0.429 -20.10   0
       115     76.0172    622.2260 300.0123520 +22.5974080     19820.76      72.1559      1.982     3.88     6.052338     20.35219     1654.635        72     1.635     1.566  22.82   0
       116    507.1346    622.8719 300.1463355 +22.7267881     1070.671     72.17426      1.674     3.84     5.742819     20.35219     88.25762        20     1.214     1.079  35.45   0
       117    542.1439    622.2527 300.1574450 +22.7370966     202.8399     72.17426      1.403     4.39     5.948925     20.35219     32.65045         7     0.925     0.593 -30.44   0
       118    925.1797    609.4467 300.2810622 +22.8480975     1082.536     72.19263      1.779     4.13     5.996005     20.35219     90.51093        21     1.372     1.042  25.56   0
       119     22.0884    606.4833 300.0006954 +22.5767210     1406.384     72.24769      2.151     5.63      6.14122     20.35219     84.42625        28     1.492     1.369 -56.17   0
       120    791.8676    607.2444 300.2401783 +22.8075611     496.2431     72.11915      1.727     6.55     5.790401     20.35219     37.05063        12     1.131     1.063  -5.25   0
       121     89.4341    607.0294 300.0214591 +22.5970682     533.4585      72.1559      2.506     3.77     6.138471     20.35219     32.57908         6     0.823     0.495  88.25   0
       122    470.3317    604.0444 300.1409842 +22.7103546     475.4373     72.10077      1.688     4.62     5.650728     20.35219     49.44281         7     1.008     0.600 -11.39   0
       123    864.8718    602.0021 300.2646582 +22.8279068      863.308     72.08238      2.031     7.18     5.866137     20.35219     53.05598        21     1.653     1.188  -8.79   0
       124    427.2008    595.9623 300.1301740 +22.6951122     754.8322     72.13752      1.642     3.49     5.617192     20.35219     72.62702        13     1.086     0.820  -0.11   0
       125    575.0063    594.5329 300.1766880 +22.7389739     533.3014     72.11915      1.626     3.83     6.182577     20.35219     52.87534         9     1.004     0.735  -3.40   0
       126    622.2224    592.9072 300.1919326 +22.7526466     529.0158     72.06399      1.916     1.90     6.119404     20.35219     61.20739         5     0.863     0.704  -1.23   0
       127    592.3746    591.4795 300.1830926 +22.7432979     1462.381     72.11915      0.906     5.67     6.224964     20.35219     827.9994        15     1.057     0.856  78.70   0
       128    471.5148    591.9010 300.1452960 +22.7072203     984.5535      72.3027      1.730     4.90     5.730662     20.35219     75.26521        16     1.359     0.838   2.56   0
       129    905.2373    587.4927 300.2819673 +22.8358158     3312.296     72.13752      1.702     3.37     5.967213     20.35219     271.5161        31     1.329     1.189   5.02   0
       130    436.9710    587.0255 300.1361190 +22.6954718     1699.622     72.13752      1.564     3.32     5.660959     20.35219     148.3021        26     1.249     1.186 -63.21   0
       131   1003.3035    585.6986 300.3131636 +22.8646459     655.3704     72.32103      1.756     4.70     6.069136     20.35219      55.4502        12     1.182     0.909 -57.46   0
       132      1.1178    580.5388 300.0025999 +22.5629872     821.9646      54.9494      1.189     3.65     6.187588     20.35219     150.6388         9     1.355     0.317  87.40  24
       133    944.6464    577.6696 300.2974581 +22.8447844     348.5062     72.11915      1.688     2.92     6.019499     20.35219     47.87569         5     0.740     0.450  13.45   0
       134    557.5428    575.3286 300.1774814 +22.7282252     257.6113      72.1559      1.473     5.65     6.147804     20.35219     25.62285         6     0.971     0.926  -3.67   0
       135    300.2789    573.7280 300.0978739 +22.6506989     9083.164     72.24769      1.704     3.43     5.706062     20.35219     906.3608        46     1.372     1.338  -2.14   0
       136    422.7791    570.8574 300.1369485 +22.6865755     9145.088     72.13752      1.618     3.25     5.639149     20.35219     887.6343        47     1.330     1.299  27.41   0
       137    834.5507    565.0663 300.2671911 +22.8082107     1903.533     72.11915      1.648     3.42     5.903103     20.35219     156.8072        25     1.290     1.067 -84.54   0
       138    919.1708    562.5331 300.2944211 +22.8328075     12694.35     72.13752      1.754     3.47     5.998914     20.35219     1027.118        54     1.449     1.394 -46.97   0
       139    483.3690    560.4701 300.1591944 +22.7017404     11647.93     72.13753      1.627     3.01     5.994731     20.35219     1198.831        52     1.332     1.330 -63.29   0
       140    210.7577    555.8865 300.0758054 +22.6187493     1361.302     72.11915      1.692     4.05      5.94368     20.35219     135.8584        20     1.238     1.098 -25.41   0
       141    653.1780    556.5271 300.2133956 +22.7514596     508.5027     72.17426      1.569     3.24     6.034377     20.35219     65.04279         6     0.830     0.512 -36.78   0
       142    369.2063    555.6044 300.1252174 +22.6661447     359.5426     71.99038      1.617     3.42     5.770219     20.35219     35.76221         5     0.731     0.463 -16.11   0
       143    457.5459    553.8232 300.1533081 +22.6920959     493.5479      72.1559      1.695     3.60     5.886206     20.35219     65.38959         8     1.091     0.524 -21.71   0
       144    415.0401    548.5748 300.1417727 +22.6778557     4465.052     72.17426      1.620     2.99     5.630165     20.35219     428.5507        32     1.311     1.182  54.22   0
       145    758.0741    548.9222 300.2485752 +22.7806772     688.5204     72.24769      1.509     3.57     5.821176     20.35219     68.23502        13     1.080     0.845 -11.01   0
       146    393.4061    546.9845 300.1355516 +22.6709181     1244.534     72.04559      1.567     2.99     5.710283     20.35219     134.8853        18     1.075     1.038 -36.43   0
       147    147.9534    546.5065 300.0593109 +22.5972337     794.4942      72.1559      1.992     3.94     5.667268     20.35219      58.1429        14     1.206     0.807 -11.18   0
       148    834.8240    544.3926 300.2739889 +22.8023477     1546.438     72.13752      1.691     3.66     5.929724     20.35219     124.1054        23     1.302     1.072 -41.74   0
       149     81.4806    544.6555 300.0392367 +22.5767784     337.3916     72.17426      1.515     4.62       6.2122     20.35219     40.97499         7     0.993     0.610 -18.76   0
       150    531.6940    536.2372 300.1821184 +22.7092503     205502.6     72.11915      1.595     3.05     6.125187     20.35219     20494.34       200     1.586     1.492 -21.48   0
       151    715.3467    541.3459 300.2377092 +22.7657083     800.6546     72.17426      1.562     3.81     5.919716     20.35219     87.42515        12     1.082     0.862 -17.64   0
       152    785.0452    537.5255 300.2606884 +22.7854738     262.7394     72.11915      1.489     4.12     5.858659     20.35219     29.79127         5     0.756     0.642 -81.27   0
       153    217.7729    535.8984 300.0844773 +22.6151116     3575.876     72.08238      1.685     3.40     6.101903     20.35219     325.7354        36     1.360     1.290  25.71   0
       154    396.7167    533.4830 300.1409658 +22.6680310     373.2124     72.26603      2.126     3.75      5.73631     20.35219     42.82249         5     0.970     0.494 -41.99   0
       155    783.8201    532.8960 300.2618092 +22.7837759      602.706     72.04559      1.881     4.15      5.87176     20.35219     43.71829        10     1.022     0.740  -5.90   0
       156    563.8013    523.1638 300.1963679 +22.7151080      258.422     72.11915      1.277     2.80     6.185079     20.35219     40.50721         5     0.908     0.340  43.94   0
       157    422.3095    516.4103 300.1544785 +22.6707921     2866.072     72.08238      1.609     3.00     5.748899     20.35219     285.3971        28     1.198     1.178 -30.79   2
       158    266.6717    518.8949 300.1052145 +22.6248804     460.4376     72.24769      1.769     4.15     6.016714     20.35219     41.56357         9     1.101     0.857   2.81   0
       159    834.7338    512.7165 300.2842444 +22.7932115     309.1776     72.24769      1.572     6.34     5.947889     20.35219     45.52166         7     1.607     0.703 -49.08   0
       160    653.8868    512.9179 300.2277743 +22.7391362     323.0388     72.26603      1.529     3.85     6.159645     20.35219     37.04904         5     0.792     0.538 -56.01   0
       161    851.4745    508.5952 300.2908059 +22.7970363     252.5077     72.06399      1.307     3.91     5.957754     20.35219     30.54175         5     1.055     0.414  15.74   0
       162    739.2491    505.2686 300.2568757 +22.7624910     307.1251     72.13752      1.424     4.96      5.94875     20.35219     32.73478         7     1.013     0.687  19.02   0
       163    819.4293    503.0117 300.2826197 +22.7858403       1774.9     72.13752      1.671     3.41     5.951788     20.35219       150.15        22     1.196     1.045 -31.14   0
       164    705.9846    502.8774 300.2472779 +22.7518461     432.7863     72.15589      1.601     5.57     6.022469     20.35219     38.29007         9     1.114     0.784 -89.49   0
       165    690.5465    500.4678 300.2432460 +22.7465319     2482.505      72.1559      1.577     3.04     6.059619     20.35219     262.9203        28     1.221     1.185  73.34   0
       166     50.2140    499.8428 300.0440599 +22.5545410     214.3582     72.15589      1.646     4.60     6.143686     20.35219     24.61291         5     1.310     0.458  61.12   0
       167    934.3457    498.2001 300.3200439 +22.8188443     405.4275     72.04559      1.435     4.09     6.015327     20.35219     53.62971         8     1.038     0.566  20.96   3
       168    933.3314    493.8203 300.3211490 +22.8172810     1008.882     72.11915      2.151     4.76      6.01378     20.35219     54.22594        16     1.252     1.063 -37.72   2
       169    595.4756    497.2451 300.2146533 +22.7171426     376.4164     72.11915      1.499     3.76     6.316446     20.35219     45.44933         6     0.877     0.605 -14.39   0
       170    478.1186    496.3825 300.1783635 +22.6817524      505.231     72.10077      1.282     2.61     6.087399     20.35219     82.93209        10     0.929     0.692 -39.12   0
       171    947.9716    494.7614 300.3254137 +22.8219320     1295.095     72.17426      1.830     3.88     6.043257     20.35219     102.7855        22     1.241     1.181  48.95   0
       172    819.6760    493.1092 300.2859111 +22.7830664     2217.945     72.28437      1.855     3.96      5.96646     20.35219      191.344        28     1.483     1.132  83.53   0
       173    572.8464    491.0635 300.2096068 +22.7085902     591.4036     72.17426      1.503     3.64     6.240431     20.35219      53.2011        10     0.939     0.748 -22.75   0
       174    359.4053    490.7512 300.1432181 +22.6445777     297.4849     72.11915      1.299     3.94     5.994768     20.35219     49.68533         6     1.083     0.411 -35.29   0
       175    857.8342    488.1050 300.2994416 +22.7930464     4390.311     72.11915      1.643     3.26      5.94537     20.35219     407.1871        36     1.332     1.267  88.75   0
       176    411.5660    489.6271 300.1598261 +22.6598786      446.003      72.1559      1.582     6.50     5.819644     20.35219     50.11367        12     1.402     0.848 -44.56   0
       177    518.7269    484.0089 300.1950317 +22.6903572     309.6294     72.11915      1.341     3.36     6.119365     20.35219     43.64788         6     0.830     0.617 -49.60   0
       178    949.6439    478.6642 300.3311608 +22.8178017      709.227     72.13753      1.564     4.05     6.045038     20.35219     73.02744        15     1.278     0.954  55.50   0
       179     89.8447    477.9256 300.0634973 +22.5601264     1016.129     72.11915      1.806     4.68     6.042036     20.35219     98.07552        17     1.242     1.136 -18.05   0
       180     82.1786    468.3619 300.0642169 +22.5550828     461.8728     72.15589      1.717     4.58     6.059611     20.35219     46.28634         7     1.014     0.643  -8.79   0
       181    690.3043    462.6067 300.2554594 +22.7355739     394.6635     72.02719      1.358     4.35     6.017643     20.35219     42.43849         7     0.841     0.696 -53.97   0
       182    579.2696    460.4763 300.2215362 +22.7017213     274.9267     72.22934      1.051     2.48     6.227863     20.35219      48.0607         5     0.706     0.452 -23.06   0
       183    631.3290    458.6727 300.2383488 +22.7167885     847.7504     72.21098      1.637     3.57     6.209262     20.35219     81.52441        13     1.034     0.859  -2.47   0
       184    945.8198    451.3099 300.3388454 +22.8087882     590.8795     72.08238      1.570     4.08       5.9309     20.35219     54.24721        11     0.939     0.848 -37.90   0
       185    692.0207    450.8923 300.2597964 +22.7327194      911.786     72.06399      1.491     2.98     5.968805     20.35219     81.96126        12     0.919     0.834  -1.98   0
       186    849.2346    447.1836 300.3100400 +22.7787031     1126.734     72.13752      1.733     3.27     5.938856     20.35219     88.56449        17     1.085     0.977  18.19   0
       187    833.4760    443.2574 300.3063971 +22.7728584      536.173     72.17426      1.442     4.37     5.942887     20.35219     62.29652        13     1.214     0.870  40.78   0
       188    577.8710    441.1959 300.2273574 +22.6957602     3195.655     72.08238      1.486     2.88     6.183478     20.35219     348.6936        25     1.121     1.102 -21.91   0
       189    938.3074    440.6587 300.3399571 +22.8034764     481.2778     72.19263      1.599     4.67     5.920266     20.35219     50.98904        10     1.238     0.545  34.41   0
       190    417.7411    428.0488 300.1817335 +22.6440333      395.522     72.19263      1.728     4.48     5.836492     20.35219     41.21033         8     1.118     0.635 -41.21   0
       191    989.2560    420.6407 300.3623592 +22.8129580     1378.919     72.11915      1.711     3.46     5.548179     20.35219     135.6971        23     1.273     1.166 -13.67   0
       192    861.1759    420.3987 300.3224585 +22.7745716     545.9542     72.08238      1.441     3.53      5.93146     20.35219     55.22861        10     0.885     0.795  10.96   0
       193    947.6620    419.3068 300.3498064 +22.8001319     1004.178     72.22934      1.676     3.59     5.796513     20.35219     92.12408        18     1.189     1.072  -8.74   0
       194    597.5247    416.7492 300.2414161 +22.6946160     507.2623     72.13752      2.106     4.85      6.13101     20.35219     52.61736         9     1.300     0.845  10.46   0
       195    688.4833    415.2333 300.2702652 +22.7214071     1068.003     72.10077      1.422     2.83     5.843836     20.35219     116.8447        17     1.068     0.996  13.20   0
       196    484.3087    415.6438 300.2064944 +22.6604020     371.1043     72.13752      1.143     3.21     6.129726     20.35219      62.3143         6     0.866     0.556  61.00   0
       197    192.1362    413.0749 300.1163615 +22.5721538     733.5803     72.17426      1.649     5.17     6.126265     20.35219     61.11586        15     1.326     0.864  -6.97   0
       198     32.6873    411.7502 300.0671968 +22.5239949     314.7609     72.13752      1.887     5.08      6.26453     20.35219      32.4076         5     1.147     0.635 -24.62   0
       199    254.7315    408.7565 300.1372416 +22.5896656     3705.667     72.10077      1.646     3.15      6.23367     20.35219     376.9407        33     1.286     1.262 -14.67   0
       200    987.9186    407.7173 300.3661353 +22.8088393     4367.697     72.28437      1.760     3.47      5.58799     20.35219     360.8645        37     1.390     1.289 -46.72   0
       201    201.9689    403.5118 300.1225238 +22.5723526     7765.095     72.11915      1.718     3.28     6.182061     20.35219     698.4836        49     1.396     1.379  77.75   0
       202    707.2165    404.2379 300.2796747 +22.7238520     259.3359     72.13752      1.075     3.73     5.883829     20.35219     33.56692         5     0.976     0.410  45.43   0
       203    967.9750    398.7053 300.3628328 +22.8002806     1912.761     72.06399      1.768     3.86     5.749218     20.35219       152.47        29     1.418     1.216 -62.03   0
       204    342.6946    397.8723 300.1681552 +22.6128861     4826.974     72.24769      1.563     3.05     6.208059     20.35219     526.8344        33     1.227     1.193  -6.69   0
       205    586.9449    394.7155 300.2452678 +22.6851143     18704.34     72.21098      1.517     2.86      6.11557     20.35219     2036.282        63     1.364     1.334   7.69   0
       206    604.6467    394.5916 300.2508256 +22.6903776     849.0509      72.1559      2.061     7.15     6.172281     20.35219     50.44064        20     1.634     1.082 -40.92   0
       207    784.2535    384.8705 300.3099865 +22.7413357     407.7896     72.13752      1.583     4.90     5.927299     20.35219     39.10064         9     1.016     0.877  14.91   0
       208    206.8467    382.0198 300.1310142 +22.5676400     313.9643     72.17426      1.390     4.06     6.267224     20.35219     44.14183         6     0.808     0.583 -54.47   0
       209    920.6506    377.6170 300.3549020 +22.7800568     769.9037     72.13753      1.708     5.07     5.926211     20.35219     75.87504        17     1.255     1.003 -57.35   0
       210    141.7606    374.6660 300.1131500 +22.5460285     1901.085     72.10077      1.624     3.31     6.096339     20.35219     183.4691        27     1.272     1.164  12.84   0
       211    941.2573    364.5687 300.3655678 +22.7824663     1198.783      72.1559      1.683     7.43     5.930576     20.35219     115.8683        23     1.595     1.101  63.10   0
       212    527.6475    364.0826 300.2367264 +22.6585561     6667.033      72.1559      1.496     2.86     5.855275     20.35219     696.9499        36     1.246     1.168  83.52   0
       213    242.3517    363.4018 300.1481029 +22.5729270     462.0998     72.11915      1.497     4.13     6.396477     20.35219     59.12585        11     1.123     0.972  -7.75   0
       214    100.4459    357.4297 300.1058903 +22.5286994     535.1299     72.17426      1.698     3.06     6.124818     20.35219     65.93333         9     1.031     0.666 -48.09   0
       215    641.3218    354.6735 300.2752091 +22.6898772     527.7935     72.24769      1.424     3.49     6.172408     20.35219     55.11536        11     1.011     0.762 -37.76   0
       216    731.8686    353.3503 300.3038728 +22.7165943      1151.34     72.13752      1.601     3.34     6.069252     20.35219     112.3832        19     1.105     1.045  46.96   0
       217    434.2986    350.3057 300.2121135 +22.6266477     6262.603     72.32103      1.562     2.83     6.066695     20.35219     631.4046        40     1.285     1.258  42.51   0
       218    216.2206    352.7812 300.1434161 +22.5620483     325.6219     72.13752      1.789     4.49     6.402778     20.35219     28.85712         5     0.793     0.723  52.49   0
       219   1018.8721    352.4225 300.3937412 +22.8021847     224.7487     72.17426      1.308     3.94     6.081276     20.35219     32.97385         5     0.900     0.494  -0.47  16
       220    826.2953    345.1472 300.3359900 +22.7424879     1477.499     72.21098      1.679     3.42     5.904742     20.35219     131.8591        22     1.265     1.049 -81.33   0
       221    923.4273    345.5258 300.3661799 +22.7716536     579.6233     72.13753      1.607     3.68     5.925935     20.35219     59.68464        10     0.994     0.732  16.03   0
       222    419.0901    339.1555 300.2109934 +22.6188890     421.2134     72.13752      1.332     3.07     6.092882     20.35219     44.89183         8     0.814     0.653 -28.80   0
       223    501.4359    336.7823 300.2374151 +22.6428607     702.0317     72.13752      2.419     7.81     5.886616     20.35219     46.97151        14     1.662     1.121 -63.49   0
       224    780.0131    336.3807 300.3243947 +22.7261189     204.9046     72.10077      1.286     4.63     5.928393     20.35219     36.35221         6     0.944     0.644 -38.73   0
       225    798.9503    332.5623 300.3315410 +22.7306864     496.0735     72.13752      1.498     3.59     5.888293     20.35219     57.68757         8     1.026     0.683 -89.25   0
       226    321.8921    329.5488 300.1838426 +22.5870224      2550.46     72.19263      1.543     2.97     6.290885     20.35219     284.0581        24     1.147     1.126 -18.47   0
       227     40.2999    326.6293 300.0971761 +22.5018317     1019.286     72.06399      1.890     4.15     6.567104     20.35219     117.7428        18     1.244     1.107  11.30   0
       228    291.1891    318.8840 300.1777436 +22.5747628     30011.49     72.10077      1.618     3.09     6.363609     20.35219     2962.792        72     1.430     1.352  59.73   0
       229    825.8489    316.8793 300.3450203 +22.7342218     1326.309     72.13752      1.466     3.17     5.858213     20.35219     140.4474        19     1.136     0.959   7.65   0
       230    781.5439    314.9274 300.3318310 +22.7204055     365.2768      72.1559      1.528     4.39     5.877512     20.35219     44.21788         6     1.098     0.499  36.12   0
       231    864.8144    306.0128 300.3607036 +22.7427516     405.4806     72.06399      3.180     4.80     5.839933     20.35219     25.99214         5     0.965     0.676 -61.54   0
       232    740.7778    305.7161 300.3221027 +22.7055587     523.0555     72.10077      1.377     3.58      5.89472     20.35219     67.53383         9     0.941     0.698  35.63   0
       233    165.7858    305.4445 300.1430767 +22.5333410     307.2101      72.1559      1.056     1.92      6.37438     20.35219     55.45771         5     0.668     0.456 -23.78   0
       234    389.6412    304.3257 300.2131187 +22.6000602     433.9464     72.11915      1.503     3.17     6.188379     20.35219     61.61014         9     0.999     0.616  -0.84   0
       235    701.7008    298.8502 300.3121426 +22.6918914     2100.077     72.22934      1.650     3.07     5.810434     20.35219     191.2077        26     1.258     1.137  78.59   0
       236    509.8518    293.8278 300.2539693 +22.6330304     361.8202      72.1559      1.643     3.64     5.684443     20.35219     48.32865         6     1.028     0.426 -26.40   0
       237    916.9832    292.2025 300.3814648 +22.7543817     571.3104     72.04559      1.493     3.72     5.881227     20.35219     57.76127         8     0.950     0.606 -27.60   0
       238    363.4149    283.1688 300.2118131 +22.5861263     2287.851     72.13752      1.798     3.79     6.224635     20.35219     231.9719        32     1.493     1.171  72.30   0
       239    802.6855    276.6230 300.3508497 +22.7157103     559.4987     72.08238      1.446     2.83     5.812547     20.35219     77.55769        11     1.029     0.804 -22.73   0
       240    795.0009    277.5963 300.3481367 +22.7136915     347.8395     71.91669      1.312     2.75     5.820032     20.35219     46.93393         5     0.849     0.489   3.52   0
       241    684.6533    274.0831 300.3148589 +22.6796664     352.9487     72.17426      1.298     3.86     5.839823     20.35219     42.49605         9     0.885     0.781 -17.40   0
       242    439.2291    262.5851 300.2420994 +22.6029071     1125.858      72.1559      1.541     3.36     6.087522     20.35219     129.3828        20     1.128     1.086  74.39   0
       243    246.6095    263.2029 300.1819251 +22.5454111     274.1876     71.95354      1.385     3.44     6.489893     20.35219     29.59203         5     0.771     0.444 -71.30   0
       244    822.5126    256.5942 300.3635309 +22.7158785     285.6572     72.04559      1.809     5.30     5.837019     20.35219     32.91727         6     1.162     0.682 -42.96   0
       245    684.1978    254.6595 300.3210156 +22.6739429     2233.713     72.11915      1.593     3.26     5.982332     20.35219     212.2836        26     1.295     1.094  82.51   0
       246    945.4517    249.3490 300.4042489 +22.7505624       3048.4     72.17426      1.631     2.97     5.985561     20.35219     324.6909        29     1.239     1.185 -85.48   0
       247    392.6248    238.6477 300.2353458 +22.5820737     629.0981     72.13753      1.572     3.59      6.32637     20.35219     75.53271        12     1.149     0.750 -47.24   0
       248   1014.9930    237.3431 300.4298545 +22.7679006     1707.513     72.13752      1.689     3.08     6.012923     20.35219     160.1823        21     1.166     1.108 -45.57   0
       249     98.0709    232.6274 300.1456240 +22.4921371     709.0403     72.11915      1.900     3.16     6.667635     20.35219     56.03294        11     0.914     0.844 -18.24   0
       250     66.7175    232.6584 300.1358629 +22.4827540      1779.28     72.21098      2.119     8.64     6.667889     20.35219     400.1295        25     1.747     1.193 -38.68   0
       251    961.1614    229.9091 300.4154568 +22.7496646     477.0452     72.13752      1.499     3.01     6.028884     20.35219       56.174        10     0.926     0.713 -28.45   0
       252    804.8834    226.6968 300.3677250 +22.7020024      476.053      72.3027      1.530     3.18     5.820609     20.35219     52.26903         9     0.899     0.748  51.69   0
       253    151.2877    225.0163 300.1646455 +22.5058900     428.7145     72.06399      1.471     4.27     6.680133     20.35219      47.6517        10     1.046     0.768 -43.82   0
       254    946.3448    222.7114 300.4131650 +22.7431623     330.4871     72.17426      1.410     3.64     6.061812     20.35219     44.56852         7     0.992     0.628   5.56   0
       255    827.4554    218.3027 300.3774892 +22.7063383     372.4248     72.22934      1.758     3.71     5.913855     20.35219     53.15457         6     1.084     0.583 -42.81   0
       256    755.5751    215.9753 300.3558193 +22.6841680      738.409     72.10077      1.646     5.29     6.123664     20.35219     76.49986        16     1.323     1.005  54.50   0
       257    345.6129    215.7497 300.2281302 +22.5614167     253.1044     72.19263      1.323     3.83      6.37198     20.35219      39.7987         6     0.976     0.431   2.82   0
       258    854.0724    205.3888 300.3899816 +22.7105826     2083.723      72.1559      1.581     2.72     6.050816     20.35219     244.3596        27     1.240     1.157  85.95   0
       259    272.5358    202.3021 300.2097397 +22.5356717     2161.246     72.24769      1.657     3.08     6.539863     20.35219     222.3728        30     1.335     1.204 -57.15   0
       260    350.4251    197.5645 300.2355240 +22.5576296      963.687      72.1559      1.614     3.47      6.36851     20.35219     95.41107        15     1.044     0.986 -50.15   0
       261    752.2964    197.4011 300.3608185 +22.6778429     502.0455     72.04559      1.312     2.87     6.209428     20.35219     61.74163         8     0.887     0.602  14.57   0
       262    859.4637    194.3582 300.3952401 +22.7090204     283.0208     72.11915      1.201     3.51     6.125636     20.35219     39.62608         5     1.035     0.344 -19.99   0
       263    167.1790    189.5663 300.1810815 +22.5004626     771.2034      72.1559      1.613     3.74     6.793807     20.35219     79.14891        14     1.203     0.812   1.67   0
       264    705.1017    186.6988 300.3495686 +22.6606457     1727.332     72.35768      1.529     2.89     6.302121     20.35219      191.816        23     1.189     1.068 -25.38   0
       265    769.7935    186.6652 300.3697567 +22.6799874     606.4278     72.11915      1.603     3.38     6.171155     20.35219     68.32555         9     0.957     0.714  53.29   0
       266    188.9653    182.8934 300.1900231 +22.5050692     561.2369     72.10076      1.584     3.72      6.76936     20.35219     75.21912        11     1.131     0.763   6.41   0
       267    976.5346    179.5635 300.4365791 +22.7397684     855.4932     72.13753      1.493     3.01     6.680488     20.35219     91.24638        14     1.067     0.816  31.80   0
       268    709.5901    178.0211 300.3537814 +22.6594917     806.3642     72.11915      1.634     4.45     6.323961     20.35219      75.5145        15     1.241     0.874 -36.36   0
       269    478.9885    179.1186 300.2815460 +22.5908084     212.9886     72.11915      1.301     3.40     6.192066     20.35219     40.85201         6     0.921     0.443 -37.47   0
       270    629.6135    177.4471 300.3290302 +22.6354002     1255.384      72.1559      1.643     2.81     6.322596     20.35219     128.5076        17     1.038     0.991 -31.22   0
       271    825.1680    168.9678 300.3927694 +22.6914564     1424.342     72.17426      1.478     3.36     6.206044     20.35219       130.27        20     1.112     1.053  56.16   0
       272    555.9801    168.9801 300.3088231 +22.6109328     974.8425     72.13752      1.515     2.94     6.176082     20.35219     112.8797        15     1.042     0.882 -65.31   0
       273    837.1506    168.2096 300.3967541 +22.6948217     897.9628     72.15589      1.633     3.58     6.234974     20.35219     92.91172        15     1.123     1.038   0.75   0
       274    998.1714    159.1420 300.4499548 +22.7403577     1623.688     72.13752      1.665     3.22     7.100021     20.35219     152.3634        24     1.284     1.099 -50.15   0
       275    953.9172    158.6494 300.4362974 +22.7269854     875.0747     72.13752      1.439     2.95     6.793582     20.35219     124.5856        16     1.107     0.900  -5.88   0
       276    187.9605    150.9632 300.2000598 +22.4955916     678.6833     72.21098      1.528     3.56      6.85034     20.35219     78.86991        12     0.982     0.896 -64.38   0
       277     49.7882    145.7231 300.1587780 +22.4527064     2328.547      72.1559      2.000     3.61       7.0556     20.35219     190.5292        35     1.429     1.406  12.42   0
       278    872.6931    143.3305 300.4159097 +22.6982895     780.7043     72.26603      1.578     3.82     6.503479     20.35219     75.93551        13     1.145     0.858  27.00   0
       279    207.2021    139.1646 300.2098711 +22.4979619     5750.939     72.10077      1.718     3.16     6.853368     20.35219     538.0643        46     1.432     1.374  58.14   0
       280    189.1871    139.9751 300.2040027 +22.4928008      320.633     72.13752      1.500     5.63      6.88294     20.35219     33.63066         8     1.061     0.843 -30.17   0
       281    190.6978    130.2985 300.2076087 +22.4904719      538.806     72.33936      1.537     4.27     6.912479     20.35219     57.40168        11     0.982     0.810  -6.91   0
       282   1006.2103    127.0663 300.4628617 +22.7335254     18261.84     72.11915      1.796     3.51     7.117128     20.35219     1714.472        60     1.564     1.426 -72.96   0
       283    851.4627    121.1191 300.4164833 +22.6855477     3484.978     72.24769      1.609     3.10     6.644213     20.35219     357.4304        33     1.317     1.197  79.06   0
       284    955.0923    119.9153 300.4492188 +22.7161852     2725.687      72.3027      1.645     3.33     6.938093     20.35219     254.6982        30     1.345     1.186 -88.69   0
       285    153.8809    116.6906 300.2005635 +22.4755367      381.776     72.24769      1.542     4.36     6.975091     20.35219     39.57713         8     1.340     0.404 -21.97   0
       286    400.9095    116.2220 300.2776101 +22.5493533      522.273     72.06399      1.398     2.85     6.518815     20.35219     68.83694         9     0.893     0.665 -17.38   0
       287    326.1461    107.5641 300.2571347 +22.5244864     688.6372      72.1559      2.234     7.39     6.644549     20.35219     49.18786        15     2.003     0.762 -23.87   0
       288     90.6663    104.7881 300.1847564 +22.4531863     678.5148     72.10077      2.127     4.32     7.059588     20.35219     70.33395        12     1.252     1.066 -36.32   0
       289    452.1384    103.1765 300.2977944 +22.5609328     1879.312     72.11915      1.640     3.15       6.4517     20.35219     197.3949        24     1.295     1.060  84.98   0
       290    380.1745    104.2266 300.2750397 +22.5396980     574.9571     72.10077      1.686     2.71     6.559789     20.35219     64.97363         7     0.823     0.554 -22.65   0
       291    513.9686    102.4733 300.3172859 +22.5792322     421.1461     72.13752      1.520     3.55     6.282609     20.35219     49.29614         6     0.791     0.679   3.14   0
       292    195.7838     98.5305 300.2194858 +22.4828635     427.5635      72.1559      1.839     3.17      7.01971     20.35219     50.70528         7     0.946     0.683  -0.04   0
       293    740.5059     93.2928 300.3908846 +22.6443577     453.8795      72.3027      1.766     3.31     7.016898     20.35219     41.42141         6     0.884     0.455   0.51   0
       294    886.6815     87.9995 300.4382074 +22.6865440      259.526     72.00879      1.444     4.30     6.885568     20.35219     30.05455         6     1.140     0.461 -17.43   0
       295    325.4855     88.1632 300.2632157 +22.5187103     291.1046     72.11915      1.597     3.36     6.742899     20.35219     41.83181         5     0.872     0.527 -38.92   0
       296   1016.6452     84.4323 300.4799369 +22.7243678     3764.378     72.19263      1.884     3.25     7.083657     20.35219     329.6627        44     1.724     1.363 -39.05  16
       297    226.1423     82.9957 300.2339667 +22.4874867      6163.93     72.10077      1.715     3.20     7.051002     20.35219     558.2772        46     1.421     1.379  59.27   0
       298     77.3167     82.4442 300.1878443 +22.4427674     696.3513     72.10077      1.867     2.61     7.098932     20.35219     83.38065        11     1.059     0.798  49.95   0
       299    855.3682     81.2436 300.4306243 +22.6752370     390.1194     72.19263      1.418     3.80     6.847261     20.35219     39.09802         7     0.970     0.566  20.76   0
       300    198.3524     76.9309 300.2272837 +22.4774236     375.9598     72.11915      1.561     3.36     7.028873     20.35219     36.50707         5     0.758     0.431 -70.67   0
       301    241.4925     75.0084 300.2413319 +22.4897858     366.5644     72.04559      1.755     4.21     7.015984     20.35219     41.19301         5     0.788     0.641   1.16   0
       302    472.2941     68.4518 300.3153252 +22.5569765      6416.71     72.21098      1.631     3.00     6.303825     20.35219     665.2969        42     1.388     1.215  83.02   0
       303    357.7887     68.4049 300.2796757 +22.5226971     722.8755     72.00879      1.681     4.06     6.804607     20.35219     68.78074        11     0.976     0.861  28.84   0
       304    529.7899     63.6278 300.3348030 +22.5727915       370.73     72.13752      1.943     3.88     6.168856     20.35219      32.3426         6     0.726     0.653 -71.10   0
       305    666.3212     60.3049 300.3784385 +22.6126770      278.409     72.24769      1.381     4.00     7.147555     20.35219     33.18601         6     0.901     0.507 -42.12   0
       306    724.9437     58.3899 300.3973402 +22.6296585     809.4603     72.13752      1.804     4.17     7.234346     20.35219     70.82996        17     1.204     1.070  51.34   0
       307    817.4123     57.8336 300.4263660 +22.6571492     491.4834     72.11915      1.456     2.66     6.864482     20.35219     52.13968         6     0.708     0.616  38.40   0
       308    165.4057     52.5560 300.2249294 +22.4605530     368.5039     72.13753      1.266     5.39     6.998387     20.35219     49.44911        10     1.141     0.766 -17.38   0
       309    523.6488     51.3775 300.3368583 +22.5674300     543.1214     72.13753      1.576     2.97     6.142463     20.35219      61.2702        10     0.956     0.747  27.48   0
       310    600.7081     48.6376 300.3617628 +22.5896941     6256.453     72.13752      1.626     2.96     6.629815     20.35219      702.491        40     1.388     1.223 -83.69   0
       311    375.5949     47.4946 300.2919953 +22.5220126     1398.493     72.02719      1.635     3.03     6.905468     20.35219     156.5879        20     1.226     1.032  89.32   0
       312    641.9348     46.2063 300.3754029 +22.6013260     866.4977     72.11915      1.489     3.82     7.021727     20.35219     96.36845        16     1.187     0.966   7.53   0
       313    711.0635     44.6971 300.3974476 +22.6215667      264.534     72.22934      1.440     4.57     7.312255     20.35219     30.10497         6     0.921     0.643 -36.51   0
       314    657.8847     42.3529 300.3816242 +22.6049876     602.2366     72.11915      1.296     3.50     7.192994     20.35219     65.24821         8     0.961     0.608 -12.43   0
       315    927.7057     40.0483 300.4665493 +22.6850022     559.9478      72.1559      1.493     3.60     6.858342     20.35219     65.02101        11     1.037     0.840  16.54   0
       316    124.5575     39.7809 300.2163600 +22.4446510     636.0402      72.1559      1.641     3.39     6.999076     20.35219     67.31296        12     1.054     0.749 -23.14   0
       317    696.6653     37.7800 300.3951984 +22.6152699      459.373     72.11915      1.381     4.19     7.355085     20.35219     60.87459        10     1.161     0.731 -24.78   0
       318    644.8918     33.4700 300.3804510 +22.5985453     2821.748     72.26603      1.699     3.09     7.136127     20.35219     298.0683        32     1.313     1.280  79.67   0
       319    285.2455     34.5905 300.2680450 +22.4912617     417.3101      72.1559      1.528     5.58      7.04706     20.35219     39.68651         9     1.268     0.691  -6.08   0
       320    659.9714     32.4708 300.3854764 +22.6027679     940.3033     72.13752      2.079     5.41     7.276875     20.35219     58.65134        15     1.406     0.793  41.27   0
       321    731.3638     25.2394 300.4100826 +22.6220371      1586.97     72.21098      1.672     3.04     7.434922     20.35219     165.8333        22     1.279     1.088 -54.38   0
       322    891.2084     24.4138 300.4602223 +22.6695903     250.3593     72.02719      1.169     3.45     6.834445     20.35219     27.90773         5     0.741     0.464  16.67   0
       323    669.2064     18.5752 300.3928574 +22.6015308     638.2924     72.11915      1.450     3.33     7.441903     20.35219     87.04094        13     1.139     0.775  15.17   0
       324    273.8042   1013.8716 299.9465960 +22.7691063     468.6324     72.08238      1.506     7.24     20.24772     20.35219     57.64396        20     1.681     1.209  34.33  16
       325    109.9031   1009.6579 299.8969761 +22.7187310     1811.467     72.21098      3.655    12.06     88.80648     20.35219     61.80645        45     2.675     1.920 -35.51  18
       326    379.0674     15.9468 300.3032966 +22.5139785     708.5522     72.15589      1.406     3.02      7.08901     20.35219     74.49341         9     0.817     0.721 -26.35   0
       327    761.3190     14.7047 300.4228389 +22.6279619     437.0178     72.28437      1.761     3.79     7.261003     20.35219     49.84211         7     1.017     0.599 -16.50   0
       328    178.6906    988.0572 299.9253974 +22.7331715      4201.36     72.19263      9.231    43.32     64.48209     20.35219     85.40726       469    10.048     5.183  84.15  19
       329    197.6315    985.9407 299.9319782 +22.7382459     5221.769      72.1559      9.234    35.90     56.39304     20.35219     94.60934       457     7.715     5.033 -68.63  19
