#   1 NUMBER                 Running object number                                     
#   2 X_IMAGE                Object position along x                                    [pixel]
#   3 Y_IMAGE                Object position along y                                    [pixel]
#   4 ALPHA_J2000            Right ascension of barycenter (J2000)                      [deg]
#   5 DELTA_J2000            Declination of barycenter (J2000)                          [deg]
#   6 FLUX_APER              Flux vector within fixed circular aperture(s)              [count]
#   7 FLUXERR_APER           RMS error vector for aperture flux(es)                     [count]
#   8 FLUX_RADIUS            Fraction-of-light radii                                    [pixel]
#   9 FWHM_IMAGE             FWHM assuming a gaussian core                              [pixel]
#  10 BACKGROUND             Background at centroid position                            [count]
#  11 THRESHOLD              Detection threshold above background                       [count]
#  12 FLUX_MAX               Peak flux above background                                 [count]
#  13 ISOAREA_IMAGE          Isophotal area above Analysis threshold                    [pixel**2]
#  14 A_IMAGE                Profile RMS along major axis                               [pixel]
#  15 B_IMAGE                Profile RMS along minor axis                               [pixel]
#  16 THETA_IMAGE            Position angle (CCW/x)                                     [deg]
#  17 FLAGS                  Extraction flags                                          
         1    353.2827     20.0421 300.2741197 +22.4749293     1343.121     72.54906      1.577     3.33     4.236019     20.47873     135.3342        21     1.244     1.060  77.73   0
         2    856.4796     11.7339 300.4334122 +22.6232786     2345.982     72.69689      1.517     2.79     4.946554     20.47873     265.8531        24     1.198     1.050  73.77   0
         3    561.9998     10.3668 300.3421690 +22.5346900     514.3969     72.54906      1.393     2.66     4.559496     20.47873     62.09155         9     0.825     0.754 -88.81   0
         4    239.6466      6.7308 300.2431169 +22.4370426     1037.645     72.56755      1.645     3.18      4.94863     20.47873     119.4846        17     1.124     0.970  43.11  16
         5    804.7412      4.2274 300.4197281 +22.6056276      839.335     69.87299      1.408     2.98     4.952452     20.47873     104.3321        13     1.036     0.762  60.11  16
         6    512.2385      2.3151 300.3292971 +22.5174668      373.391      61.8444      1.194     3.68     4.570605     20.47873      41.6018         6     0.722     0.651 -76.02  24
         7    799.9003   1011.2675 300.0911138 +22.8935480     745.7962     72.67843      2.225     6.19     2.656915     20.47873     48.13462        13     1.228     0.994 -10.66   0
         8    266.1033   1010.3749 299.9253648 +22.7330311     3956.449     72.51205      7.337    23.44     61.47449     20.47873     90.42178       261     5.336     4.537 -81.35  19
         9    285.0015   1009.6036 299.9314875 +22.7384867     4803.771     72.36384      9.035    33.25     62.10571     20.47873     109.3064       417     7.452     4.685 -42.40  19
        10    304.7516    998.4948 299.9412399 +22.7412340     7568.862     72.62301      8.142    34.20     41.70515     20.47873     170.4597       631    10.393     4.408  66.61  26
        11    227.7800   1022.1209 299.9096362 +22.7248859     1022.398     64.56226      2.414     7.11     67.11336     20.47873     65.64697        17     1.752     0.809 -71.72  27
        12    143.5903   1016.0767 299.8854561 +22.6978594      5003.73     72.56755     11.401    43.22     51.29994     20.47873     96.66188       679     9.910     5.845  15.86  27
        13    142.2112    979.1099 299.8970584 +22.6868499     4686.739     72.53056     24.075    77.11     33.23478     20.47873     103.3688      3099    18.488    14.950 -28.26  27
        14    717.8809    978.0233 300.0763963 +22.8593946     6893.685     72.54906      1.900     4.14     2.562776     20.47873      411.644        48     1.511     1.431  33.24   0
        15    295.9624   1023.4548 299.9303851 +22.7457501     931.0217     57.66717      2.272     3.71     64.08437     20.47873     84.02959        13     1.225     0.813  -1.05  26
        16     48.9221    996.8583 299.8623205 +22.6639054     562.6714     72.62301      2.148     3.01     6.266072     20.47873     39.27822         5     0.779     0.505 -50.90   0
        17    597.5963    972.9467 300.0406126 +22.8218367     585.0212     72.56755      1.859     5.78     2.587366     20.47873     39.05632        11     1.258     0.748  -7.39   0
        18    233.1349   1000.9536 299.9181889 +22.7204268     2309.608     72.58604      7.693    23.31     55.11396     20.47873     58.64887       128     5.874     2.569  65.78  19
        19    626.3342    968.7905 300.0509075 +22.8292700     1450.348     72.54906      1.812     4.55      2.55958     20.47873     99.02094        25     1.322     1.248 -27.80   0
        20    992.4214    994.7783 300.1564614 +22.9465710     839.6609     72.58604      2.079     7.89     2.568402     20.47873      47.6467        18     1.747     0.998 -14.88   0
        21    520.0035    965.1609 300.0190079 +22.7963107     948.8584     72.60453      1.862     5.06     2.797707     20.47873     75.00507        23     1.385     1.221 -82.63   0
        22    450.8072    963.2188 299.9981204 +22.7749789     6629.259     72.54906      1.792     3.84     3.088249     20.47873     461.9333        43     1.419     1.388  -1.72   0
        23    483.7513    950.3759 300.0125442 +22.7811859     458.6638     72.58604      1.698     5.18     2.984402     20.47873     36.82267         8     1.121     0.675 -46.09   0
        24    140.4166    942.8975 299.9082843 +22.6759310     3707.114     72.49354     15.983    52.32      16.5796     20.47873     82.70766       874    13.036     5.827 -41.74   3
        25    199.1204    982.0923 299.9137615 +22.7048018     1273.628     72.69689      7.021     6.34      44.1496     20.47873     44.51123        15     1.475     1.046  17.76   3
        26    997.0731    942.0288 300.1750791 +22.9328184     2140.554     72.60453      2.088     5.21     2.546842     20.47873     106.9218        30     1.416     1.387  62.59   0
        27    195.4375    977.6896 299.9140503 +22.7024333     1312.307     72.56755      6.239     6.94     41.85982     20.47873     50.56201        12     1.837     0.735   0.43   3
        28    647.7888    939.7405 300.0670375 +22.8273733     385.3378     72.54906      1.573     3.49      2.55958     20.47873     36.32935         5     0.994     0.353 -45.85   0
        29    785.7641    931.0229 300.1128274 +22.8662735     860.8713     72.60453      2.017     5.71     2.901049     20.47873     61.04826        12     1.163     0.951 -83.80   0
        30    908.6797    927.1662 300.1523693 +22.9020392     119.7365     72.53056      1.558     4.33     2.927848     20.47873     29.62981         5     1.126     0.474 -32.66   0
        31    820.7039    925.2888 300.1255745 +22.8751097     829.2619     72.77069      1.627     4.37     2.919173     20.47873      74.4693        19     1.236     1.075  -6.72   0
        32    598.6237    925.9688 300.0562194 +22.8086658     445.3534     72.58604      1.760     4.96     2.623707     20.47873     30.69706         7     1.109     0.627 -46.22   0
        33     30.7322    922.4374 299.8808899 +22.6371125     547.2501     72.56755      1.601     4.98     3.172296     20.47873     55.29556        10     1.310     0.751 -31.95   0
        34    843.0192    918.7683 300.1346467 +22.8799322     11310.17     72.58604      1.841     3.98     2.936437     20.47873     662.3475        57     1.533     1.423 -23.60   0
        35    888.1730    919.3163 300.1485345 +22.8936342     430.8132     72.58604      1.724     5.17     2.964165     20.47873     38.49074         7     0.904     0.836 -55.38   0
        36    184.5148    918.0433 299.9300655 +22.6820531     601.2401     72.54906      4.186     4.77     12.17207     20.47873     30.09305         5     1.045     0.617   1.70   0
        37    266.8047    914.1832 299.9568838 +22.7056624     671.3974     72.54906      4.683     4.98     7.704412     20.47873     26.72464         6     1.111     0.632  74.72   0
        38    154.3175    910.5045 299.9231399 +22.6708210     932.5081     72.75225      2.728     4.81     10.15792     20.47873     62.43924        16     1.429     1.132 -37.33   0
        39    547.6675    906.7093 300.0466324 +22.7878452     510.5419     72.71535      1.758     5.66     2.942312     20.47873     45.51588        11     1.275     0.707  46.70   0
        40    124.8750    903.8838 299.9161512 +22.6600786     429.2578     72.67843      1.814     4.30     6.448349     20.47873     33.07454         5     1.070     0.493 -36.59   0
        41    851.6074    900.8726 300.1431446 +22.8773703     1452.509     72.54906      1.819     4.39     2.987637     20.47873     94.97951        25     1.286     1.241  75.13   0
        42    144.6199    901.5195 299.9230515 +22.6653321     456.6847     72.56755      1.625     4.69     8.115488     20.47873     40.02445         8     1.176     0.531 -49.44   0
        43    703.5628    898.5048 300.0978145 +22.8322757     495.3258     72.56755      1.603     3.85     2.813081     20.47873     41.98684         8     1.047     0.500  -0.11   0
        44    889.8453    894.7276 300.1570559 +22.8870754     847.8312     72.56755      2.180     5.24     3.087314     20.47873     55.79155        18     1.359     1.081 -84.68   0
        45    212.6964    981.3455 299.9182213 +22.7086660     1823.628     72.65996      6.714    15.26      43.5926     20.47873     48.77617        52     2.695     2.403   1.49   2
        46    998.4031    891.9821 300.1917784 +22.9188438     346.7373     72.49354      1.112     3.48     2.836303     20.47873      30.5258         5     1.671     0.209 -54.49   0
        47    937.5227    885.8238 300.1748082 +22.8988180     486.9655     72.58604      1.680     5.79     3.207263     20.47873     45.71551        14     1.325     0.831 -41.62   0
        48    789.3295    884.8262 300.1289685 +22.8540812     700.9496     72.58604      1.633     4.95     2.916537     20.47873     56.70439        13     1.174     0.839  24.21   0
        49     49.0592    883.1337 299.8993641 +22.6313540     541.6171     72.62301      1.678     2.84     3.318597     20.47873     96.12032         7     1.021     0.618  80.22   0
        50    502.0628    880.9619 300.0408235 +22.7667690     4350.226     72.58604      1.688     3.29     3.223767     20.47873     351.2057        37     1.348     1.290  20.91   0
        51    800.5837    881.8526 300.1334407 +22.8566037     529.3331     72.58604      1.618     5.84     2.918261     20.47873     50.27084        13     1.087     0.884  13.14   0
        52    545.8173    868.7061 300.0584202 +22.7763853     365.6782     72.51205      1.578     3.23     3.294942     20.47873     40.86375         6     0.732     0.640 -86.49   0
        53    227.1215    866.6490 299.9600185 +22.6801141     800.3059     72.58604      1.734     4.25     5.199463     20.47873     59.25904        16     1.168     0.943 -23.88   0
        54    204.3785    863.5099 299.9539749 +22.6723837     1650.042     72.51205      1.875     4.25     4.592863     20.47873      131.466        26     1.333     1.236  32.82   0
        55    136.3569    864.8519 299.9324131 +22.6523379     325.1927     72.62301      1.617     3.42     3.790158     20.47873     31.38298         5     0.796     0.424 -70.72   0
        56    735.8343    851.8493 300.1230390 +22.8285655     551.3961     72.62301      2.182     7.05     2.925341     20.47873     32.68111        12     1.281     1.088 -34.03   0
        57     80.2858    852.3563 299.9190682 +22.6319127     522.1089     72.56755      2.204     3.64     3.506327     20.47873     35.86303         5     1.038     0.600 -62.06   0
        58    506.7177    851.0759 300.0519928 +22.7595911     241.5764     72.69689      1.465     4.87     3.358249     20.47873     32.77334         5     1.136     0.592 -29.04   0
        59    813.8616    844.9866 300.1495687 +22.8500018     655.9425     72.54906      1.569     5.58     2.989211     20.47873     56.20364        10     1.012     0.868  49.51   0
        60    237.2798    844.8846 299.9702532 +22.6769235     376.5776      72.7338      1.381     4.38     4.414156     20.47873     45.46248         9     0.984     0.843 -73.70   0
        61    682.1196    839.0933 300.1104665 +22.8087882     4722.226     72.71535      1.561     3.22     3.064675     20.47873     388.8731        32     1.250     1.198 -50.46   0
        62    171.6806    839.7772 299.9515382 +22.6557583     435.9804     72.53056      1.901     4.99     3.894395     20.47873     35.12921         6     0.937     0.751 -16.74   0
        63    484.2841    836.0198 300.0499128 +22.7485376     760.1556     72.53056      1.620     4.26     3.444575     20.47873     77.48206        12     1.151     0.820  22.84   0
        64    232.0972    832.6257 299.9726302 +22.6718516      1401.12     72.53056      1.808     4.20     4.230885     20.47873     121.7641        26     1.424     1.224 -87.13   0
        65    702.7267    831.7006 300.1192858 +22.8128486     639.6793      72.7338      1.546     4.51     3.037895     20.47873     54.31711        14     1.189     0.882 -32.58   0
        66    857.9885    818.8171 300.1718253 +22.8557221     4218.303     72.54906      1.687     3.60     3.332382     20.47873     296.2624        35     1.335     1.289  11.94   0
        67    266.5580    812.8187 299.9897780 +22.6765190     548.7067     72.60453      1.583     5.01     3.743383     20.47873     46.36166         9     0.927     0.766 -77.88   0
        68    575.1083    811.3860 300.0861765 +22.7687260     692.4792     72.51205      1.596     5.26      3.40684     20.47873     60.01492        16     1.308     0.982  31.68   0
        69    221.4649    809.1481 299.9769625 +22.6619259      935.079     72.62301      1.721     4.24     3.769766     20.47873      83.4979        18     1.285     1.015  42.98   0
        70    371.0762    801.3083 300.0260027 +22.7045967      52865.5      72.7338      1.632     3.12     3.633263     20.47873     4629.778       100     1.475     1.441  52.53   0
        71    636.4421    804.5483 300.1074853 +22.7851672     537.4004     72.58604      1.574     3.98     3.369083     20.47873     64.72456        13     1.203     0.819  58.01   0
        72    628.8829    800.3727 300.1064908 +22.7817005     1521.876     72.58604      1.541     3.31     3.397826     20.47873     142.1345        23     1.203     1.085  39.22   0
        73    299.2717    799.3715 300.0043159 +22.6824843     309.3034     72.58604      1.585     3.69     3.602014     20.47873     70.39489         6     0.866     0.826  61.18   0
        74    657.8861    796.4141 300.1168045 +22.7892659      802.702     72.53056      1.499     3.34     3.377915     20.47873     83.11306        13     1.115     0.753  36.73   0
        75     57.2320    795.4055 299.9304321 +22.6086608     869.2856     72.58604      1.931     6.37     3.457848     20.47873     85.69214        21     1.688     1.158  78.94   0
        76     24.3517    795.8868 299.9200697 +22.5989221     761.9999     72.58604      1.876     4.73     3.340147     20.47873      67.9094        15     1.299     0.887  49.06   0
        77    669.1287    794.9385 300.1207836 +22.7922153     659.4393     72.62301      1.617     3.93     3.368053     20.47873     51.67245        12     1.058     0.844  44.38   0
        78    988.7630    792.5912 300.2211042 +22.8874036     324.8861     72.58604      1.624     4.71     3.755486     20.47873     28.49762         6     1.387     0.454  40.48   0
        79    774.4054    791.0249 300.1548317 +22.8226724     458.8971     72.56755      1.580     5.43     3.045265     20.47873     49.24064        11     1.075     0.775 -16.98   0
        80    569.2054    788.4782 300.0917897 +22.7603799       342.17     72.49354      1.527     3.41      3.48309     20.47873     39.68164         5     0.783     0.429  23.02   0
        81    811.6382    781.3764 300.1695646 +22.8310689     756.3472     72.60453      1.635     4.29     3.183551     20.47873     58.56758        16     1.123     0.995 -85.48   0
        82    420.7893    778.5759 300.0488498 +22.7129971     31542.62     72.58604      1.610     3.09     3.545661     20.47873     2982.515        78     1.416     1.367  49.45   0
        83    943.9879    774.5234 300.2130254 +22.8687887     2835.242     72.60453      1.713     3.42     3.614093     20.47873     236.4419        35     1.337     1.298 -63.34   0
        84    432.0973    773.1827 300.0541194 +22.7148436      687.082     72.49354      1.756     4.59     3.551557     20.47873     54.14938        10     1.182     0.716  49.33   1
        85    303.3466    770.4379 300.0149904 +22.6754080     922.7631     72.58604      1.764     4.12     3.535686     20.47873     82.21425        18     1.239     1.068 -67.02   0
        86    701.9570    770.4595 300.1389626 +22.7950358     1014.584     72.56755      1.608     3.39     3.414773     20.47873     98.84971        18     1.177     0.960 -35.14   0
        87    538.1929    770.0092 300.0881475 +22.7457731     489.4755     72.43798      1.610     4.66     3.577829     20.47873     44.56061        10     0.996     0.853  47.02   0
        88    596.0565    768.4001 300.1066730 +22.7626736       157.26     72.49354      1.384     4.22     3.578977     20.47873     32.51818         6     1.089     0.815 -77.05   0
        89    549.1904    765.0131 300.0931932 +22.7476391     829.5664     72.47503      1.463     2.99      3.59336     20.47873     98.59039        16     1.118     0.865 -75.51   0
        90    108.7413    765.8271 299.9560406 +22.6156511     419.3875     72.58604      1.350     2.92      3.58564     20.47873     48.55247         6     0.735     0.567  47.60   0
        91    950.1021    762.4117 300.2188693 +22.8671425     429.0387     72.47503      1.575     4.73     3.664275     20.47873     36.16942         8     0.933     0.679 -52.23   0
        92    451.4036    762.1049 300.0637245 +22.7174592      290.567     72.49354      1.397     2.90      3.57425     20.47873     35.25915         5     0.731     0.448  69.68   0
        93    435.1138    779.1340 300.0531221 +22.7174567     1992.155     72.67843      1.540     3.03     3.569204     20.47873     194.7405        23     1.184     1.069 -28.01   0
        94    494.9798    760.3712 300.0778400 +22.7300393     405.9292     72.58604      1.362     3.69     3.640165     20.47873     54.51864         8     1.030     0.542 -25.10   0
        95    136.7498    759.5970 299.9667631 +22.6222760     530.0741     72.58604      1.713     4.58     3.548299     20.47873     49.53983         9     0.953     0.856 -83.63   0
        96    927.9369    757.3159 300.2136191 +22.8590330     331.0391     72.67843      1.368     4.26     3.578997     20.47873     41.90839         7     0.788     0.657  13.47   0
        97    301.2419    755.0941 300.0193252 +22.6703744      561.297     72.60453      1.574     4.05     3.499709     20.47873     60.48341        10     1.087     0.884 -80.36   0
        98    624.5576    745.5233 300.1229803 +22.7646574     402.4021     72.56755      1.479     5.47     3.667216     20.47873     52.96144         9     1.234     0.685  21.73   0
        99    593.7545    743.4527 300.1140683 +22.7548216     618.9001     72.62301      1.452     3.27     3.698836     20.47873     68.21197        11     0.906     0.834 -69.83   0
       100   1010.3125    739.9095 300.2449526 +22.8787283      4434.73     72.75225      1.734     3.51     3.991238     20.47873     329.3571        41     1.408     1.333 -51.24   0
       101    503.3283    742.6678 300.0861925 +22.7274637     417.1987     72.62301      1.730     5.68     3.664529     20.47873      37.7202         8     1.169     0.780 -11.88   0
       102    615.8753    740.7286 300.1218373 +22.7606762     1436.332     72.65996      1.644     2.94     3.701084     20.47873     150.8459        23     1.175     1.139  89.23   0
       103    535.3640    740.2152 300.0969547 +22.7363727     340.4543     72.58604      1.521     4.16     3.702804     20.47873     37.90871         6     0.746     0.662 -34.32   0
       104    744.1727    735.8025 300.1633744 +22.7977471     144.0363     72.53056      1.146     4.34     3.702927     20.47873     27.59046         5     0.769     0.698  47.73   0
       105    697.6522    735.9659 300.1488381 +22.7838406     267.9562     72.60453      1.411     3.20     3.691429     20.47873     40.54173         6     0.867     0.545  -1.49   0
       106    998.8904    731.1249 300.2442484 +22.8727803     1628.896     72.75225      1.676     3.58     3.947055     20.47873     132.3893        24     1.353     1.074  20.93   0
       107    361.8980    724.9953 300.0479623 +22.6799468     899.5419     72.49354      1.425     3.08      3.48348     20.47873     95.10378        15     1.062     0.873  44.16   0
       108    825.2878    722.5345 300.1929487 +22.8182631     2537.098     72.67843      1.687     3.37     3.544672     20.47873     214.2332        31     1.457     1.154   5.98   0
       109     47.6218    712.7705 299.9543141 +22.5820815     818.5262     72.58604      1.731     4.59     3.657519     20.47873     66.22909        17     1.238     1.041 -10.15   0
       110    907.0002    708.6035 300.2229334 +22.8387621     561.2985     72.36384      1.865     5.67      3.66041     20.47873     41.97524        11     1.083     0.919  17.67   0
       111    210.2613    708.8986 300.0060758 +22.6298086     588.5191     72.65996      1.462     3.58     3.578572     20.47873      64.9289        11     0.971     0.822  34.46   0
       112    943.6240    699.4973 300.2373061 +22.8471256     147531.5     72.49354      1.666     3.24     3.804093     20.47873     12955.19       161     1.536     1.518 -81.43   0
       113    706.4825    702.6385 300.1624219 +22.7769193     348.3145     72.54906      1.571     3.85     3.813508     20.47873     41.03857         6     0.878     0.736 -23.17   0
       114    795.7819    699.7020 300.1911818 +22.8028571     638.6818     72.51205      1.460     3.26     3.642152     20.47873     69.89577        14     1.006     0.917 -82.43   0
       115    976.8077    692.0715 300.2500620 +22.8549395     362.7035     72.56755      1.424     5.49     3.897766     20.47873     41.70471         9     0.939     0.905 -49.67   0
       116    629.6901    688.4252 300.1431398 +22.7498041     1726.976     72.53056      1.494     2.95     4.090201     20.47873     184.9079        24     1.219     1.065  80.34   0
       117    811.0706    685.6309 300.2005175 +22.8033999     9462.059     72.58604      1.502     2.88     3.663021     20.47873      949.158        42     1.240     1.215  53.53   0
       118    292.4765    687.4007 300.0386071 +22.6483224     253.3681     72.47503      1.359     3.41     3.465845     20.47873     38.12085         5     0.936     0.499 -44.32   0
       119    312.5484    680.5898 300.0470584 +22.6523930     4883.102     72.58604      1.557     2.79     3.520144     20.47873     541.2575        36     1.239     1.214  51.48   0
       120     26.2764    678.9940 299.9586668 +22.5659856     1668.739     72.49354      1.804     3.72     3.701369     20.47873     164.5689        27     1.437     1.214 -17.08   0
       121    394.6937    678.6563 300.0732202 +22.6764924     1071.087     72.64149      1.443     2.75     3.626497     20.47873     132.9468        16     1.040     0.956  62.31   0
       122    270.5528    676.1053 300.0354660 +22.6385007     509.7225     72.60453      1.516     3.98     3.497131     20.47873     58.81271         7     1.156     0.462  65.01   0
       123    602.7502    674.3340 300.1393367 +22.7376770     657.7675     72.56755      1.417     3.41     4.232049     20.47873     72.23476        14     1.075     0.882  75.09   0
       124    594.4671    666.3465 300.1393555 +22.7328990     3217.719     72.60453      1.417     2.55     4.234621     20.47873      359.918        29     1.173     1.079  46.45   0
       125    584.8336    660.3000 300.1383232 +22.7282731     1342.795     72.56755      1.333     2.62     4.228686     20.47873     157.2714        15     0.981     0.851  -0.15   0
       126    513.3974    659.3375 300.1164123 +22.7065659     264.6512     72.58604      1.196     3.44     3.968313     20.47873     45.66159         5     0.732     0.469  75.45   0
       127    978.5539    657.5291 300.2618346 +22.8455371     579.3343     72.56755      1.923     5.01      3.92231     20.47873     49.34479        11     1.107     0.926  81.05   0
       128    779.3672    658.3218 300.1995207 +22.7860493     243.1278     72.56755      1.426     4.41     3.791347     20.47873     31.81634         5     0.951     0.583 -36.39   0
       129    495.4515    657.1821 300.1115310 +22.7005630     388.6664     72.56755      1.747     4.77     3.859377     20.47873     34.11477         8     0.978     0.659 -34.63   0
       130    248.1163    656.6213 300.0348272 +22.6261757      589.629     72.54906      1.353     3.15     3.603211     20.47873     72.44297         9     0.882     0.718 -28.37   0
       131    262.0081    654.7104 300.0397644 +22.6297974     670.0447     72.49354      1.449     3.59     3.575377     20.47873     70.09617        12     0.961     0.885 -29.91   0
       132    319.5042    651.4816 300.0586805 +22.6461284     454.6968      72.7338      1.842     3.57     3.585419     20.47873     40.70184         6     0.916     0.410  69.55   0
       133    287.8929    651.5052 300.0488492 +22.6366473     496.2086     72.75225      1.590     3.81     3.518542     20.47873     50.35678         9     1.100     0.654 -43.58   0
       134    509.4867    649.7715 300.1183049 +22.7026465     1704.998     72.58604      1.426     2.56     3.961853     20.47873     211.5046        21     1.131     0.983  65.97   0
       135    608.9230    650.2842 300.1490742 +22.7326234     394.4907     72.69689      1.379     3.54     4.276512     20.47873     51.28122         7     1.042     0.634  -6.24   0
       136    163.4598    644.7148 300.0123997 +22.5973462     19437.93     72.69689      1.673     3.09     3.786688     20.47873     2099.282        72     1.479     1.390  56.29   0
       137     84.4923    646.2454 299.9873813 +22.5740758     635.9559     72.58604      1.568     4.83     3.918496     20.47873     64.21529        13     1.255     0.997 -26.37   0
       138    594.5623    645.1100 300.1462872 +22.7268300     1027.855     72.56755      1.442     2.95      4.26267     20.47873     108.9257        17     1.197     0.847 -49.73   0
       139    629.8236    644.1735 300.1575644 +22.7371378     214.7337     72.54906      1.243     3.70     4.260671     20.47873     40.92477         5     0.933     0.422 -44.92   0
       140    347.9963    636.8553 300.0722893 +22.6504822     345.3907     72.54906      1.280     2.22     3.654465     20.47873     46.40187         5     0.644     0.521 -89.79   0
       141   1012.6075    631.6593 300.2808574 +22.8483091     1021.881     72.54906      1.614     3.74     3.933293     20.47873     89.66278        17     1.169     0.951  28.28   0
       142    109.5028    628.9417 300.0007695 +22.5766222     1557.634     72.65996      2.060     5.09     3.974202     20.47873     92.69854        28     1.702     1.087 -86.48   0
       143    434.0946    631.3656 300.1008399 +22.6747428     146.4456     72.56755      1.141     4.24     3.737968     20.47873     29.81589         6     0.790     0.648 -46.90   0
       144    879.2990    629.4670 300.2400256 +22.8077214     472.1139     72.67843      1.645     3.36     3.717935     20.47873     48.70506         8     0.796     0.782 -57.17   0
       145    175.5442    629.3753 300.0211375 +22.5965737     432.0384     72.58604      1.920     5.36     3.870908     20.47873     45.50943         8     1.087     0.913  28.33   0
       146    558.0552    625.7360 300.1412247 +22.7103163     433.0971     72.64149      1.431     4.31     4.239223     20.47873     43.64146         7     0.779     0.681 -22.91   0
       147    952.5881    624.1704 300.2645838 +22.8281683     842.5126     72.58604      2.016     3.52     3.913247     20.47873     60.50452        13     1.056     0.859  71.91   0
       148    350.0300    624.8948 300.0768081 +22.6476600     225.1531     72.49354      1.269     3.89     3.664452     20.47873      44.9153         5     1.251     0.347 -26.73   0
       149    514.6348    618.0201 300.1302246 +22.6950756     705.6476     72.60453      1.378     3.06      4.06301     20.47873     77.17375        11     0.934     0.792   3.04   0
       150    709.7839    615.4595 300.1917847 +22.7528723     369.2007     72.54906      1.264     3.87     4.178074     20.47873     53.23431         7     0.898     0.608 -73.61   0
       151    662.5250    616.4279 300.1767589 +22.7389779      500.746     72.60453      1.387     2.46     4.304539     20.47873     72.84355         5     0.678     0.492 -79.56   0
       152    680.3754    614.9924 300.1827816 +22.7439190     483.0588     72.58604      1.284     2.85     4.281411     20.47873     70.41666         9     0.863     0.724 -12.41   0
       153    558.8345    613.9898 300.1452841 +22.7071775     997.6474     72.54906      1.607     3.13     4.258488     20.47873     115.6157        15     1.060     0.941   7.87   0
       154    992.5693    609.5644 300.2817917 +22.8359536     3301.092     72.60453      1.595     2.88     3.918878     20.47873     333.8245        29     1.185     1.163 -26.60   0
       155    524.2688    609.2675 300.1360655 +22.6954528     1732.598     72.64149      1.439     2.55       4.1316     20.47873      178.962        23     1.221     1.009  77.17   0
       156    889.1703    606.4174 300.2505916 +22.8040577     298.2023     72.56755      1.249     3.49     3.798192     20.47873     29.32258         5     0.798     0.441  19.29   0
       157     86.2440    602.8749 300.0020177 +22.5621621     5026.468     72.56755      1.670     3.30     4.065416     20.47873     536.8738        38     1.324     1.293  47.98   0
       158    553.4940    599.8627 300.1482131 +22.7015192     248.8022     72.67843      0.937     2.52     4.272245     20.47873     52.01644         5     0.728     0.443 -66.30   0
       159    387.7390    596.0922 300.0978891 +22.6507089     8988.894     72.65996      1.439     2.61     3.743635     20.47873     1093.149        42     1.242     1.171  77.40   0
       160    604.0441    595.9131 300.1652248 +22.7155472     1998.099     72.56755      0.436    -6.15      4.32035     20.47873     1640.458         5     0.405     0.395  68.66   0
       161    510.1500    593.1196 300.1369207 +22.6865811     8904.592     72.60453      1.387     2.60      4.11433     20.47873      949.295        39     1.239     1.090  62.74   0
       162    914.7394    591.3979 300.2634391 +22.8074060      212.331     72.56755      1.229     3.42     3.912472     20.47873     27.73429         5     0.766     0.441 -19.74   0
       163    589.5827    589.5755 300.1627841 +22.7093899      167.339     72.58604      2.049     3.48      4.31177     20.47873     26.76159         5     1.099     0.318 -69.03   0
       164    921.9159    587.1804 300.2670458 +22.8083450     1873.037     72.53056      1.461     2.97     3.936349     20.47873     198.1109        23     1.169     1.040  81.91   0
       165   1006.5600    584.5796 300.2942717 +22.8329654     12337.15     72.62301      1.632     2.99     3.904987     20.47873     1177.925        54     1.372     1.313 -50.53   0
       166    570.7396    582.7578 300.1591364 +22.7017804     11519.24     72.56755      1.383     2.47     4.306065     20.47873     1530.313        45     1.209     1.155  87.88   0
       167    740.2884    578.5728 300.2132679 +22.7514237     550.7339     72.56755      1.343     2.49     4.117718     20.47873     75.52648         9     0.843     0.698  23.57   0
       168    298.2397    578.1415 300.0759029 +22.6187001     1229.009     72.58604      1.401     3.13     3.708636     20.47873     136.3956        21     1.121     1.052   9.62   0
       169    456.1030    577.1086 300.1253135 +22.6657707     263.0326     72.77069      1.310     4.85     3.968696     20.47873     39.08628         7     1.048     0.636  65.36   0
       170    545.1069    575.6083 300.1534845 +22.6920390     437.1235     72.49354      1.331     2.85     4.305268     20.47873     64.67759         8     0.940     0.584  40.24   0
       171      1.1410    575.3990 299.9845270 +22.5287288     511.4012     55.24249      0.930     2.09     4.065416     20.47873     126.7043         6     0.901     0.337 -83.91  24
       172    502.4531    570.8823 300.1417516 +22.6778876     4256.458     72.62301      1.388     2.51     4.172476     20.47873     549.7343        29     1.107     1.079 -67.99   0
       173    845.3841    570.9612 300.2484716 +22.7807444     870.6314     72.60453      1.454     2.89     3.939813     20.47873     94.84606        14     1.013     0.844  -7.53   0
       174    480.6852    569.3632 300.1354748 +22.6709215      1172.06     72.56755      1.398     2.93     4.114743     20.47873     122.2198        15     1.004     0.888  -3.14   0
       175    235.0605    568.7358 300.0593276 +22.5970400     701.3884     72.62301      1.472     2.92     3.814309     20.47873     80.47753        11     0.978     0.736 -12.46   0
       176    922.2318    566.5363 300.2738519 +22.8025070      1528.87     72.58604      1.481     2.96     3.973353     20.47873     171.0318        21     1.153     1.007 -62.08   0
       177    167.8772    566.4531 300.0392000 +22.5762200       240.77     72.62301      1.477     5.48     4.016842     20.47873     26.67394         6     0.992     0.853  55.91   0
       178    619.0668    558.4568 300.1820694 +22.7092957     198009.7     72.62301      1.395     2.50     4.324487     20.47873     24445.98       208     1.476     1.472  85.29   0
       179    442.5024    564.8541 300.1250654 +22.6581723     310.8659     72.67843      1.468     4.05     3.961108     20.47873     41.73128         5     0.759     0.619 -24.62   0
       180    802.7509    563.5364 300.2376045 +22.7658307     774.3115     72.64149      1.421     2.89     4.064268     20.47873      100.548        14     0.953     0.896  80.03   0
       181    305.1524    558.4101 300.0844614 +22.6151117      3547.16     72.60453      1.468     2.72     3.765651     20.47873     372.8045        31     1.178     1.161  39.42   0
       182    871.0875    554.8661 300.2617081 +22.7838241     531.8929     72.67843      1.511     3.81     3.969459     20.47873     61.96135        10     1.101     0.633  58.34   0
       183    650.5522    544.9850 300.1962450 +22.7148683     224.8965     72.62301      1.172     3.13     4.324487     20.47873     48.80611         6     0.937     0.477 -11.36   0
       184    509.6366    539.1637 300.1542904 +22.6709348      2737.48     72.65996      1.482     2.70     4.299952     20.47873     363.4647        27     1.496     0.943 -85.91   0
       185    354.0681    541.0334 300.1053095 +22.6248019     603.4362     72.58604      1.675     3.17     3.893724     20.47873     65.99809         9     0.900     0.727  74.66   0
       186    921.3558    535.3532 300.2837098 +22.7932826     411.0792     72.62301      1.703     5.03     4.004587     20.47873     38.62499         9     1.403     0.510  55.13   0
       187    826.6172    527.3323 300.2567999 +22.7625824     306.2796     72.58604      1.410     3.20     4.060206     20.47873     49.94625         6     0.861     0.469  -3.66   0
       188    906.6836    524.9807 300.2825075 +22.7859043      1639.71     72.53056      1.408     2.82     3.999853     20.47873     188.7907        18     1.030     0.970  33.27   0
       189    793.3018    525.3389 300.2470709 +22.7520231     344.3865     72.65996      1.816     4.06     4.100529     20.47873     33.33725         6     0.902     0.523 -45.46   0
       190     36.8378    523.4495 300.0124814 +22.5245458     886.6185     72.60453      1.849     4.49     4.055387     20.47873      70.3345        13     1.134     0.799  65.50   0
       191    777.9061    522.4565 300.2432126 +22.7465797     2646.012     72.64149      1.443     2.74     4.123426     20.47873     327.1509        24     1.111     1.084  45.83   0
       192   1022.3272    520.1542 300.3201182 +22.8191707     562.2382      63.5989      1.693     4.22     3.819185     20.47873     48.43699        11     1.081     0.778 -86.85  19
       193   1020.5963    515.8845 300.3209656 +22.8174246     555.9717     70.35151      1.299     2.84     3.814954     20.47873     82.66752        12     0.995     0.764  67.83  19
       194    682.8259    519.3853 300.2146067 +22.7171920     477.4662     72.60453      1.523     3.81      4.30572     20.47873     49.01163         6     0.732     0.650  71.03   0
       195    565.1915    518.4566 300.1782994 +22.6816507     741.0574     72.56755      1.391     2.98     4.334532     20.47873     92.77001        13     1.005     0.836 -65.22   0
       196    906.8480    514.9866 300.2858053 +22.7830812     2320.173     72.60453      1.777     3.99     3.992751     20.47873     215.6841        34     1.709     1.151  82.50   0
       197    945.1068    510.2166 300.2992769 +22.7931754     4351.686     72.51205      1.503     2.81     3.946566     20.47873     461.3517        32     1.234     1.162 -75.16   0
       198    660.3248    513.2586 300.2095928 +22.7086854     640.6873     72.64149      1.398     3.21     4.324487     20.47873     84.31873         9     0.875     0.830 -23.97   2
       199    659.9664    508.8363 300.2109176 +22.7073076     587.0302     72.64149      2.567     5.29     4.324487     20.47873     48.02489         8     1.044     0.952  81.67   2
       200    498.6367    512.1152 300.1596551 +22.6598685     464.1997     72.56755      1.379     3.85     4.297408     20.47873     59.63388         8     0.970     0.636 -53.47   0
       201    445.7626    513.2917 300.1428289 +22.6443465     270.1179     72.56755      1.293     4.49     4.119887     20.47873      37.9694         8     1.000     0.573  17.50   0
       202    682.9052    506.6493 300.2187683 +22.7135571     139.5597     72.64149      1.084     3.45     4.311646     20.47873     33.05754         5     0.802     0.428  18.16   0
       203    605.7537    506.0288 300.1949573 +22.6902453     211.2296     72.62301      1.206     4.54     4.324787     20.47873     37.34235         7     0.836     0.701 -29.08   0
       204    177.0446    500.2626 300.0635471 +22.5599790     965.6806     72.60453      1.454     3.45     3.922122     20.47873     101.2772        15     1.122     0.866  54.14   0
       205    838.0684    494.5829 300.2710047 +22.7566036     246.5643     72.58604      1.129     4.07     4.024036     20.47873     39.26276         7     0.863     0.695  67.25   0
       206    169.4764    490.3986 300.0644000 +22.5548770     364.0634     72.47503      1.305     3.37     3.914991     20.47873      50.9197         7     0.965     0.475  -8.22   0
       207    777.2115    484.5097 300.2553219 +22.7354679     464.1536     72.53056      1.321     2.83     4.129951     20.47873      70.4444         9     0.891     0.722   0.72   0
       208    666.5103    482.5574 300.2214898 +22.7017204     410.3707     72.60453      1.134     3.28     4.324487     20.47873     51.08969         6     0.887     0.434  18.17   0
       209    718.4198    480.6342 300.2382741 +22.7167305     833.2267     72.60453      1.272     2.87     4.324487     20.47873     97.86774        15     1.061     0.847 -30.90   0
       210    779.3603    472.8912 300.2597645 +22.7327734     945.6518     72.58604      1.391     2.44     4.129668     20.47873     109.1122        12     0.892     0.797  -8.61   0
       211    936.4788    469.1507 300.3099264 +22.7787857     1084.192     72.58604      1.526     2.95     3.942464     20.47873     105.9076        17     1.120     0.877  54.06   0
       212    920.8268    465.6735 300.3061781 +22.7730961      664.523     72.58604      1.479     3.13     3.971786     20.47873     76.41734        10     0.989     0.668 -35.25   0
       213    901.2079    465.9376 300.2999791 +22.7672931      270.209     72.53056      1.488     3.96     3.998678     20.47873     32.39906         6     0.926     0.484 -51.97   0
       214    665.0658    463.4044 300.2272604 +22.6957850     3203.301     72.58604      1.344     2.37      4.29004     20.47873     418.6239        24     1.046     1.004  63.16   0
       215    141.7791    454.8798 300.0673321 +22.5363719     292.4465     72.56755      1.524     3.77     3.942129     20.47873     45.36497         7     0.966     0.723 -21.21   0
       216    504.9058    450.2046 300.1817115 +22.6439692      387.358     72.47503      1.557     2.54     4.338727     20.47873     61.88006         6     0.803     0.642  89.49   0
       217    948.3040    442.7442 300.3221873 +22.7747378     705.2755     72.67843      1.731     2.95     3.935989     20.47873     68.88139        11     0.992     0.715  46.88   2
       218    684.6851    439.3982 300.2411633 +22.6947695     396.1964     72.51205      1.297     2.84     4.246951     20.47873     66.42937         7     0.910     0.519 -54.33   0
       219    775.7585    437.3975 300.2701693 +22.7214940     1146.297     72.58604      1.270     2.31     4.177738     20.47873      136.375        15     0.945     0.807  34.50   0
       220    571.5222    438.0449 300.2063842 +22.6604530     418.0112     72.56755      1.260     2.88     4.300767     20.47873     67.06281         8     0.853     0.652  34.01   0
       221    279.5871    435.3011 300.1164995 +22.5721039     693.5659     72.49354      1.388     3.53     3.976906     20.47873     86.56843        13     1.144     0.808  79.74   0
       222    119.6979    434.1479 300.0672064 +22.5237956      278.369     72.65996      1.420     3.39     3.988139     20.47873     42.73291         5     0.733     0.686  28.68   0
       223    342.0190    431.1633 300.1372462 +22.5896455     3719.405     72.58604      1.399     2.59     4.171122     20.47873     393.6117        29     1.161     1.100  61.31   0
       224    289.2452    426.0048 300.1225192 +22.5723327     7646.681     72.58604      1.437     2.60      4.01753     20.47873     853.5438        43     1.219     1.207  -2.09   0
       225    793.8943    426.4209 300.2793817 +22.7237750     235.7203     72.51205      1.304     3.80     4.150049     20.47873     46.60448         6     0.843     0.492   3.44   0
       226    667.6032    425.5502 300.2403425 +22.6856699     319.3589     72.58604      1.254     3.49     4.216442     20.47873     44.98322         7     0.859     0.654  16.85   0
       227    430.0442    420.2634 300.1681515 +22.6129189     4829.634     72.58604      1.359     2.43     4.371331     20.47873     572.8092        28     1.095     1.045  75.54   0
       228    674.2538    416.9456 300.2452066 +22.6851913     18350.05     72.62301      1.338     2.36     4.194433     20.47873      2450.65        50     1.227     1.097  72.42   0
       229    692.0251    416.9500 300.2507372 +22.6905198     748.8877     72.60453      1.799     6.02     4.213913     20.47873      78.4326        14     1.525     0.669 -45.28   0
       230    301.1872    415.1870 300.1297426 +22.5728096     377.2048     72.51205      1.620     3.66     4.100289     20.47873     38.74373         6     1.022     0.653 -17.84   0
       231    917.8793    413.5989 300.3221700 +22.7572431     347.8298     72.47503      1.287     3.91     4.037949     20.47873     42.34817         7     0.865     0.606 -24.28   0
       232   1008.1034    399.6721 300.3548124 +22.7802690     839.9522     72.71535      1.478     3.23     3.769531     20.47873       81.547        14     1.000     0.895 -17.97   0
       233    228.8840    397.1185 300.1131420 +22.5459309     2070.656     72.71535      1.435     2.58     4.055758     20.47873     261.6998        26     1.194     1.033  46.41   0
       234    544.5775    398.4203 300.2108665 +22.6409914     369.5893     72.58604      1.428     4.75     4.313794     20.47873     35.54403         8     1.066     0.624  13.23   0
       235    242.6318    392.6227 300.1188727 +22.5487649     259.5417     72.58604      1.141     3.13     4.090066     20.47873     42.08854         5     0.731     0.458  16.13   0
       236    614.9269    386.3978 300.2366593 +22.6586292     6560.414     72.49354      1.338     2.32     4.278586     20.47873     889.4701        37     1.215     1.057  59.45   0
       237    329.8704    385.7087 300.1482273 +22.5729503     690.3455     72.75225      1.425     3.83     4.311468     20.47873     81.84063        11     1.076     0.751  70.61   0
       238    187.5016    378.8775 300.1062079 +22.5282787     587.1985     72.71535      1.561     3.75     4.194123     20.47873     59.18427        10     1.112     0.698  -6.67   0
       239    819.1418    375.4485 300.3037948 +22.7166906      1242.82     72.64149      1.536     4.20     3.960321     20.47873     124.1186        19     1.382     0.892 -63.82   0
       240     34.6464    376.7333 300.0594393 +22.4817942     1326.377     72.58604      1.570     3.90     4.648751     20.47873     141.9673        23     1.364     1.002  16.69   0
       241    728.9078    376.5580 300.2753339 +22.6899676     509.9611     72.58604      1.211     1.98     3.987971     20.47873     90.62222         8     0.738     0.640 -72.93   0
       242      3.8622    374.1861 300.0507108 +22.4718239     1260.361     68.57408      1.933     5.11     4.859079     20.47873     102.9894        24     1.689     1.021 -56.52  24
       243    521.5212    372.6185 300.2120701 +22.6266664     5957.295     72.58604      1.299     2.25     4.373964     20.47873     836.7554        30     1.097     1.027  70.92   0
       244   1010.9384    367.4848 300.3661462 +22.7718624     687.3541     72.71535      1.588     3.74     3.754791     20.47873     80.77434        13     1.025     0.912  39.16   0
       245    913.6457    367.0656 300.3359585 +22.7425965     1245.497     72.58604      1.410     2.85     4.029633     20.47873      144.892        17     1.072     0.863 -70.04   0
       246    505.8603    361.6349 300.2107639 +22.6188155     423.0963     72.60453      1.216     4.39     4.428781     20.47873     56.39013         8     0.947     0.583 -13.39   0
       247     12.7282    362.1423 300.0573719 +22.4710290     245.4277     72.62301      1.214     3.59     5.027664     20.47873     45.46705         6     0.759     0.590 -48.80   0
       248    589.0762    359.3383 300.2373991 +22.6431050     470.2296     72.64149      1.523     4.31     4.310495     20.47873     54.32477         7     1.030     0.514 -26.39   0
       249     33.0230    358.1416 300.0649699 +22.4759719     1095.292     72.58604      1.513     2.96     4.954247     20.47873     120.7257        21     1.129     1.083 -24.32   0
       250    886.3667    354.8087 300.3314375 +22.7308997     416.4181     72.58604      1.254     2.57     3.983113     20.47873     86.86153         9     0.935     0.693 -69.62   0
       251    390.3969    354.7810 300.1770819 +22.5822228     120.9511     72.51205      1.054     3.43     4.444892     20.47873     24.65427         5     0.764     0.444 -70.80   0
       252    409.1382    351.8996 300.1838442 +22.5870157     2630.758     72.65996      1.372     2.49     4.410843     20.47873     351.8713        28     1.130     1.089  23.02   0
       253    127.5343    349.4098 300.0971478 +22.5018273     1040.604     72.54906      1.505     2.75      4.49507     20.47873     113.3906        16     1.073     0.992  19.71   0
       254    755.3859    346.3907 300.2933714 +22.6892327     294.8015     72.49354      1.715     6.06     3.786454     20.47873     43.89465         9     1.680     0.615  -5.67   0
       255    378.4381    341.2754 300.1777477 +22.5747576     29644.53     72.54906      1.377     2.44     4.450965     20.47873     3343.652        76     1.360     1.221  60.76   0
       256    913.0770    338.8970 300.3449252 +22.7343270     1283.683     72.71535      1.363     2.78     4.018773     20.47873      181.297        15     0.976     0.861  78.67   0
       257     74.7388    329.1232 300.0873384 +22.4801627     5088.575     72.64149      1.586     2.86     4.715197     20.47873     533.0455        39     1.338     1.233  67.54   0
       258    828.4522    327.8872 300.3221337 +22.7058081     555.2264     72.62301      1.366     2.12      3.85128     20.47873      75.3882         8     0.751     0.634  14.10   0
       259    477.0680    326.7331 300.2131369 +22.6001566      478.562     72.64149      1.272     3.17     4.485887     20.47873     60.39419        12     1.054     0.717 -76.30   0
       260    788.8323    321.0222 300.3120214 +22.6919632     1952.923     72.58604      1.350     2.58     3.793614     20.47873      250.994        21     1.067     0.925  72.67   0
       261    596.9765    315.4847 300.2540913 +22.6328728     403.5143     72.54906      1.342     4.50     4.394374     20.47873     53.50176         8     0.871     0.730 -65.64   0
       262   1003.9918    313.8568 300.3813884 +22.7543590     679.3994     72.56755      1.391     3.66     3.839106     20.47873     76.33526        12     1.088     0.772  70.82   0
       263    450.6001    305.5559 300.2117781 +22.5861371     2061.982     72.56755      1.558     3.22     4.424026     20.47873      280.368        25     1.345     0.983  60.06   0
       264    889.7504    298.7283 300.3506941 +22.7157891     554.8752     72.58604      1.344     2.53     3.944764     20.47873     81.14517         9     0.803     0.732 -84.15   0
       265     23.7937    296.4750 300.0821177 +22.4555050     738.6312     72.51205      2.082     2.38     5.095624     20.47873     68.60938         9     0.870     0.646 -72.18   2
       266    789.4500    295.8672 300.3203778 +22.6849169     224.2493     72.56755      1.525     4.70     3.776531     20.47873       34.148         5     1.165     0.537 -30.31   0
       267    772.0510    296.3491 300.3148027 +22.6798422     527.6324     72.62301      1.485     2.74     3.769458     20.47873     60.75795         7     0.794     0.604 -14.84   0
       268    526.5758    285.1124 300.2420436 +22.6030420      1085.29     72.54906      1.252     2.34     4.439024     20.47873     147.1312        17     1.086     0.816 -67.79   0
       269    909.6442    278.4869 300.3634618 +22.7159279     123.1011     72.56755      1.023     3.15     3.995003     20.47873     47.30717         5     0.729     0.460  20.26   0
       270    771.4557    277.0207 300.3208898 +22.6741073     2306.342     72.58604      1.416     2.37     3.771266     20.47873     284.3792        25     1.124     1.048  79.40   0
       271      4.5218    262.2644 300.0872359 +22.4399034     72151.73      70.8268      1.726     3.13     5.297887     20.47873     7220.761       106     1.609     1.432  58.98  24
       272    479.7104    260.7570 300.2353687 +22.5819947      653.979     72.60453      1.343     3.52     4.451777     20.47873     87.89079        12     1.076     0.809  87.34   0
       273    185.3711    255.1967 300.1456837 +22.4921323     475.3582     72.54906      1.368     3.05     4.489089     20.47873     70.27785        11     1.101     0.610 -35.86   0
       274    154.4438    254.7518 300.1362218 +22.4827273      1432.08     72.60453      1.738     3.70     4.507822     20.47873     114.8417        25     1.312     1.189 -62.63   0
       275    238.6567    246.8578 300.1649432 +22.5057205     441.2068     72.65996      1.519     2.69     4.440224     20.47873     81.59849         9     0.996     0.713  52.21   0
       276     94.4043    244.0043 300.1210635 +22.4616303     321.4274     72.43798      1.287     2.93     4.629143     20.47873     51.30326         7     0.832     0.579  59.06   0
       277    914.7790    240.6415 300.3773422 +22.7065822     397.4656     72.62301      1.146     2.81      4.01015     20.47873     38.50133         5     0.734     0.442  18.55   0
       278    843.0124    238.4021 300.3557085 +22.6844416     689.5561     72.40092      1.376     2.71     3.862805     20.47873     83.45575        11     0.906     0.785 -65.68   0
       279    433.3197    237.8792 300.2283640 +22.5615141     440.8384     72.71535      1.375     2.97     4.384442     20.47873     74.22675        11     0.939     0.825 -34.44   0
       280    933.9228    231.6512 300.3862249 +22.7097303     372.4109     72.58604      1.396     4.05     4.037828     20.47873       51.617         6     0.838     0.648 -39.61   0
       281    941.0919    227.3112 300.3898672 +22.7106291     2066.388     72.75225      1.466     2.67     4.021876     20.47873     260.0009        22     1.110     1.008  60.63   0
       282    359.6685    224.7670 300.2097185 +22.5356650     1988.802     72.58604      1.373     2.31     4.361705     20.47873     292.5099        22     1.098     0.966  62.84   0
       283    437.5563    219.6871 300.2355833 +22.5575576      1030.26     72.56755      1.449     2.81     4.391583     20.47873     127.2678        14     1.018     0.821  36.21   0
       284    189.9012    220.2221 300.1584373 +22.4834485     363.5445     72.51205      1.732     3.88     4.500112     20.47873     35.11539         6     0.794     0.544 -38.04   0
       285    839.6002    219.0882 300.3609118 +22.6778656     592.0839     72.49354      1.234     2.73     3.896838     20.47873     67.41795         7     0.743     0.616 -84.96   0
       286     35.5711    213.0533 300.1128382 +22.4350944     464.0945     72.60453      2.104     4.42     5.093976     20.47873     35.87685         8     0.905     0.672 -39.80   0
       287    254.3031    211.7870 300.1811820 +22.5003413     923.8239     72.47503      1.492     3.23     4.408543     20.47873     99.83647        11     0.979     0.770  61.65   0
       288    792.2119    208.6909 300.3495241 +22.6606804     1752.803     72.53056      1.421     2.66     3.923933     20.47873     240.0644        19     1.101     0.954  64.63   0
       289    857.2977    208.3158 300.3699198 +22.6800689     703.1754     72.75225      1.549     2.79     3.948074     20.47873     103.4104        12     0.948     0.819  59.83   0
       290    275.9378    205.1545 300.1900563 +22.5049243     512.4973     72.62301      1.265     2.19     4.344261     20.47873     77.67795         7     0.820     0.507 -47.22   0
       291    796.4626    200.1881 300.3536064 +22.6595088     799.8568     72.56755      1.383     3.68     3.973611     20.47873     108.3693        17     1.203     0.996  35.39   0
       292    716.7212    199.5779 300.3289724 +22.6354440     1207.934     72.56755      1.386     2.52     4.013765     20.47873     148.8568        17     0.978     0.947 -48.36   0
       293    538.1245    196.1936 300.2744854 +22.5809524     392.3295     72.51205      1.366     3.04     4.416625     20.47873     52.41575         5     0.934     0.328 -43.39   0
       294    912.2753    190.9542 300.3926818 +22.6915418     1515.019     72.56755      1.490     2.67     4.229046     20.47873     178.4957        20     1.199     0.931  79.07   0
       295    642.9436    191.2920 300.3086931 +22.6109560     993.7129     72.64149      1.353     2.82     4.346098     20.47873     134.2303        15     1.087     0.792  46.53   0
       296    924.2104    190.2233 300.3966382 +22.6949060     753.5551     72.58604      1.331     3.39      4.28835     20.47873     98.52359        12     1.022     0.861  19.65   0
       297    970.4935    189.2750 300.4113705 +22.7084932     355.1202      72.7338      1.276     3.19     4.052289     20.47873      37.6596         5     0.729     0.457  69.15   0
       298     14.2458    179.8453 300.1169896 +22.4191637     273.2527     72.62301      1.383     4.71     5.105306     20.47873     32.52486         6     1.069     0.588 -69.37   0
       299     65.2257    177.0317 300.1337282 +22.4336498     425.6069     72.58604      1.485     5.07     4.837039     20.47873     51.56447         9     1.345     0.601  83.39   0
       300    275.2910    173.5203 300.2001161 +22.4956442     715.3142     72.69689      1.474     3.53     4.357673     20.47873     80.18588        15     1.084     0.958  52.66   0
       301    157.6936    172.0897 300.1640454 +22.4599669     271.3412     72.75225      1.490     4.28     4.573001     20.47873     35.60796         7     0.772     0.675  86.62   0
       302    136.9665    168.2030 300.1588684 +22.4526341     2137.364     72.58604      1.509     2.81     4.616722     20.47873     230.1316        24     1.171     1.064  57.22   0
       303    960.0980    165.4403 300.4158618 +22.6985239     623.6496     72.58604      1.236     3.93     4.209336     20.47873     90.35111        10     1.101     0.712  55.89   0
       304     86.3351    165.1828 300.1441252 +22.4365801      391.772     72.56755      1.338     2.73     4.738942     20.47873     72.35083         7     0.936     0.548  17.00   0
       305    294.3729    161.5435 300.2099306 +22.4979256     5789.103     72.58604      1.453     2.60     4.326932     20.47873       681.44        37     1.258     1.131  82.71   0
       306    276.5051    162.4771 300.2040750 +22.4928362     401.4418     72.69689      1.520     4.68     4.356319     20.47873     40.64429         9     1.048     0.734 -23.95   0
       307     78.5874    156.0003 300.1446975 +22.4316196     1286.762     72.40092      1.456     3.28     4.768531     20.47873     138.0833        19     1.212     0.933  57.65   0
       308    277.7618    152.9608 300.2075518 +22.4904795      774.181     72.65996      1.778     3.13     4.368919     20.47873     89.21822        10     1.029     0.726 -50.18   0
       309    938.5201    143.1902 300.4163533 +22.6856619     3358.592     72.54906      1.402     2.55     4.513172     20.47873     388.8589        28     1.169     1.108 -70.62   0
       310    487.9561    138.4633 300.2776034 +22.5493253     583.2841     72.58604      1.352     2.55      4.45434     20.47873     84.29092        11     0.893     0.790 -87.78   0
       311    602.0785    136.2633 300.3138229 +22.5828924     216.1994     72.67843      1.121     2.62     4.330468     20.47873     57.57494         6     0.803     0.636 -38.07   0
       312    412.1468    130.0841 300.2567444 +22.5241951     792.8287     72.62301      1.841     2.89     4.376112     20.47873     79.97559         9     0.896     0.672 -76.64   0
       313    177.8462    127.0641 300.1849067 +22.4530801     625.5065     72.62301      1.408     4.66     4.617215     20.47873     67.94881        12     1.081     0.915  56.68   0
       314    539.1838    125.5579 300.2977245 +22.5609685     1689.244     72.60453      1.350     2.30     4.379522     20.47873     229.1835        22     1.144     0.981  78.29   0
       315    467.3799    125.9171 300.2752722 +22.5395527     327.8377     72.54906      1.315     3.46     4.448966     20.47873     52.90082         9     0.861     0.772  -3.63   0
       316     98.9760    125.9560 300.1607711 +22.4291081      862.021     72.62301      0.430     1.71     4.739055     20.47873      666.559         5     0.345     0.275 -88.61   0
       317    601.2692    124.8876 300.3172602 +22.5793798     345.1331      72.7338      1.235     3.91     4.318376     20.47873     49.44922         7     0.886     0.586  58.69   0
       318     75.7122    125.4545 300.1537102 +22.4219865     271.9393     72.62301      1.438     4.26     4.778258     20.47873     32.34835         5     1.023     0.505  39.75   0
       319    363.1204    121.6327 300.2442422 +22.5070705     236.4453     72.56755      1.330     3.45      4.40993     20.47873     30.43222         5     0.771     0.446 -16.82   0
       320    283.0758    121.3474 300.2194550 +22.4829914     395.4265     72.58604      1.205     2.04     4.417218     20.47873     52.30738         7     0.684     0.631   9.73   0
       321    827.8016    115.0378 300.3909857 +22.6444078     346.6413     72.60453      1.299     2.26     4.463625     20.47873     45.33662         5     0.753     0.477  35.71   0
       322    973.5507    109.4582 300.4382110 +22.6864462     337.0234     72.64149      1.351     3.69     4.829744     20.47873     41.91747         6     0.923     0.425  18.54   0
       323    313.3769    105.4530 300.2340262 +22.4875096     5762.065     72.60453      1.484     2.62     4.436845     20.47873     657.0547        39     1.294     1.192  71.17   0
       324    164.4583    105.1266 300.1878615 +22.4427648     730.4811     72.62301      1.633     2.85     4.679307     20.47873     90.33167        11     0.962     0.747 -80.89   0
       325    819.7254    105.7043 300.3914966 +22.6393045     268.8783      72.7338      1.104     3.40     4.532586     20.47873        52.31         5     0.751     0.446   9.21   0
       326    942.6959    103.0047 300.4306869 +22.6753514     307.3025     72.49354      1.209     2.40     4.724387     20.47873     58.46129         5     0.768     0.470  25.82   0
       327      8.1188    101.8597 300.1403767 +22.3949368     696.8967     72.64149      1.589     3.13     4.797891     20.47873     74.09563        10     0.971     0.724  71.45   0
       328    285.1614     99.3921 300.2272222 +22.4773094     254.3369     72.60453      1.517     3.93     4.455244     20.47873     48.81837         5     0.920     0.481  -6.25   0
       329    328.8167     97.2717 300.2414779 +22.4897876     280.4718     72.58604      1.195     3.37     4.450907     20.47873     40.99818         5     0.779     0.421 -12.67   0
       330     74.8616     95.7294 300.1630841 +22.4131958     396.2423     72.62301      1.577     4.00     4.777532     20.47873     44.97319         8     0.961     0.857 -25.39   0
       331    559.3807     90.8305 300.3152691 +22.5570382     6170.989     72.58604      1.418     2.40     4.350951     20.47873     765.4547        38     1.216     1.120  74.05   0
       332    444.8080     90.6136 300.2796996 +22.5226418     603.4423     72.47503      1.412     2.70     4.434468     20.47873     90.43649        14     1.047     0.811  84.79   0
       333    616.6614     85.7298 300.3347477 +22.5727341     328.0447     72.62301      1.217     3.57     4.404594     20.47873     46.80835         5     0.828     0.477  43.33   0
       334    580.0775     84.9647 300.3236110 +22.5615532     291.1511     72.54906      1.385     3.85      4.38551     20.47873     37.45762         5     0.799     0.532  60.92   0
       335    811.6833     80.3495 300.3972129 +22.6296033     932.0846     72.60453      1.754     3.51     4.669041     20.47873     103.5747        14     1.110     0.973  74.82   2
       336    753.3124     82.4198 300.3783623 +22.6127170     292.9798     72.53056      1.076     3.47     4.555844     20.47873     33.36449         5     0.746     0.467  15.99   0
       337    904.4075     79.4501 300.4263925 +22.6571107     480.8004     72.58604      1.314     2.93     4.687398     20.47873     64.56835        10     0.929     0.741  89.25   0
       338    252.3959     74.6947 300.2250476 +22.4603908      660.946     72.49354      1.606     3.61     4.585124     20.47873     75.51701         9     1.069     0.720  73.19   0
       339    610.8660     73.0597 300.3370520 +22.5673550     455.4437     72.62301      1.517     3.52     4.554821     20.47873     51.58734         8     0.808     0.773 -80.21   0
       340    687.7721     70.8752 300.3616986 +22.5897657     6249.261     72.60453      1.400     2.35       4.4935     20.47873     870.0123        35     1.179     1.114  83.89   0
       341    462.7080     69.7480 300.2920316 +22.5220093     1485.824     72.64149      1.444     2.64     4.519305     20.47873      174.824        20     1.157     0.939  62.47   0
       342    728.7601     68.2623 300.3753072 +22.6012915     892.7103     72.58604      1.436     3.20     4.594226     20.47873     102.7446        13     1.147     0.774  36.20   0
       343    744.8925     64.3714 300.3815921 +22.6050044     657.9099     72.53056      1.492     2.56     4.650442     20.47873     76.64214        10     0.865     0.782  10.77   0
       344   1014.6312     62.1727 300.4663494 +22.6851382     476.9326     72.58604      1.376     3.25     5.266679     20.47873     62.48524         9     0.971     0.657  57.65   0
       345    211.6528     62.5671 300.2163203 +22.4446914     702.9121     72.60453      1.592     3.18     4.818418     20.47873     64.75408        12     1.027     0.837 -56.77   0
       346    783.3593     59.6814 300.3950920 +22.6151761     509.1767     72.54906      1.354     2.85     4.726973     20.47873     59.63857        11     0.913     0.784  32.08   0
       347    731.9540     55.7049 300.3803729 +22.5986367     2732.938     72.60453      1.426     2.59     4.678978     20.47873     385.5347        27     1.218     1.018  73.37   0
       348    372.7172     56.5968 300.2683121 +22.4912592      374.702     72.51205      1.418     3.90     4.338869     20.47873     39.15138         6     0.869     0.501 -42.74   0
       349    746.9691     54.5434 300.3854250 +22.6027998     998.4285     72.60453      1.762     5.27     4.709709     20.47873     94.23406        17     1.488     0.855  63.16   0
       350     25.2501     49.8282 300.1625625 +22.3851352     840.6258     72.60453      1.577     4.89     4.777532     20.47873     90.35578        13     1.182     0.967  36.97   0
       351    818.4154     47.3183 300.4100190 +22.6221181     1532.952     72.56755      1.449     2.65     4.792191     20.47873     167.7485        21     1.150     0.974  83.18   0
       352    756.4299     40.5470 300.3929086 +22.6016077     766.7592     72.60453      1.381     2.54     4.800683     20.47873     96.11784        13     0.938     0.803  54.39   0
       353    562.1438     39.7020 300.3327049 +22.5431674     1049.672     72.67843      1.479     2.83     4.482149     20.47873       134.39        15     1.143     0.912 -44.35   0
       354    135.1886     39.9625 300.1998962 +22.4152712     675.9775     72.58604      1.618     2.44     4.893166     20.47873     77.86842         8     0.912     0.574 -29.20   0
       355    465.8932     38.0969 300.3032830 +22.5138663     631.4084     72.77069      1.236     2.75     4.612579     20.47873     101.3697        12     0.957     0.773  56.51   0
       356    848.0998     36.6325 300.4227304 +22.6279328     351.1674     72.56755      1.318     3.96     4.828761     20.47873     43.83852         8     0.927     0.643 -15.40   0
       357    237.2483     27.9284 300.2355011 +22.4424139     3781.251     72.56755      1.505     2.85     4.892552     20.47873     427.2567        35     1.321     1.198  70.09   0
       358    805.2814     28.8905 300.4119019 +22.6128842     651.0482     72.69689      1.544     2.78     4.861567     20.47873     84.33439        10     0.909     0.707   9.72   0
       359    368.2271     29.0005 300.2758619 +22.4819828     289.7325     72.54906      1.256     3.80     4.271203     20.47873     32.39682         5     0.823     0.504 -26.75   0
       360    659.8015     25.1457 300.3678162 +22.5682371     353.5822     72.51205      1.483     4.01     4.748341     20.47873     40.60124         6     1.138     0.403  29.21   0
       361    238.1077   1019.9694 299.9135447 +22.7273717     3460.119     71.97334      6.165    25.16     66.49139     20.47873     74.45229       187     5.070     3.727  -4.88  27
       362    798.5204     20.6036 300.4124823 +22.6084758     880.2395     72.49354      1.347     2.94     4.890808     20.47873     111.1547        13     0.985     0.783  80.43   0
       363    764.1875     19.6633 300.4020942 +22.5979240     422.1022     72.54906      1.624     2.57     4.917147     20.47873     41.77369         5     0.717     0.450 -14.92   0
       364    580.1886     16.9880 300.3456826 +22.5420428     205.7347     72.47503      1.235     5.08     4.800316     20.47873     31.71486         6     1.157     0.630 -78.25   0
       365    836.4322     15.5081 300.4259433 +22.6183620     599.3904     72.53056      1.582     3.46     4.920236     20.47873      65.0954        12     0.996     0.826 -78.41   0
       366    759.7583     15.4212 300.4020899 +22.5953774      597.584     72.62301      1.612     2.49     4.947707     20.47873     68.33713         9     0.846     0.700 -79.27   0
       367    613.0583   1015.6780 300.0315159 +22.8387377     2330.332     72.62301      1.923     4.91      2.55958     20.47873     144.2564        30     1.381     1.322   9.02  16
       368    699.5931   1010.8325 300.0600248 +22.8633213     8496.453     72.58604      1.957     4.33     2.469154     20.47873      465.602        46     1.499     1.460 -89.02   3
       369    705.1370   1008.7067 300.0624424 +22.8643752     9483.932     72.69689      1.998     4.73     2.459042     20.47873     560.1076        53     1.564     1.530 -26.08   3
       370    190.4988    975.9681 299.9130766 +22.7004562     1449.374     72.56755      8.052    11.46     40.70984     20.47873     50.42006        26     2.521     1.451 -44.34   3
