#   1 NUMBER                 Running object number                                     
#   2 X_IMAGE                Object position along x                                    [pixel]
#   3 Y_IMAGE                Object position along y                                    [pixel]
#   4 ALPHA_J2000            Right ascension of barycenter (J2000)                      [deg]
#   5 DELTA_J2000            Declination of barycenter (J2000)                          [deg]
#   6 FLUX_APER              Flux vector within fixed circular aperture(s)              [count]
#   7 FLUXERR_APER           RMS error vector for aperture flux(es)                     [count]
#   8 FLUX_RADIUS            Fraction-of-light radii                                    [pixel]
#   9 FWHM_IMAGE             FWHM assuming a gaussian core                              [pixel]
#  10 BACKGROUND             Background at centroid position                            [count]
#  11 THRESHOLD              Detection threshold above background                       [count]
#  12 FLUX_MAX               Peak flux above background                                 [count]
#  13 ISOAREA_IMAGE          Isophotal area above Analysis threshold                    [pixel**2]
#  14 A_IMAGE                Profile RMS along major axis                               [pixel]
#  15 B_IMAGE                Profile RMS along minor axis                               [pixel]
#  16 THETA_IMAGE            Position angle (CCW/x)                                     [deg]
#  17 FLAGS                  Extraction flags                                          
         1    503.2614     15.3996 300.3325796 +22.5431616     1025.796     72.03706      1.410     3.21     5.940661      20.3342     113.0083        14     0.994     0.945  74.44   0
         2     76.4023     15.0592 300.1998861 +22.4152705     438.4854     72.05542      1.731     3.51     7.128554      20.3342     59.03374         8     0.997     0.661 -57.10   0
         3    407.3221     13.4117 300.3033537 +22.5138771     661.6226     72.07378      1.449     3.86     6.465637      20.3342     77.82303        15     1.137     0.999 -63.34   0
         4    789.6838     12.2059 300.4228637 +22.6279309     417.7227     72.00031      1.214     2.78     5.917626      20.3342      56.4139         7     0.752     0.620 -59.28   0
         5    178.5429      3.3810 300.2354247 +22.4425032     3726.044     66.25831      1.620     2.76     5.957391      20.3342     430.6776        31     1.288     1.156   8.92  24
         6    746.5754      4.2778 300.4119926 +22.6127564       610.69     69.53227      1.444     3.11     5.667946      20.3342     62.92382        10     0.915     0.708  16.21  16
         7    155.7960   1011.9895 299.9009273 +22.7251952     238.9562     71.90836      3.529     3.47     93.60835      20.3342     29.70572         5     1.590     0.219  63.38  17
         8     93.0993   1010.9736 299.8817698 +22.7060884     4787.035     72.01868     16.770   101.24     83.51388      20.3342     161.5626      2143    18.839    15.545  46.62  27
         9     84.4641    944.2034 299.9008037 +22.6843551      6166.44     72.05542     30.612     8.77     21.38201      20.3342     1279.208      4961    21.944    17.552 -64.01  19
        10    363.2179    997.6157 299.9701148 +22.7833043     493.0007     72.05542      1.570     4.66     3.757913      20.3342     44.23342         7     1.846     0.334 -36.96   0
        11      5.0345   1014.1747 299.8533644 +22.6805732     3641.763     71.50241     19.255    71.07     -32.0665      20.3342     66.87225       771    18.451     7.596 -81.66  26
        12    553.9990    991.1859 300.0315947 +22.8386740     2258.815     71.90836      1.955     4.90     4.252812      20.3342     143.9686        30     1.441     1.301  13.47   0
        13    739.0212    986.5032 300.0907614 +22.8927956     643.5974     72.00031      2.417     6.36     3.999127      20.3342     54.38741         8     1.380     0.823 -23.02   2
        14    640.5918    986.5564 300.0600727 +22.8633066     8821.515     72.09213      2.068     4.68     4.041075      20.3342      473.092        50     1.609     1.502  22.69   3
        15    646.1609    984.2985 300.0625423 +22.8643280     9483.346     72.07378      2.061     4.66     4.048475      20.3342      563.677        47     1.535     1.506  27.22   3
        16    208.4257   1002.4984 299.9203779 +22.7382665     2029.878     72.01868      2.639    27.21     81.61902      20.3342      54.1876       118     5.625     3.654 -20.66  19
        17    207.4726    985.7343 299.9255347 +22.7331735     4037.311     72.11049      7.627    22.91     67.04639      20.3342     74.65472       250     4.876     4.538 -74.89   3
        18    245.0416    973.5531 299.9411799 +22.7409520      8212.57     72.12883     10.434    36.56     39.13531      20.3342     169.0894       965    12.568     5.464  67.46  18
        19    183.0181    999.9528 299.9133060 +22.7299128     1309.662     72.11049      3.332     8.34     81.93738      20.3342     55.84362        20     1.850     1.051 -19.93   3
        20    227.0127    984.2628 299.9320895 +22.7386142     5327.846     72.05542      8.671    35.28     61.45586      20.3342     108.0979       441     7.390     5.331  63.62  19
        21    174.7874    976.6038 299.9183420 +22.7207483     2076.055     71.92677      5.313    14.87     62.73354      20.3342     60.78047        57     3.478     1.769  77.72   3
        22      2.8718    994.6898 299.8590308 +22.6743395     2367.673     64.20973     13.211    25.31    -26.34001      20.3342     55.07466       142     6.541     2.719 -84.85  27
        23    933.6474    971.1655 300.1564371 +22.9467122     627.0098     72.11049      1.914     6.92     4.179521      20.3342     45.50827        12     1.530     0.877  27.87   0
        24    178.5452    990.2713 299.9150646 +22.7257947      1510.34     72.09213      6.521    11.90       73.569      20.3342     55.82682        35     2.650     1.487 -46.17   3
        25    140.6201   1005.9315 299.8981804 +22.7189043     1603.019     72.05542      3.243    10.88     87.35657      20.3342     55.77028        25     2.235     1.623  80.11   2
        26    152.0211    955.1287 299.9182490 +22.7077594     1958.133     72.07378     11.714    17.23     44.49524      20.3342     54.20683        66     3.545     2.328  25.75   3
        27    658.8237    953.6124 300.0764693 +22.8593158     7019.485     72.07378      1.992     4.38     4.051441      20.3342      362.066        50     1.583     1.468   6.92   0
        28    538.3972    947.4229 300.0409714 +22.8214374     441.2458     72.01868      1.976     4.31     3.974613      20.3342     39.25369         6     1.106     0.478  52.87   0
        29    182.4447   1004.8028 299.9115500 +22.7311314     1250.724     72.07378      3.892    13.87     86.40392      20.3342     49.47262        36     3.398     1.575 -24.25  19
        30    567.3717    944.1772 300.0510504 +22.8291927     1670.907     72.07378      2.091     4.78     3.975919      20.3342     94.32939        30     1.483     1.295  85.93   0
        31    461.2975    940.6838 300.0191583 +22.7963860     1084.264     72.23882      2.074     4.73     3.906385      20.3342     89.18163        23     1.382     1.269  22.70   0
        32    391.6917    938.6596 299.9981518 +22.7749317     6643.831     72.14717      1.934     4.15     4.107512      20.3342     461.0008        50     1.550     1.498  17.20   0
        33    424.0031    925.6047 300.0124536 +22.7808759     453.8177     71.88996      1.717     4.63     3.991361      20.3342     39.58304         9     1.077     0.805  -0.54   0
        34    938.2650    917.6482 300.1752852 +22.9327236       2106.3     72.09213      1.998     4.96     4.218427      20.3342     110.6171        35     1.514     1.461  77.36   0
        35    178.4124    997.8013 299.9125739 +22.7279140     2011.702     71.88996      4.552    15.30     80.62868      20.3342     63.16059        58     4.027     1.617 -16.95   3
        36    726.6173    906.6362 300.1128732 +22.8661480     828.8061     72.07378      2.181     7.54     4.107114      20.3342     50.41903        17     1.427     1.114  58.19   0
        37    182.9635    991.7858 299.9159457 +22.7275547     1064.572     72.07378      4.328     7.98     74.91596      20.3342     45.27069        15     1.475     1.209 -74.95   3
        38    761.8881    900.7714 300.1257739 +22.8750334     1074.192     72.07378      1.939     5.30      4.16014      20.3342     62.58728        22     1.340     1.164 -10.80   0
        39    126.8095    897.9341 299.9290112 +22.6837945     1182.732     72.03706      9.417    10.01      12.1467      20.3342     41.76644        15     2.352     1.188 -49.61   1
        40    975.0240    894.5062 300.1942794 +22.9370862     364.8285     72.00031      1.711     5.22     4.245232      20.3342     32.07891         6     1.036     0.744 -67.00   0
        41    829.4023    894.3414 300.1489131 +22.8934161      483.662     72.03706      1.640     6.17     4.202918      20.3342     40.57525        13     1.186     1.036  45.52   0
        42    215.6161    895.0108 299.9575719 +22.7095986     853.7114     72.01868      6.118     6.53     9.271438      20.3342     28.58337        10     1.389     0.861 -23.15   1
        43    176.5655    995.3804 299.9127872 +22.7266656     1298.993     72.09213      3.967     7.97      78.1137      20.3342     68.84218        21     2.461     0.722 -17.63   3
        44     95.2127    886.8102 299.9228072 +22.6711244     1391.756     71.96355      7.919     9.84     7.725932      20.3342     56.39443        24     1.848     1.463 -67.15   1
        45    784.0033    894.4211 300.1347329 +22.8798365     11412.94     72.03706      1.910     4.21     4.186076      20.3342     735.9904        57     1.522     1.503  50.15   0
        46    489.2208    882.9542 300.0466248 +22.7881918     514.9735     72.12883      1.635     3.66     4.087391      20.3342     64.92525         8     0.969     0.798 -32.59   0
        47    835.4587    881.5109 300.1549738 +22.8915456     406.8124     72.14718      1.797     5.63     4.201117      20.3342     39.11216         8     1.281     0.696 -33.01   0
        48    792.5856    876.6270 300.1431948 +22.8772978     1308.928     72.09213      1.850     4.20     4.205215      20.3342     91.88868        23     1.287     1.170  42.17   0
        49     85.5995    876.7084 299.9231039 +22.6653434     876.5143     71.94516      3.888     6.70     6.670644      20.3342     35.71358        13     1.477     0.854  70.89   0
        50    975.8492    876.1207 300.2005157 +22.9320512     378.1146     72.07378      1.248     4.06      4.31841      20.3342      33.6666         5     1.403     0.335  84.75   0
        51    644.9283    873.3483 300.0982429 +22.8321089     570.5515     72.07378      2.030     4.54     3.886795      20.3342     52.37518         7     1.354     0.433   8.90   0
        52    830.5445    869.9998 300.1571846 +22.8867672     815.4786     71.98193      1.998     5.18     4.200768      20.3342     54.40342        18     1.264     1.145  33.54   0
        53    878.7150    861.3242 300.1750271 +22.8987058      682.899     72.18385      2.044     6.85     4.193048      20.3342     41.76167        14     1.246     1.055  -2.63   0
        54    730.4249    859.9562 300.1292391 +22.8538850     764.9183     72.11049      1.803     5.68     4.184455      20.3342     58.99612        16     1.235     1.002  33.85   0
        55    442.9073    856.3327 300.0408628 +22.7666663     4364.926      72.2205      1.854     3.84      4.11652      20.3342     322.3469        38     1.395     1.364 -34.18   0
        56    741.6314    856.8166 300.1337528 +22.8563414     558.7131     72.05542      1.654     6.06     4.241277      20.3342     45.45233        13     1.045     0.988 -40.75   0
        57    222.1571    845.4385 299.9757232 +22.6973416     371.7673     72.16551      1.764     5.66     5.593793      20.3342     37.99664         8     1.137     0.794  11.51   0
        58    486.7733    845.1049 300.0581689 +22.7765950     375.1168     72.00031      1.594     3.32     4.224163      20.3342     39.67299         5     0.965     0.331  47.45   0
        59    168.2046    841.7457 299.9601477 +22.6800989     876.4838     72.05542      1.957     6.02     6.405637      20.3342     72.06857        23     1.543     1.289 -71.33   0
        60    145.2332    838.8566 299.9539454 +22.6723793     1700.251     72.09213      2.105     5.03     6.147726      20.3342     126.6046        30     1.478     1.402   5.64   0
        61    169.1062    997.8251 299.9096729 +22.7251283     1110.806     72.01868      3.061    12.27     81.43266      20.3342     47.92578        25     2.426     1.727 -57.32   3
        62    772.9987    835.9910 300.1503012 +22.8597589     312.1536     71.88996      1.499     3.74     4.392663      20.3342     30.78906         5     1.000     0.403 -28.09   0
        63   1017.2038    828.4644 300.2289152 +22.9307427     2157.224     72.07378      2.134     4.68     4.456281      20.3342     134.5357        36     1.542     1.449 -11.08  16
        64    971.4467    826.9521 300.2151291 +22.9166056     2121.926     72.09213      1.951     4.32     4.391584      20.3342     122.0526        35     1.471     1.400  57.70   0
        65    155.9874   1006.8729 299.9026513 +22.7237858     873.8294     72.09213      2.891     6.52      89.3556      20.3342     50.49983        14     1.526     0.862   9.51   0
        66    676.7360    827.1138 300.1231855 +22.8283661     654.5637     72.16551      2.237     5.59     4.266572      20.3342     46.12656         7     1.943     0.454 -43.00   0
        67    754.9625    820.8760 300.1495929 +22.8500140     641.9731     72.03706      1.783     4.40     4.497772      20.3342     52.91168        11     1.132     0.958  -1.80   0
        68    623.0563    814.5944 300.1105307 +22.8086851     4804.207     72.03706      1.701     3.55     4.308248      20.3342     420.1315        37     1.347     1.280  -1.05   0
        69    425.2145    811.9218 300.0497932 +22.7486161     602.7727     72.09213      1.555     4.31     4.360645      20.3342      54.7559        14     1.188     0.881  20.39   0
        70    172.9378    808.3049 299.9724895 +22.6719267     1477.814     72.16551      1.898     4.27     5.021711      20.3342     120.6216        23     1.405     1.190 -23.67   0
        71    643.3162    807.0668 300.1192895 +22.8125950     605.7047     72.18385      1.699     4.54     4.409999      20.3342     69.57609        15     1.219     1.041 -21.11   0
        72    441.1154    806.4324 300.0565269 +22.7518077     234.3778     72.03706      1.259     3.95     4.396457      20.3342     32.94725         5     0.902     0.495   1.84   0
        73    560.1657    797.9967 300.0963365 +22.7850715     322.5704     72.07378      1.637     4.68     4.421443      20.3342     34.24036         5     1.120     0.622 -15.39   0
        74   1016.0359    794.6991 300.2395277 +22.9206898     1046.131     72.05542      1.915     5.39     4.434506      20.3342     61.37494        21     1.374     1.190  26.62  16
        75    799.1427    794.4167 300.1719668 +22.8556500     4187.968     72.05542      1.756     3.50     4.619956      20.3342     318.0229        36     1.392     1.270 -29.78   0
        76    208.2365    788.1397 299.9900194 +22.6767292     286.6831     72.09213      1.344     3.12     5.022442      20.3342     58.57228         6     0.946     0.671  49.34   0
        77    516.0740    786.7277 300.0862687 +22.7686211     521.9427     72.12883      1.606     5.64     4.482207      20.3342     54.69959        13     1.226     0.953 -14.45   0
        78    162.3853    784.6021 299.9769126 +22.6619623     1083.431     71.90837      1.834     3.99     4.648869      20.3342     95.95391        22     1.372     1.105 -66.81   0
        79    577.7963    780.2181 300.1076064 +22.7852510     445.5645     72.00031      1.585     3.63     4.487961      20.3342     56.50125        11     1.104     0.815  24.29   0
        80    312.0374    776.6831 300.0260283 +22.7045701     53948.41     72.05542      1.780     3.58      4.69455      20.3342     5002.177        99     1.563     1.502  16.40   0
        81    569.8610    775.9122 300.1065344 +22.7816366     1554.629     72.16551      1.611     3.64     4.512412      20.3342     135.8112        22     1.179     1.148  -9.57   0
        82    983.0071    775.4299 300.2354848 +22.9052623      785.407     72.07378      1.834     5.58     4.427445      20.3342     57.54508        19     1.428     1.044 -29.37   0
        83    240.5786    775.2219 300.0042756 +22.6827226     483.1754     72.07378      1.809     5.94     4.995407      20.3342       36.658        11     1.188     0.837 -42.02   0
        84    598.9532    771.8840 300.1169052 +22.7891984     818.0493     72.05542      1.519     3.60     4.490842      20.3342     87.27638        18     1.149     1.054  32.26   0
        85    609.6740    770.4573 300.1207084 +22.7920014     750.9891     72.11049      1.837     5.85     4.484013      20.3342     67.95848        14     1.208     1.016  71.53   0
        86    930.0244    768.1113 300.2213338 +22.8872935     406.1229     72.01868      1.933     5.53     4.420965      20.3342      36.9947         9     1.289     0.670 -77.35   0
        87    714.9875    767.0903 300.1546167 +22.8225897     317.3684     72.01868      1.388     3.09      4.66566      20.3342     38.72052         6     0.786     0.642   2.70   0
        88    509.5019    763.8068 300.0916719 +22.7600711     283.2212     71.96355      1.740     5.99     4.604969      20.3342     25.46881         6     1.078     0.938  73.86   0
        89    753.1157    757.1086 300.1697447 +22.8311452     699.8485     72.23882      1.804     4.98     4.718321      20.3342     53.11688        13     1.156     0.909 -21.77   0
        90    361.7795    753.9597 300.0488900 +22.7129629     31560.54     72.11049      1.690     3.37      4.73913      20.3342     2591.878        73     1.473     1.401  15.28   0
        91    375.9875    754.5526 300.0531186 +22.7173926     2020.238     72.09213      1.748     3.51     4.715691      20.3342     177.0465        29     1.396     1.188  42.47   2
        92    373.1339    748.4736 300.0542061 +22.7147924     709.3147     72.11049      1.795     4.25     4.752952      20.3342     55.30899        12     1.088     0.817 -15.75   2
        93    885.0782    750.0161 300.2131956 +22.8686337     2929.801     72.07378      1.838     3.97     4.624926      20.3342     195.2512        31     1.356     1.286  51.91   0
        94    642.8536    746.1443 300.1389467 +22.7949617     884.5649     72.11049      1.613     3.70     4.589292      20.3342      77.3586        18     1.189     0.972  10.63   0
        95    479.3868    746.3571 300.0879664 +22.7460353     500.8197     72.09213      1.958     5.43     4.701165      20.3342     43.80907         7     1.191     0.700   3.03   0
        96     49.7716    741.7872 299.9558233 +22.6159018     502.8724     72.07378      1.822     3.43     4.661422      20.3342     46.78366         7     0.929     0.754  10.35   0
        97    490.0106    740.8742 300.0930558 +22.7476454     722.5746     72.07378      1.521     3.93     4.727729      20.3342     70.60426        13     1.176     0.807  14.60   0
        98    890.5358    737.7701 300.2188776 +22.8667494     632.2031     72.09213      2.042     6.45     4.668552      20.3342     37.33344        11     1.311     0.891  59.85   0
        99    347.8215    736.5986 300.0501884 +22.7037956     328.3095     72.00031      1.719     4.80     4.833005      20.3342     33.89518         8     1.010     0.646  16.72   0
       100    436.4615    735.6613 300.0780792 +22.7300985     411.8355     72.11049      1.744     4.08     4.752004      20.3342     44.39941         6     1.066     0.445  56.37   0
       101     77.5885    734.8376 299.9667261 +22.6222528     555.1458     72.07378      2.138     6.62     4.672529      20.3342     46.37972        14     1.311     1.061 -58.76   0
       102    244.3399    746.0234 300.0149343 +22.6754728      613.967     72.05542      1.616     4.32     4.888245      20.3342     74.34328        15     1.265     1.025  49.79   0
       103    868.6250    732.6480 300.2137086 +22.8587159     287.7918     72.07378      1.458     4.14     4.828611      20.3342     37.46432         8     0.978     0.773 -22.35   0
       104    242.5206    729.7583 300.0196537 +22.6702602     535.9536     72.05542      1.524     3.54     4.861738      20.3342      64.7028         9     1.068     0.612  62.40   0
       105    957.3080    728.4970 300.2427203 +22.8840794     554.1906     72.25713      0.733     0.70     4.497435      20.3342      210.416         5     0.554     0.482  29.30   0
       106    565.4871    720.5816 300.1231536 +22.7644385     267.6916     72.01868      1.230     5.00     4.773463      20.3342     47.07751         9     1.342     0.656  38.56   0
       107    534.8790    718.9865 300.1141395 +22.7548081     562.7039     72.07378      1.438     3.08     4.834054      20.3342     71.67846        11     0.960     0.883 -71.97   0
       108    951.3082    715.5453 300.2450573 +22.8785607     4708.029     72.12883      1.837     3.80     4.595272      20.3342      343.434        44     1.459     1.415 -57.01   0
       109    556.8895    716.2043 300.1218982 +22.7606052     1412.491     71.98193      1.513     3.55     4.821677      20.3342     124.0805        22     1.180     1.099  32.97   0
       110    476.7036    715.6482 300.0971100 +22.7364149     372.6858     72.11049      1.554     4.79     4.810497      20.3342     38.91702         6     1.061     0.634 -47.06   0
       111    638.1537    711.3571 300.1487869 +22.7835629     299.3177     72.11049      1.292     2.64     4.698828      20.3342     42.75296         6     0.830     0.691  -2.97   0
       112    939.8335    706.9659 300.2442655 +22.8726593      1696.75     72.14717      1.719     3.72     4.683821      20.3342     130.0666        27     1.333     1.208  15.40   0
       113    318.2007    700.3922 300.0527368 +22.6845238     310.4715     71.88996      1.511     4.93     4.862981      20.3342     24.74411         5     1.106     0.622  61.59   0
       114    302.9573    700.6789 300.0479013 +22.6800361     886.0552     72.05542      1.619     3.89     4.865561      20.3342     87.17257        15     1.286     0.806 -18.20   0
       115    766.4449    697.9261 300.1931320 +22.8181366     2562.311     72.05542      1.744     3.49     4.778747      20.3342     208.5331        34     1.560     1.336   5.89   0
       116    970.9691    696.9774 300.2572250 +22.8791108     1692.227     72.07378      1.682     3.87     4.703771      20.3342     125.6413        26     1.322     1.185  30.26   0
       117    848.6534    684.0845 300.2232609 +22.8387806     691.4633     72.12883      1.799     4.15     4.942404      20.3342     48.88529        12     1.061     0.899  49.25   0
       118    151.2533    684.3099 300.0060403 +22.6298513     522.1563     72.11049      1.620     6.39     4.918281      20.3342     40.55638        14     1.127     1.017 -19.27   0
       119    884.6716    675.0725 300.2374218 +22.8469764       148430     72.12883      1.681     3.36     5.000244      20.3342     11987.06       161     1.578     1.523 -33.64   0
       120    646.7404    678.9561 300.1619898 +22.7768293     345.2546     72.09213      1.473     3.46     4.798707      20.3342     45.64762         7     0.951     0.620  -3.67   0
       121    737.0086    675.2818 300.1913137 +22.8028142     723.9995     72.01868      1.455     3.28     4.754471      20.3342     65.82732        14     0.995     0.918  51.82   0
       122    916.9586    667.9689 300.2498005 +22.8546024     329.0896     72.09213      1.324     4.86     5.016033      20.3342     31.78133         8     0.960     0.697   4.17   0
       123    570.7997    663.8008 300.1432567 +22.7497245     1633.643     71.85314      1.481     3.12     5.087458      20.3342     180.7065        23     1.129     1.089 -48.22   0
       124    752.1486    661.1282 300.2006312 +22.8032826     9467.944     72.07378      1.550     3.01     4.783691      20.3342     812.7837        45     1.293     1.269 -64.22   0
       125    253.5880    655.9233 300.0470839 +22.6523901     4970.307     72.09213      1.676     3.54     4.887402      20.3342     466.5341        37     1.335     1.278  38.25   0
       126    335.6248    654.1520 300.0731800 +22.6764748     1135.811     72.07378      1.516     3.40     4.874789      20.3342     127.4413        18     1.139     0.989  11.60   0
       127    211.6855    651.8546 300.0353738 +22.6386593     462.4173     72.12883      1.561     2.92     4.920907      20.3342     56.58404         9     0.854     0.744  -2.59   0
       128    544.0532    649.7355 300.1394958 +22.7376712     746.8829     72.11049      1.415     3.03      5.33245      20.3342     82.12247        15     1.008     0.933  17.17   0
       129    535.5468    641.8173 300.1394188 +22.7328484     3302.203     72.05542      1.579     2.99      5.38595      20.3342     357.6915        32     1.227     1.189  15.52   0
       130    525.8742    635.5909 300.1384292 +22.7281621     1462.726     72.07378      1.440     3.08     5.398262      20.3342     175.9129        19     1.095     1.004  24.02   0
       131    919.8632    634.3777 300.2616193 +22.8458173     440.0855     72.05542      1.688     5.05     5.056082      20.3342     46.09398        10     1.289     0.948  37.31   0
       132    454.6953    635.0937 300.1164287 +22.7066904      236.233     72.23882      1.296     4.85     5.124875      20.3342     32.94685         8     1.060     0.630 -30.75   0
       133    189.3919    631.6275 300.0350114 +22.6261704     626.0582     72.05542      1.697     3.60     4.979203      20.3342     75.00748        12     1.048     0.850 -24.36   0
       134    203.7033    630.2385 300.0399127 +22.6300627     665.6531     72.05542      1.734     4.55     4.961586      20.3342     55.26318        11     1.042     0.792 -49.40   0
       135    972.8789    627.2352 300.2804793 +22.8596355     527.6677     72.01868      1.666     4.47      4.92011      20.3342     42.11903         8     0.853     0.667  40.01   0
       136    260.6582    627.1647 300.0586244 +22.6462557     335.5844     72.07378      1.578     2.44     4.902092      20.3342     40.00007         5     0.731     0.433 -70.75   0
       137    229.1589    626.8691 300.0489234 +22.6367276      546.978     72.05542      1.524     3.90     4.933297      20.3342     67.46619        11     1.019     0.867 -26.84   0
       138    549.4754    625.7098 300.1489887 +22.7323957      325.647      72.2205      1.317     3.19     5.583834      20.3342     48.55099        11     0.941     0.803  20.59   0
       139    450.5398    625.2569 300.1183301 +22.7026206     1876.599     72.14717      1.586     3.12     5.165717      20.3342      177.657        24     1.214     1.099   8.79   0
       140    104.4846    620.0180 300.0123853 +22.5973796     19896.77     72.03706      1.834     3.64     5.107878      20.3342     1685.022        74     1.552     1.505  21.51   0
       141     25.3299    621.9960 299.9871435 +22.5742090     678.2243     72.01868      1.674     5.73     5.174572      20.3342     70.18316        11     1.499     0.618  -9.15   0
       142    535.5778    620.4242 300.1463774 +22.7267138     1119.042     72.03706      1.655     4.01     5.621996      20.3342     136.7952        19     1.269     0.961 -84.81   0
       143    570.7301    619.9741 300.1574715 +22.7371163     393.3507     72.07378      1.585     3.31     5.483062      20.3342     51.05568         5     1.055     0.567  -2.39   0
       144    288.4700    611.7673 300.0722765 +22.6501733     410.6483     72.07378      2.002     5.11     4.876082      20.3342     27.94951         7     1.037     0.712 -89.02   0
       145    953.6044    607.1749 300.2809817 +22.8480989      1134.27     72.03706      1.804     3.74      4.99089      20.3342     98.99664        19     1.256     1.054 -75.86   0
       146    618.6661    608.3144 300.1761907 +22.7481276     293.5992     72.16551      1.367     4.00     5.207788      20.3342      32.0453         6     0.902     0.507  47.05   0
       147     50.5145    604.1663 300.0007598 +22.5766468     1497.975     72.03706      2.120     4.99     5.198111      20.3342     96.03576        32     1.664     1.345  83.68   0
       148    820.5584    605.5670 300.2400070 +22.8078040     448.3988     72.12883      1.668     4.51     5.204707      20.3342     36.53573         7     1.171     0.495  -1.44   0
       149    117.4369    604.7605 300.0213666 +22.5968855     351.5356     72.14717      1.209     3.36     5.103774      20.3342     40.00337         5     0.774     0.422 -66.33   0
       150    498.9871    601.3294 300.1411851 +22.7102665     340.2407     72.07378      1.173     3.12     5.514284      20.3342     48.28291         7     0.849     0.564  28.22   0
       151    893.0965    599.7712 300.2645111 +22.8278567      844.928     72.01868      2.373     7.56     5.114217      20.3342     66.21645        16     1.687     1.032  -7.42   0
       152    291.5736    600.5922 300.0768714 +22.6478957       255.83     72.07378      1.088     3.79     4.874874      20.3342     43.13037         7     0.968     0.467 -10.34   0
       153    638.1747    598.5604 300.1854366 +22.7511694     355.1123     72.11049      1.198     2.95     5.179057      20.3342      41.2992         5     0.735     0.437 -23.47   0
       154    455.5050    593.6293 300.1301481 +22.6950265     784.6646     72.00031      1.494     2.95     5.329706      20.3342     96.96936        12     0.978     0.826  17.53   0
       155    604.1072    592.5144 300.1767868 +22.7392277     563.5808     72.25713      1.632     4.98     5.426503      20.3342     49.04623         8     0.878     0.799  15.31   0
       156    651.3093    590.7501 300.1920655 +22.7528598     526.0806     72.07378      1.530     4.19     5.171221      20.3342     50.62226        10     1.101     0.701  33.37   0
       157    621.4566    590.1016 300.1829752 +22.7437316     649.2382     72.16551      1.786     3.46     5.348073      20.3342     66.63276        10     1.063     0.781  33.70   0
       158    499.8494    589.2371 300.1453808 +22.7070521     941.5003     72.07378      1.442     3.73     5.595402      20.3342     99.41266        16     1.177     0.871 -73.36   0
       159    465.4499    584.8409 300.1360982 +22.6954826     1586.166     72.09213      1.462     2.67     5.422224      20.3342     219.1109        21     1.075     1.038 -83.21   0
       160    830.1804    582.1777 300.2506038 +22.8039630     289.9271     72.07378      1.547     3.89     5.101085      20.3342     32.15045         5     0.948     0.457  44.93   0
       161    815.2029    580.8075 300.2463787 +22.7990846     228.6737     71.88996      1.201     3.54     5.105003      20.3342     40.47578         5     0.888     0.428 -44.70   0
       162    440.9889    580.3546 300.1299402 +22.6868647     240.9744     72.07378      1.313     4.52      5.30856      20.3342     30.34316         6     0.840     0.691  24.78   0
       163     27.3706    578.2368 300.0019882 +22.5622668     5183.737     72.09213      1.868     3.44     5.235875      20.3342     453.1794        47     1.527     1.394  28.81   0
       164    933.6878    585.1065 300.2819359 +22.8357929     3426.574     72.25713      1.682     3.28       4.9868      20.3342     271.2744        34     1.330     1.244   5.03   0
       165    328.7776    571.4345 300.0979149 +22.6506762     9361.509     72.09213      1.587     2.95     4.880166      20.3342     1015.864        46     1.294     1.289 -67.24   0
       166    451.2721    568.5603 300.1369715 +22.6865590     9125.613     72.05542      1.507     2.76     5.415695      20.3342     1036.502        45     1.270     1.232 -42.11   0
       167    863.0354    562.8618 300.2671226 +22.8082477     1988.014     72.09213      1.572     3.32     4.989782      20.3342     193.6105        27     1.232     1.144  86.12   0
       168    698.1895    564.4711 300.2152082 +22.7593503     341.2187     72.07378      1.541     2.97      5.03751      20.3342     39.61707         5     0.820     0.644 -46.37   0
       169    947.6970    560.1704 300.2944047 +22.8328176        12715     72.01868      1.662     3.37     4.895669      20.3342     1138.081        55     1.397     1.366  36.05   0
       170    511.8344    558.1521 300.1592073 +22.7017149     11425.26     72.11049      1.480     2.92      5.83564      20.3342     1168.126        48     1.341     1.211  78.76   0
       171    681.5325    554.2082 300.2133500 +22.7514129     560.2104     72.07378      1.535     2.85     5.241732      20.3342     64.92543        10     0.938     0.743 -23.91   0
       172    239.3152    553.6252 300.0758678 +22.6187490     1393.484     72.03706      1.585     3.13     5.000822      20.3342     154.0714        21     1.224     1.026  -6.93   0
       173    397.3548    553.3972 300.1251123 +22.6660486     372.2719     72.07378      1.533     3.37     5.093897      20.3342     50.07171         7     0.979     0.452 -12.44   0
       174    486.4035    551.4024 300.1534805 +22.6921572     416.3044     71.85314      1.467     4.72      5.78027      20.3342     49.57155         8     0.956     0.661   6.76   0
       175    443.5217    546.3137 300.1417825 +22.6778478     4430.609      72.2205      1.500     2.76     5.449144      20.3342     480.1788        32     1.189     1.155 -17.80   0
       176    786.1296    546.5677 300.2484333 +22.7805390     884.3581     72.07378      1.730     3.43     4.918843      20.3342     89.86688        16     1.196     0.900  41.65   0
       177    421.8938    544.7377 300.1355619 +22.6709149     1231.984     72.16551      1.409     3.03     5.242068      20.3342     143.9644        16     1.003     0.921 -29.82   0
       178    176.0725    544.0645 300.0593051 +22.5970467     784.1045     72.11049      1.678     3.91     5.046584      20.3342     73.52489        14     1.172     0.979  35.32   0
       179    863.3538    542.0919 300.2739665 +22.8023727     1702.813     72.09213      1.620     3.33      4.90065      20.3342     143.6819        23     1.281     1.016 -46.31   0
       180    743.7418    538.9611 300.2376894 +22.7656608     882.6068     72.07378      1.588     3.89     4.752163      20.3342     88.46805        19     1.303     1.015 -85.70   0
       181    560.1780    533.9565 300.1821191 +22.7092470     205932.5     72.12883      1.477     2.81     5.883351      20.3342     21411.21       193     1.525     1.427 -17.58   0
       182    383.5827    539.7603 300.1252539 +22.6580057     379.5954     72.09213      1.741     6.41      5.04817      20.3342     31.01099         8     1.341     0.861 -88.53   0
       183    246.2205    533.7773 300.0844598 +22.6151212     3498.182     72.07378      1.614     2.94     4.997522      20.3342     405.4952        32     1.275     1.194  35.89   0
       184    329.3651    533.6115 300.1103789 +22.6399928     286.9718     72.07378      1.565     3.78     4.916048      20.3342     34.50511         5     0.982     0.418 -74.43   0
       185    812.0591    530.5811 300.2617086 +22.7837075     475.6334     72.03706      1.516     4.28     4.940506      20.3342     48.62182         9     1.018     0.715 -78.93   0
       186    910.8186    518.9948 300.2962706 +22.8099411      170.111     72.03706      1.115     3.96     4.890626      20.3342      25.6524         5     0.855     0.525  35.04   0
       187    450.7966    514.3856 300.1544136 +22.6708576     2704.689     71.90836      1.584     2.91     5.383891      20.3342      254.451        29     1.467     1.106  82.35   0
       188    900.6813    515.4811 300.2942493 +22.8058966     343.2376     72.23882      1.592     5.02     4.892304      20.3342     40.04002         7     1.200     0.595  19.74   0
       189    295.2308    516.4760 300.1053222 +22.6248431     476.7513     72.07378      1.371     3.64     4.894463      20.3342     46.83824         8     1.023     0.562  22.20   0
       190    862.3405    510.8298 300.2838011 +22.7930826     441.7765     72.09213      1.598     5.43     4.898774      20.3342     33.31056         9     1.110     0.750  55.15   0
       191    681.6321    510.1340 300.2276917 +22.7387781     322.4404     72.07378      1.795     3.42     5.322263      20.3342     30.36407         5     0.763     0.442 -71.96   0
       192    768.2496    503.0070 300.2570028 +22.7626656     464.4263     72.07378      1.387     4.76      4.88664      20.3342     45.08022         8     1.003     0.641 -80.24   0
       193    847.8718    500.4806 300.2826490 +22.7857763     1699.388     72.20217      1.502     2.97     4.894699      20.3342     186.5768        21     1.166     1.066 -67.29   0
       194    719.0941    498.2339 300.2432302 +22.7465760     2604.879     72.03706      1.468     2.81     5.043577      20.3342     276.3461        27     1.184     1.088  36.79   0
       195    962.0794    491.5500 300.3211729 +22.8173923     957.4672     72.09213      2.426     4.69     4.879386      20.3342     66.84922        14     1.290     0.843  61.13   2
       196    928.9678    495.4563 300.3095745 +22.8086057     326.9326     72.09213      1.778     3.78     4.887608      20.3342     36.27079         6     0.828     0.495   4.43   0
       197    624.0560    494.7431 300.2147485 +22.7171132     509.0295     72.14717      1.449     2.47     5.500704      20.3342     60.76147         7     0.747     0.601   7.41   0
       198    976.3463    492.2973 300.3253818 +22.8218768     1388.247     72.16551      1.713     3.33     4.875898      20.3342     124.3478        24     1.263     1.131 -32.60   0
       199    506.2392    493.9770 300.1783011 +22.6816048     725.8397     72.11049      1.380     3.39      5.48428      20.3342     82.66249        14     1.089     0.869  32.52   0
       200    848.0881    490.8883 300.2858306 +22.7830835     2258.835     72.23882      1.692     3.47     4.889715      20.3342     188.2048        31     1.492     1.173  85.38   0
       201    601.1488    489.0506 300.2094602 +22.7086171     626.4083     72.11049      1.850     3.62     5.510042      20.3342     51.82277        11     0.935     0.863 -60.01   2
       202    387.3284    488.6644 300.1430081 +22.6444546     217.2949     72.11049      1.248     4.96     5.164228      20.3342     36.54603         8     1.011     0.818 -38.93   0
       203    440.1262    487.5462 300.1598050 +22.6599520     282.0079     72.09213      1.382     4.60      5.24143      20.3342      45.4489         8     1.009     0.630  38.92   0
       204    886.3051    485.7759 300.2994093 +22.7930532     4398.526     71.96355      1.511     2.90      4.89482      20.3342     476.8627        34     1.243     1.170 -56.18   0
       205    623.6002    482.1541 300.2186933 +22.7133593      270.666     72.07378      1.438     4.45     5.447118      20.3342     32.76687         7     0.933     0.603  -9.11   0
       206    546.9105    481.1684 300.1951248 +22.6901077     384.2357     72.03706      1.610     4.36     5.520975      20.3342     38.76312         5     0.785     0.690  35.90   0
       207    977.9744    476.2838 300.3310885 +22.8177591     639.7572     72.05542      1.568     3.83     4.884943      20.3342      76.2643        13     1.195     0.917  43.75   0
       208    118.0327    475.7997 300.0634217 +22.5600538     831.2396     72.03706      1.586     3.76     4.983565      20.3342      98.4454        15     1.161     0.960   6.39   0
       209    779.0085    469.8480 300.2711215 +22.7563556     292.4526     72.09213      1.174     3.98     4.921236      20.3342     42.27778         7     1.003     0.553 -55.41   0
       210    165.1921    467.8532 300.0806624 +22.5719091     207.3855     72.07378      1.328     3.87     4.953931      20.3342     27.91957         5     0.961     0.447 -43.81   0
       211    974.3561    465.9710 300.3333074 +22.8137106     362.3337     72.11049      1.558     4.03     4.880474      20.3342     38.14642         6     0.916     0.522   1.05   0
       212    110.8800    466.0864 300.0643510 +22.5551216     320.6182     72.23882      1.300     4.16     5.013571      20.3342     51.81418         6     0.913     0.632 -17.95   0
       213    718.6652    460.8095 300.2552454 +22.7356915     313.8853     72.03706      1.102     2.67      5.14522      20.3342     54.86856         7     0.811     0.609  15.92   0
       214    607.5988    457.8011 300.2216134 +22.7015696     402.3203     71.85314      1.366     3.91     5.435905      20.3342     46.13696         8     0.922     0.638  79.48   0
       215    659.5460    455.9580 300.2383964 +22.7165957     786.5489     72.07378      1.473     4.06      5.37177      20.3342     88.82253        15     1.087     1.039  55.67   0
       216    974.4495    448.9482 300.3388622 +22.8088431     576.8298     72.11049      1.485     4.32     4.872388      20.3342     58.19488        10     0.972     0.780 -38.95   0
       217    720.7853    448.3463 300.2599516 +22.7327441     822.2326     72.09213      1.486     3.50     5.169519      20.3342     74.76183        15     1.160     0.791 -21.10   0
       218    877.9277    444.8270 300.3100890 +22.7787722     950.3033     72.07378      1.410     3.10     4.939077      20.3342     144.1552        18     1.172     0.945  52.94   0
       219    862.0417    440.9241 300.3064012 +22.7728954      604.338     72.05542      1.503     3.87     4.955156      20.3342      65.8374        11     1.046     0.785 -62.69   0
       220    842.0431    441.1127 300.3001032 +22.7669638     349.2635     72.07378      1.326     4.21     4.946386      20.3342      38.8817         7     0.947     0.533  45.91   0
       221    606.2552    438.8463 300.2273471 +22.6957204     3264.333     72.11049      1.428     2.66     5.416606      20.3342     373.9387        29     1.204     1.062 -86.59   0
       222    966.5949    438.0569 300.3399466 +22.8033606     508.9941     72.03706      1.779     3.75      4.87146      20.3342     46.09748         8     0.958     0.640 -12.78   0
       223     82.4017    430.5174 300.0670428 +22.5363752     291.8572     71.98193      1.060     4.21     5.060122      20.3342     38.43427         7     1.042     0.484   7.76   0
       224    611.6517    426.6716 300.2329796 +22.6938378     360.3835     72.07378      1.292     2.45     5.403324      20.3342     51.26895         5     0.704     0.463   8.29   0
       225    445.9120    425.8440 300.1816333 +22.6439614     491.2859     72.07378      1.537     4.56     5.215074      20.3342     48.90256        10     1.043     0.745  34.58   0
       226   1017.6735    418.4072 300.3622633 +22.8129925      1359.75     72.01868      1.626     3.15     4.818017      20.3342     124.2118        23     1.186     1.109 -22.79  16
       227    889.5306    418.0597 300.3223957 +22.7745481     479.0819     72.11049      1.376     3.24     4.954067      20.3342     55.53246        12     1.030     0.756   6.24   0
       228    975.9150    416.8927 300.3497238 +22.8000626     875.4744     72.25713      1.443     3.43      4.85534      20.3342     91.33921        14     1.138     0.827 -28.89   0
       229    625.8931    415.3116 300.2411032 +22.6948376     340.9972     72.23882      1.473     3.71      5.36955      20.3342     34.55276         6     0.760     0.618  71.26   0
       230    716.9047    412.8278 300.2702699 +22.7213728      1080.32     71.98193      1.490     3.01     5.255442      20.3342     141.4454        19     1.120     1.043 -30.64   0
       231    512.4162    413.7429 300.2062669 +22.6604043     429.0733     72.05542      1.489     2.87     5.263406      20.3342     50.03456         8     0.892     0.600 -70.35   0
       232    220.9857    410.9728 300.1164722 +22.5723003     520.2766     72.09213      1.347     3.18     5.346733      20.3342     86.07677        10     0.988     0.732 -23.56   0
       233    283.1890    406.5961 300.1372405 +22.5896828     3748.429     71.90836      1.510     2.83     5.199553      20.3342     414.2569        30     1.201     1.146  77.65   0
       234   1016.3858    405.3847 300.3660878 +22.8088615      4362.52     72.01868      1.645     3.02     4.893333      20.3342     442.7966        36     1.291     1.277 -27.48  16
       235    230.3649    401.3164 300.1225227 +22.5723381     7746.316     72.03706      1.595     2.89     5.357929      20.3342     837.5527        40     1.301     1.228  61.03   0
       236    996.2955    396.5506 300.3626852 +22.8003097     1672.421     72.12883      1.563     2.96     4.939462      20.3342     192.7915        22     1.132     1.070  59.80   0
       237    371.1989    395.6680 300.1681708 +22.6129121     4680.836     72.03706      1.462     2.60     5.246614      20.3342     543.2426        30     1.150     1.120  44.83   0
       238    615.4133    392.4195 300.2452671 +22.6851205     18519.44     72.03706      1.437     2.53      5.38576      20.3342     2222.775        56     1.272     1.240  80.40   0
       239    632.9119    392.6462 300.2506453 +22.6904251     910.0281     72.05542      2.084     6.60     5.355616      20.3342     59.01656        17     1.678     0.729 -40.21   0
       240    242.4081    390.7463 300.1296983 +22.5729116     260.1108     72.07378      1.256     2.75     5.346224      20.3342     37.32016         5     0.721     0.446 -68.71   0
       241    812.3460    383.2104 300.3096344 +22.7414273     365.6288     72.07378      1.367     2.54     5.040971      20.3342     54.74744         6     0.699     0.620 -43.32   0
       242    235.5738    379.5857 300.1311939 +22.5676588     426.0634     72.09213      1.687     4.96     5.375314      20.3342     35.14717         7     1.224     0.570 -40.69   0
       243    948.8814    375.2485 300.3548035 +22.7799963     810.4363     72.11049      1.466     4.46     4.987063      20.3342     79.98678        11     1.113     0.723 -10.89   0
       244    486.2411    374.4864 300.2108550 +22.6412857     299.3342     72.05542      1.298     2.38     5.274076      20.3342     46.56261         5     0.696     0.467  20.09   0
       245    170.0082    372.4455 300.1131209 +22.5459611     1994.027     72.09213      1.526     2.84     5.146831      20.3342     208.8287        23     1.165     1.085 -61.25   0
       246    658.6408    373.7126 300.2648057 +22.6926864     228.0971     72.05542      1.209     3.90     5.311341      20.3342     35.90991         6     0.964     0.452   1.73   0
       247    183.8601    368.3677 300.1187511 +22.5489413     143.0409     72.11049      1.040     3.47      5.21045      20.3342     28.47945         5     0.783     0.444 -17.04   0
       248    970.0042    362.4399 300.3655502 +22.7826321     1301.928     72.09213      1.634     3.26     5.064204      20.3342     133.1549        21     1.294     1.056 -60.04   0
       249    556.1026    361.8691 300.2367047 +22.6585811     6573.586     72.20217      1.412     2.50     5.308458      20.3342     863.3127        33     1.182     1.083  79.41   0
       250    270.7017    360.9097 300.1481798 +22.5728206     765.3499     72.25713      1.592     3.13     5.390019      20.3342     87.85226        12     1.054     0.793  24.79   0
       251    816.1843    354.1768 300.3202519 +22.7342278     341.0359     72.07378      1.315     2.07     5.092423      20.3342     57.84426         6     0.726     0.519  35.41   0
       252    128.6414    353.9197 300.1062700 +22.5282450     535.5841     72.05542      1.704     5.16     5.091883      20.3342     50.86612        10     1.196     0.802 -58.23   0
       253    669.8648    352.3898 300.2752217 +22.6899174     457.4568     72.03706      1.222     2.89     5.288672      20.3342     58.73908         7     0.832     0.551  31.22   0
       254    760.2793    351.0224 300.3038455 +22.7165887     1147.562     72.03706      1.395     2.96     5.217878      20.3342     125.5428        13     0.951     0.857   1.45   0
       255    462.7263    348.0947 300.2120964 +22.6266601         6200      72.2205      1.437     2.74     5.284161      20.3342     686.8494        33     1.175     1.127  75.62   0
       256    951.9214    342.9120 300.3662442 +22.7716049     618.5936      72.2205      1.375     4.05     5.051322      20.3342      80.5729        11     1.168     0.772  60.95   0
       257    854.7729    342.6357 300.3360300 +22.7424570     1312.677     72.09213      1.493     2.98     5.138075      20.3342     157.9927        20     1.142     1.034  -5.25   0
       258    447.0546    336.6150 300.2109417 +22.6186682     536.8577     72.05542      1.442     5.59     5.292768      20.3342     55.39379         9     1.322     0.785   5.23   0
       259    530.2702    335.0208 300.2373699 +22.6431302     383.1533     72.07378      1.276     2.33     5.274881      20.3342     58.06792         7     0.715     0.637 -80.64   0
       260    827.2579    330.5033 300.3313856 +22.7307341     539.8854     72.14717      1.288     3.11      5.17476      20.3342     60.14974         9     0.893     0.687  25.15   0
       261    350.2254    327.2839 300.1838307 +22.5869854     2454.904     72.05542      1.419     2.64     5.385828      20.3342     261.6855        24     1.101     1.078 -62.67   0
       262     68.6703    324.7162 300.0971021 +22.5018872     885.5723     72.20217      1.553     3.99     5.322965      20.3342     105.6313        16     1.231     0.913 -18.22   0
       263    319.6100    316.6590 300.1777509 +22.5747624     29941.28     72.03706      1.547     2.74     5.392209      20.3342     3686.732        70     1.367     1.285  64.55   0
       264    854.4223    314.5288 300.3450392 +22.7342688      1292.81     72.11049      1.418     2.64     5.259983      20.3342     163.4514        19     1.141     0.880  -1.09   0
       265    809.9938    312.3841 300.3318804 +22.7203572     342.0095     72.00031      1.482     4.40     5.226264      20.3342     37.74149         6     0.809     0.680   9.74   0
       266     15.8988    304.3895 300.0872957 +22.4802353     4848.688     71.96355      1.787     3.37     5.454564      20.3342     438.8023        43     1.446     1.374  46.62   0
       267    769.6193    303.2085 300.3222689 +22.7056359      473.862     72.03706      1.311     3.01     5.245707      20.3342     65.41846         9     0.839     0.786  30.82   0
       268    194.0503    303.3512 300.1430112 +22.5333241     473.4483     72.11049      1.471     3.36     5.382836      20.3342      60.3726         7     0.813     0.622  13.04   0
       269    418.3260    302.2244 300.2131546 +22.6001828     367.2928     72.11049      1.173     2.71     5.354662      20.3342     66.10982         8     0.898     0.594 -22.56   0
       270    730.1644    296.6576 300.3120947 +22.6919441     1933.891     72.07378      1.452     2.51     5.220319      20.3342     248.6403        25     1.171     1.049 -40.90   0
       271    538.1163    291.4269 300.2539548 +22.6329506     299.7041     72.07378      1.242     3.10     5.210215      20.3342     52.76365         6     0.710     0.648 -41.30   0
       272    945.1462    289.6660 300.3814040 +22.7542614     693.7286     72.11049      1.518     3.10     5.089288      20.3342     78.10218        15     1.047     0.926  36.58   0
       273    391.8736    281.0403 300.2117921 +22.5861738     2127.312     72.05542      1.603     3.30     5.376937      20.3342     212.0855        26     1.299     1.111  69.81   0
       274    604.4764    280.2841 300.2782392 +22.6496149     332.5806     72.18385      1.665     3.78     5.249725      20.3342     37.30856         6     0.965     0.836 -39.87   0
       275    830.9725    274.0290 300.3508635 +22.7156041     674.6469     72.05542      1.478     3.13     5.344331      20.3342     85.04885        12     0.973     0.874  -7.94   0
       276    730.6069    272.2120 300.3201618 +22.6850474     194.5607     71.94516      1.247     3.28     5.252944      20.3342     33.59688         5     0.743     0.442 -69.55   0
       277    713.6447    271.5531 300.3150885 +22.6797814      245.733     72.11049      1.329     4.22     5.205662      20.3342     50.47264         7     1.053     0.621 -17.10   0
       278    681.4984    270.7358 300.3053350 +22.6699251      382.534     72.16551      1.705     3.29     5.119084      20.3342     46.51014         6     0.892     0.662  66.24   0
       279    467.6206    260.4427 300.2420521 +22.6029380     1137.451     72.11049      1.373     2.94     5.373765      20.3342     137.1507        18     1.157     0.990  52.83   0
       280    275.0685    260.8484 300.1819952 +22.5453876     339.5319     72.07378      1.477     4.02     5.315173      20.3342     30.51188         6     0.962     0.481 -35.77   0
       281    978.9448    257.4029 300.4024144 +22.7550899      378.768     72.01868      1.449     3.89     5.067083      20.3342     33.86894         5     0.888     0.488   3.41   0
       282    850.8991    253.6660 300.3636821 +22.7157094     249.8351     72.16551      1.400     3.36     5.377186      20.3342     33.52432         5     0.783     0.417  19.42   0
       283    712.5416    252.4294 300.3209470 +22.6739524     2176.025     72.07378      1.430     2.60     5.269105      20.3342     272.2196        23     1.129     1.059 -70.60   0
       284    973.9034    246.9689 300.4042253 +22.7505799     3170.309     72.01868      1.554     3.13     5.135436      20.3342     283.1969        30     1.297     1.180 -54.56   0
       285    420.9280    236.2442 300.2353634 +22.5820022     563.8593     72.05542      1.272     2.88      5.33424      20.3342     90.48368         9     0.893     0.692 -12.90   0
       286     95.6745    230.3195 300.1361097 +22.4828748     1409.967     72.18385      1.825     4.00     5.444326      20.3342     135.5722        23     1.556     0.914 -32.06   0
       287    126.9602    230.2208 300.1458674 +22.4922203     545.0962     72.11049      1.626     4.30     5.302367      20.3342     51.59241        10     1.109     0.770 -36.11   0
       288    989.7119    227.4363 300.4154927 +22.7496882     494.7697     72.05542      1.942     5.30     5.173609      20.3342     43.98761        10     1.222     0.670 -76.54   0
       289    833.4135    224.5565 300.3676694 +22.7021048     421.3804     72.09213      1.428     3.01     5.375099      20.3342     44.86692         7     0.931     0.484   7.99   0
       290    179.5943    222.3785 300.1647754 +22.5057367     556.4009     72.05542      1.912     4.02     5.162448      20.3342     46.96123         9     1.024     0.636  -7.43   0
       291    974.9393    220.0596 300.4132752 +22.7431472     300.6341     72.12883      1.512     4.82     5.249367      20.3342     31.62282         6     1.266     0.519 -78.39   0
       292    855.9177    216.3460 300.3773500 +22.7064758     243.6308     72.11049      1.149     3.26     5.402225      20.3342     42.63108         7     0.738     0.654 -46.75   0
       293    784.0917    214.0587 300.3556945 +22.6843284     666.5554     72.14717      1.450     2.66     5.344857      20.3342     79.64326         9     0.858     0.687 -75.60   0
       294    374.8260    213.3593 300.2284346 +22.5616206     458.0927     72.12883      1.438     3.71     5.320992      20.3342     53.37834         9     0.962     0.713  45.61   0
       295    874.9463    207.5121 300.3861493 +22.7096271     226.1468     72.09213      1.219     3.77     5.422638      20.3342     30.21782         6     0.817     0.499  -2.39   0
       296    882.4681    203.0583 300.3899396 +22.7105959     2152.878     72.09213      1.460     2.92      5.42951      20.3342     211.6157        22     1.125     1.049 -48.52   0
       297    300.8878    200.0969 300.2097271 +22.5356673      2148.55     72.25713      1.508     2.87     5.258522      20.3342     220.8708        27     1.219     1.104 -29.44   0
       298    378.7782    195.2861 300.2355245 +22.5576104       1075.5     72.01868      1.672     3.45     5.320992      20.3342     95.29398        19     1.152     1.052 -10.44   0
       299    780.7175    195.0665 300.3608007 +22.6778562     512.6246     72.18385      1.361     3.69     5.314708      20.3342      65.6404        11     1.145     0.612  25.43   0
       300    130.6213    195.4705 300.1582726 +22.4833366     365.5623     72.09213      1.607     3.47     5.397938      20.3342     44.89902         5     0.767     0.454 -19.67   0
       301    887.9003    191.9797 300.3952262 +22.7090336     319.3348     72.00031      1.243     4.30     5.445552      20.3342     44.53609         8     0.967     0.665 -24.55   0
       302    195.7410    187.4198 300.1811309 +22.5005318     753.0495     72.01868      1.598     3.03     5.317793      20.3342     87.33382        16     1.090     0.903 -57.72   0
       303    313.9719    186.4202 300.2182321 +22.5356559     281.0301     72.07378      1.466     4.18      5.28359      20.3342     31.95458         5     0.807     0.617 -86.52   0
       304    733.4957    184.4346 300.3495269 +22.6606690      1702.26     72.07378      1.380     2.51     5.166954      20.3342     210.2927        20     1.088     0.962  64.82   0
       305    798.3107    184.2335 300.3697984 +22.6800039     492.4479     72.03706      1.495     2.65     5.349529      20.3342     67.36565         8     0.947     0.508  36.51   0
       306    165.1852    183.4125 300.1729283 +22.4902276     357.0252     72.00031      2.272     3.49     5.384637      20.3342     25.65904         5     0.769     0.456  17.32   0
       307    459.8367    180.1376 300.2656682 +22.5775266     337.7142     72.09213      1.939     4.85      5.34952      20.3342     31.81106         6     1.070     0.623 -11.44   0
       308    216.8811    180.4500 300.1899649 +22.5048618     528.3981     72.09213      1.628     4.87     5.305006      20.3342     58.72131         8     1.103     0.610  10.09   0
       309   1005.4171    177.1564 300.4366974 +22.7399165     891.8632     72.09213      1.647     4.03     5.328542      20.3342     86.85505        16     1.181     0.957  -1.67   0
       310    737.6449    175.8624 300.3535994 +22.6594451     902.0977     72.09213      1.836     3.05     5.133155      20.3342     83.06619        14     1.044     0.854 -60.86   0
       311    658.1917    175.1558 300.3290659 +22.6354665      1272.68     72.09213      1.386     2.88     5.125942      20.3342     147.3203        16     1.027     0.923  56.13   0
       312    506.8471    176.2809 300.2815563 +22.5904914     449.6426     72.07378      1.807     3.41     5.323833      20.3342     44.95066         5     0.764     0.656  60.49   0
       313    479.6740    171.9016 300.2745147 +22.5810980     451.6147      72.2205      1.493     4.12     5.362788      20.3342     41.40681         7     0.996     0.597 -71.30   0
       314    853.7261    166.6254 300.3927877 +22.6915166     1473.607     72.09213      1.512     2.86     5.480386      20.3342      171.962        20     1.152     0.996 -44.33   0
       315    584.4313    166.7945 300.3087959 +22.6109872     940.9906     72.07378      1.373     2.69     5.165657      20.3342     117.9413        15     0.977     0.891  55.62   0
       316    865.5329    165.7481 300.3967545 +22.6947960     894.0164     72.09213      1.642     3.76     5.506792      20.3342     76.91017        15     1.060     1.037 -73.00   0
       317    911.6841    164.7058 300.4114879 +22.7083006     327.0718     72.25713      1.390     4.11     5.468762      20.3342     36.68124         6     0.910     0.531 -45.78   0
       318    982.4515    156.0273 300.4363809 +22.7269681     1143.899     72.09213      1.676     3.79     5.451103      20.3342     105.2194        19     1.238     1.139 -50.91   0
       319      6.6180    152.8189 300.1335576 +22.4339346     473.7909     72.07378      1.888     2.90     5.933175      20.3342     46.90913         6     0.746     0.610 -31.44   0
       320    216.5781    148.9629 300.2000778 +22.4957250     576.2844     72.09213      1.412     3.99     5.391383      20.3342     65.48232        10     0.866     0.853  60.49   0
       321     78.2661    143.4954 300.1588463 +22.4527234     2332.534     72.20217      1.739     3.62     5.706331      20.3342     215.0912        30     1.327     1.258  57.14   0
       322    901.1818    140.9564 300.4159110 +22.6983258     651.9892     72.09213      1.416     2.81     5.604768      20.3342     92.35465        12     0.980     0.778 -15.00   0
       323     27.8208    140.7407 300.1440612 +22.4368188     500.7184     72.01868      1.430     2.91     5.851938      20.3342     64.94122         8     0.890     0.621 -10.30   0
       324    235.6165    136.9001 300.2099093 +22.4979611      5712.53     71.98193      1.625     3.00     5.422022      20.3342     596.6558        37     1.314     1.250  59.18   0
       325     19.6740    131.4737 300.1445332 +22.4317165     1346.567     72.12883      1.720     4.34     5.865321      20.3342     132.5946        20     1.365     0.986  10.77   0
       326    219.1535    127.7720 300.2077475 +22.4904079     635.3971     72.11049      1.570     3.52     5.458747      20.3342     60.27324        10     0.994     0.704 -70.73   0
       327    879.7555    118.8062 300.4164077 +22.6855439     3519.253     72.09213      1.526     2.81     5.744197      20.3342     406.7409        30     1.273     1.151  78.00   0
       328    983.5347    117.4059 300.4492387 +22.7161770     2783.927     72.05542      1.704     3.13     5.746374      20.3342     290.3601        34     1.376     1.260 -82.41   0
       329    429.0905    113.7853 300.2776047 +22.5492491      574.575     72.00031      1.530     3.86      5.37547      20.3342     64.59376        12     1.002     0.952  20.43   0
       330    181.6263    114.0897 300.2005114 +22.4752374     482.1998     72.03706      2.053     5.37     5.700183      20.3342     44.72546         7     1.022     0.885  77.41   0
       331    355.2376    105.1008 300.2574325 +22.5246428     878.1339     72.07378      2.172     7.19     5.958551      20.3342     57.16532        16     2.013     0.719 -27.78   0
       332    119.3677    102.8362 300.1848008 +22.4533566     693.1069     72.09213      1.911     4.45     5.874054      20.3342     66.49093        10     1.079     0.757  28.83   0
       333    480.5435    101.0765 300.2977430 +22.5609976     1741.564     72.11049      1.456     2.97     5.390491      20.3342     184.9839        20     1.111     0.992 -82.83   0
       334    408.6188    101.8154 300.2751116 +22.5396798     313.7144     72.05542      1.043     2.30     5.464915      20.3342     71.79258         7     0.750     0.619  24.00   0
       335    542.3301    100.5711 300.3171480 +22.5793452      483.535     72.07378      1.501     3.25     5.408685      20.3342     51.14037         7     0.938     0.470  11.09   0
       336    223.6685     96.3883 300.2193232 +22.4827426     444.9182     72.09213      1.678     5.02     5.545973      20.3342     51.58574         8     1.495     0.477 -32.96   0
       337    697.3969     95.1609 300.3672142 +22.6241908     361.4282     72.11049      1.525     3.48      5.43496      20.3342     47.38865         6     0.926     0.557 -22.71   0
       338    769.2937     90.3145 300.3911962 +22.6443056     436.9435     72.25713      1.673     3.56     5.510429      20.3342     58.62926         8     1.084     0.886 -13.61   0
       339    915.0161     85.2478 300.4382835 +22.6864324     398.2764     72.11049      1.478     4.30     5.877276      20.3342     39.12623         7     0.887     0.593 -27.56   0
       340    254.5904     80.7787 300.2339998 +22.4875168     6083.066     72.05542      1.631     2.99     5.791145      20.3342     670.3519        42     1.391     1.247  63.76   0
       341    665.5483     82.5558 300.3613739 +22.6110362     270.9917     72.11049      1.042     3.72     5.454455      20.3342     32.54455         6     0.990     0.401  18.92   0
       342    105.6792     80.2249 300.1878729 +22.4427608      798.082     72.05542      1.834     4.60      6.12457      20.3342     68.92384        16     1.272     0.984 -79.58   0
       343    884.1122     78.3511 300.4308785 +22.6752057     322.6389     72.07378      1.595     5.20     5.874605      20.3342     31.98089         5     1.001     0.764 -80.82   0
       344    226.6622     74.8362 300.2272385 +22.4774461     376.2114     72.09213      1.418     2.78     5.673344      20.3342     40.81889         6     0.715     0.630 -17.67   0
       345    270.0234     72.4715 300.2414927 +22.4897507     417.1262     72.11049      1.818     4.18     5.911821      20.3342     52.15443         7     1.160     0.694   4.88   0
       346     17.4579     71.3145 300.1633404 +22.4137744     366.0486     72.18385      1.766     3.89      6.24882      20.3342     32.35015         6     0.933     0.464  -0.28   0
       347    500.6727     66.2890 300.3152846 +22.5570203     6247.717     72.23882      1.486     2.58     5.604588      20.3342     744.3208        38     1.253     1.164  83.00   0
       348    386.0635     66.1929 300.2796352 +22.5226876     735.5933     72.05542      1.377     2.62     5.970106      20.3342     92.35547         9     0.913     0.633  33.51   0
       349    751.7779     60.5320 300.3953873 +22.6304977     253.0806     72.07378      1.176     3.17     5.558786      20.3342     33.95079         5     0.732     0.451  21.69   0
       350    753.0662     56.1114 300.3972214 +22.6296113     815.0794     72.18385      1.588     3.18     5.574817      20.3342      88.9219        13     0.956     0.915  37.66   0
       351    845.8583     55.1730 300.4264586 +22.6570954     444.8625     72.07378      1.375     2.75     5.834569      20.3342     54.90444         6     0.867     0.453  51.47   0
       352    193.6165     49.6551 300.2251204 +22.4603144     438.7075     72.05542      1.483     6.40     5.856932      20.3342     51.68347        11     1.344     0.855  40.63   0
       353    552.3406     49.2694 300.3368909 +22.5675886     407.2243     72.09213      1.213     2.96     5.721173      20.3342      78.5013         8     0.959     0.595  31.91   0
       354    629.1118     46.3606 300.3617495 +22.5897237     6287.046     72.05542      1.524     2.68     5.674236      20.3342     744.4642        39     1.313     1.176  84.41   0
       355    404.0442     45.2088 300.2920313 +22.5220376     1405.727     72.09213      1.464     3.01     6.103097      20.3342     138.1274        19     1.139     0.988  80.53   0
       356    670.0366     43.7075 300.3753615 +22.6012046     846.5897     72.03706      1.742     3.34     5.541781      20.3342     90.22466        13     1.046     0.884  19.68   0
       357    740.1655     42.2120 300.3977038 +22.6217534     551.9557     72.05542      2.224     4.15     5.553873      20.3342     33.38067         6     0.764     0.643 -71.76   0
       358    686.1315     40.0039 300.3815774 +22.6049542     752.1735     72.03706      1.993     5.40     5.540761      20.3342     57.75891        14     1.495     0.935  11.82   0
       359    995.2407     37.7085 300.4787204 +22.6967372      245.863     72.07378      1.135     3.43      6.18759      20.3342     43.85436         5     0.965     0.351  43.00   0
       360    955.8153     37.7351 300.4664094 +22.6849574     641.8097     72.05542      1.816     3.92      6.02612      20.3342     48.34027        11     1.097     0.793  13.72   0
       361    153.0262     37.8731 300.2163159 +22.4447734     661.7253     72.07378      1.620     3.71     6.017386      20.3342     62.02479        11     0.977     0.828 -25.27   0
       362    724.5749     35.5726 300.3949952 +22.6151797     496.2521     72.03706      1.375     3.13     5.549929      20.3342     58.20349        10     0.968     0.746  30.47   0
       363    673.2750     31.3373 300.3803788 +22.5986150      2636.75     72.11049      1.500     2.72     5.559291      20.3342     313.2701        26     1.207     1.104  56.94   0
       364    313.9148     32.2461 300.2681820 +22.4913306     403.2711     72.05542      1.566     3.55     6.188913      20.3342     54.98747         6     1.006     0.547 -21.63   0
       365    688.2502     29.9807 300.3854854 +22.6027047     972.3152     72.05542      1.920     5.16     5.561041      20.3342      80.2677        17     1.284     1.072  48.78   0
       366    759.7229     23.0048 300.4100240 +22.6220772     1603.206     71.98193      1.563     2.60     5.698232      20.3342     178.4829        20     1.117     0.979  60.46   0
       367    919.8173     21.6923 300.4603764 +22.6695764     321.6849     72.00031      1.730     4.37     5.918526      20.3342     30.17645         6     0.939     0.578  64.00   0
       368    697.9148     16.0336 300.3930163 +22.6015834     772.6638     72.03706      1.484     2.71     5.587757      20.3342     95.98735        10     0.863     0.753 -57.54   0
       369    256.1962   1013.4413 299.9316736 +22.7557374      1222.08     72.09213      3.268    10.52     50.63046      20.3342     46.97256        24     2.626     1.175  82.19  16
       370    310.2224   1016.0730 299.9476222 +22.7727007     582.1252     72.11049      5.699     5.63     6.660298      20.3342     27.91102         5     1.483     0.603  71.11  16
       371    740.2066   1014.7111 300.0819538 +22.9012486     197.5081     71.98193      1.578     5.10      3.95003      20.3342     34.53109         5     1.071     0.686 -77.13   0
       372     51.3501   1013.4078 299.8680040 +22.6942557     441.1299     72.07378      2.588     4.97     29.47368      20.3342     30.65992         5     1.154     0.605  54.74   0
       373    302.1572   1012.0723 299.9464148 +22.7691338     1490.707     72.05542      3.975     6.67     7.151351      20.3342     86.46722        26     1.537     1.298  -0.92   0
