#   1 NUMBER                 Running object number                                     
#   2 X_IMAGE                Object position along x                                    [pixel]
#   3 Y_IMAGE                Object position along y                                    [pixel]
#   4 ALPHA_J2000            Right ascension of barycenter (J2000)                      [deg]
#   5 DELTA_J2000            Declination of barycenter (J2000)                          [deg]
#   6 FLUX_APER              Flux vector within fixed circular aperture(s)              [count]
#   7 FLUXERR_APER           RMS error vector for aperture flux(es)                     [count]
#   8 FLUX_RADIUS            Fraction-of-light radii                                    [pixel]
#   9 FWHM_IMAGE             FWHM assuming a gaussian core                              [pixel]
#  10 BACKGROUND             Background at centroid position                            [count]
#  11 THRESHOLD              Detection threshold above background                       [count]
#  12 FLUX_MAX               Peak flux above background                                 [count]
#  13 ISOAREA_IMAGE          Isophotal area above Analysis threshold                    [pixel**2]
#  14 A_IMAGE                Profile RMS along major axis                               [pixel]
#  15 B_IMAGE                Profile RMS along minor axis                               [pixel]
#  16 THETA_IMAGE            Position angle (CCW/x)                                     [deg]
#  17 FLAGS                  Extraction flags                                          
         1    773.2690     10.5422 300.4120667 +22.6127582     622.8284     72.35236      1.265     2.63       6.3964      20.4076     87.40527        10     0.890     0.684 -40.92   0
         2    205.0652      9.6243 300.2354721 +22.4424184     3957.198     72.31551      1.608     2.85     6.741358      20.4076     429.1027        35     1.379     1.160  58.00   0
         3    335.9079     10.1616 300.2759930 +22.4817539     335.3766     72.33393      1.402     4.68     5.936628      20.4076      38.6409         6     1.075     0.579 -84.57   0
         4    627.9200      7.1019 300.3678902 +22.5682809     395.3086     72.46279      1.410     2.76     6.342323      20.4076      45.6862         7     0.857     0.520 -49.29   0
         5    531.0111      6.9771 300.3377494 +22.5392434     291.1463     72.33393      1.430     3.18     6.188036      20.4076     39.47425         5     0.662     0.555   0.11   0
         6    766.5426      2.3332 300.4126301 +22.6083841     993.1262     61.78079      1.277     2.71     6.422323      20.4076      128.232        14     0.930     0.899  31.58  24
         7    321.0419      2.0296 300.2740031 +22.4749654     1041.208     60.20761      1.304     2.64     6.123332      20.4076     139.3821        13     0.950     0.809 -10.16  24
         8    253.8409      1.9189 300.2531364 +22.4548111     217.9363     59.53985      1.191     3.85     6.664723      20.4076     31.57246         5     0.806     0.527 -31.58  24
         9    767.4056    993.7378 300.0909820 +22.8935612     718.8576     72.31551      2.057     5.28     4.731693      20.4076     51.28838        12     1.189     1.043  63.08   0
        10    282.2599   1019.6242 299.9315287 +22.7554801     2749.091      72.2233      4.912    24.37     34.96842      20.4076     61.25772       137     4.611     3.576 -62.11  27
        11    237.4654   1010.0960 299.9207004 +22.7393057     2960.896      72.4444      7.692    33.24     71.04971      20.4076     70.17366       319     6.636     4.621  -9.03  19
        12    271.9102   1004.9842 299.9330738 +22.7481765     3317.164      72.2602      9.262    35.45     38.95229      20.4076     89.66648       395     8.491     4.108 -12.19  19
        13    234.3925    992.6245 299.9254295 +22.7333740     4535.333     72.33393     10.243    26.03     61.53767      20.4076     90.47595       350     5.813     4.926  28.32  19
        14    253.0960    990.8150 299.9318335 +22.7384678     6481.153     72.24175      9.325    25.39     46.93989      20.4076     134.5362       432     6.162     5.088  87.86  19
        15    272.6335    980.6052 299.9412304 +22.7414028     9336.472     72.31551     10.974    31.11     29.45835      20.4076     195.5101       881    11.224     5.503  60.68  19
        16    163.8302    963.7234 299.9128964 +22.7039116     988.8665     72.31551      3.119     3.49     55.56409      20.4076     37.52022         5     1.124     0.313  20.99   2
        17    181.6832    963.6934 299.9184554 +22.7092609     942.4512     72.51794      2.886     9.19     52.43048      20.4076     38.31778        15     2.355     1.002  85.75   2
        18    177.9334    960.9105 299.9181951 +22.7073376      1132.69     72.46279      3.603     7.17     50.68362      20.4076     57.23375        16     1.740     1.244 -42.06   2
        19    109.0883    923.0618 299.9091098 +22.6758248     4038.059     72.40759     17.438    53.24     12.14898      20.4076     82.58894       938    12.297     6.397 -35.70   3
        20     16.5909    979.4852 299.8620195 +22.6642339     1090.771     72.27864      8.473     8.65    -5.212704      20.4076     47.16816        17     1.907     1.095  58.96   3
        21    685.5571    959.9717 300.0764652 +22.8593318     6905.896     72.35236      1.868     4.06     4.657443      20.4076     422.7096        43     1.475     1.380  28.29   0
        22    123.3436   1013.5726 299.8840960 +22.7060503     2776.269     72.33393     12.959    67.34     91.23015      20.4076       131.78      1072    16.781     7.499  40.12  27
        23      4.8254   1015.8998 299.8465181 +22.6711375     3154.651      71.2386     15.642    64.26    -27.78331      20.4076      76.8181       529    17.488     6.552 -88.56  27
        24    157.7960    958.0363 299.9128709 +22.7004701     1153.754     72.35236      6.562     8.80     50.43946      20.4076     39.22986        17     1.924     1.123  69.63   3
        25    151.2019    954.5990 299.9119395 +22.6975056     1195.303      72.1125      8.102     9.86     46.26387      20.4076     39.06739        18     1.747     1.550 -18.72   3
        26    565.8607    954.0383 300.0411159 +22.8217398     439.7164     72.35236      1.720     5.55     4.623592      20.4076     38.26647         8     1.289     0.674  75.19   0
        27    276.7088    953.9412 299.9511719 +22.7349791     515.4076     72.40759      1.721     6.37     18.25626      20.4076     60.08876        13     1.159     0.983  18.51   0
        28    111.3768    955.0210 299.8994257 +22.6856740     5038.971     72.33393     21.536    89.00     36.57207      20.4076     231.7938      2527    15.771    13.936 -35.17  19
        29    593.8461    950.7014 300.0509158 +22.8291739     1631.801     72.35236      1.852     4.45     4.641992      20.4076     96.85835        26     1.356     1.198  19.92   0
        30    487.7932    947.3358 300.0189927 +22.7964049     940.3286     72.29707      1.755     4.66     4.611152      20.4076     86.42834        20     1.255     1.160  14.33   0
        31    418.5009    945.0276 299.9981787 +22.7749597     6653.974     72.27864      1.835     3.95     4.853459      20.4076     492.6315        46     1.479     1.392  -2.03   0
        32    667.3389    992.7762 300.0601168 +22.8632851     8792.189     72.33393      1.972     4.47     4.703464      20.4076     544.9838        46     1.551     1.425   4.35   3
        33    451.0694    932.2117 300.0124826 +22.7810515     464.6987     72.35236      1.589     3.95     4.791755      20.4076     64.87111        11     1.064     0.916  -5.40   0
        34    672.8387    990.5919 300.0625407 +22.8643072     9137.956     72.35236      1.896     4.52     4.704781      20.4076     567.0337        45     1.499     1.381  42.10   3
        35    201.1273    982.5502 299.9183652 +22.7205026     1812.854     72.31551      4.159    15.95     64.39682      20.4076     49.49902        60     3.333     2.121  73.51   2
        36    196.9134    973.6683 299.9199447 +22.7166915     610.0668      72.4444      2.007     6.83     57.87638      20.4076     42.56143        11     1.385     0.945 -73.86   3
        37    964.7952    924.0128 300.1752086 +22.9326952      2208.24     72.20485      2.036     4.88     4.352127      20.4076     113.3351        34     1.475     1.414 -23.03   0
        38      4.6867    997.6194 299.8524225 +22.6658571     2817.864     70.88227     12.878    22.43    -21.20665      20.4076     63.86742       135     5.172     2.701 -50.27  27
        39    614.9894    920.7369 300.0672477 +22.8269136     393.8879     72.27864      1.657     4.98     4.657505      20.4076     34.89847         6     1.060     0.663 -54.11   0
        40    462.8697    920.1562 300.0200764 +22.7811317     237.9303     72.29707      1.429     7.86     4.749897      20.4076     42.12255         9     1.618     1.067  50.29   0
        41    753.6707    912.5747 300.1131065 +22.8661435     908.5782     72.33393      2.164     7.37     4.712692      20.4076     64.93774        15     1.376     1.106  59.00   0
        42    788.3823    907.1487 300.1256893 +22.8749893     954.3512     72.33393      1.721     4.73     4.666838      20.4076     69.38489        20     1.241     1.162 -20.84   0
        43    566.3965    908.4289 300.0561189 +22.8088116     277.9076     72.29707      1.176     4.46     4.608834      20.4076     50.52967         8     1.196     0.495   0.87   0
        44    810.6990    900.7015 300.1347423 +22.8798262     11314.31     72.57305      1.777     4.03     4.641938      20.4076     683.4708        56     1.463     1.422  32.01   0
        45   1001.7336    900.0727 300.1945186 +22.9368846      522.962     72.37077      1.942     7.56     4.173334      20.4076      40.6908        11     1.386     1.156 -48.92   0
        46    856.5404    900.4632 300.1491103 +22.8934951     443.3085     72.37077      1.805     5.81     4.683581      20.4076     30.10739         7     1.065     0.892 -73.75   0
        47    122.4041    891.8324 299.9234042 +22.6708672     1036.157     72.31551      5.029     8.47     10.94889      20.4076     55.95004        19     1.592     1.259  -9.85   0
        48    863.5604    888.7297 300.1551154 +22.8922290     379.8733     72.29707      1.954     4.06     4.665308      20.4076     35.13007         6     0.893     0.528  45.33   2
        49    515.9016    888.8452 300.0467673 +22.7880505     451.0048     72.35236      1.577     5.47     4.631349      20.4076     40.51638        10     0.984     0.859 -27.01   0
        50     92.9774    885.5722 299.9162958 +22.6602413      656.559     72.33393      3.470     4.20     6.781748      20.4076     29.65722         5     1.120     0.450  65.65   0
        51    819.1924    882.6703 300.1432545 +22.8771937     1394.108     72.31551      1.700     4.39     4.602855      20.4076     101.9369        25     1.370     1.157  76.46   0
        52    110.5370    883.2800 299.9224976 +22.6648538     661.1425      72.4444      3.424     5.96     8.337797      20.4076     37.62316        10     1.584     0.631  85.71   2
        53   1003.5571    881.5416 300.2011149 +22.9321073     410.5247     72.31551      1.977     5.29     4.167292      20.4076     35.87375         6     1.251     0.720  53.27   2
        54    671.5419    879.7829 300.0981828 +22.8321117     649.2717     72.27864      2.131     5.29     4.584032      20.4076      40.0539        10     1.198     0.659  42.86   0
        55    857.4375    876.1588 300.1572949 +22.8867840      730.512     72.42599      2.142     6.64     4.627803      20.4076     45.62945        18     1.451     1.031  79.27   0
        56    965.6993    872.8606 300.1921287 +22.9182727      341.817     72.42599      1.790     5.60     4.325918      20.4076     37.93485         7     1.414     0.624 -45.41   0
        57    905.9702    868.5604 300.1748989 +22.8991432     664.9537     72.31551      2.750     6.22     4.527423      20.4076     38.52553        10     1.473     0.738  22.53   2
        58    757.0992    866.3064 300.1292233 +22.8538864     760.1402     72.51794      1.780     7.44     4.712517      20.4076     68.88129        17     1.721     0.900  58.88   0
        59     17.1240    865.1959 299.8993560 +22.6316341     296.4451     72.24175      1.441     3.47     5.121333      20.4076     40.97585         5     0.779     0.648 -37.67   0
        60    766.3933    863.8542 300.1329172 +22.8559676     1194.305     72.33393      1.669     3.56     4.679266      20.4076     650.9504        14     1.894     0.594  -5.94   0
        61    469.6388    862.7909 300.0408399 +22.7667012     4208.443     72.35236      1.658     3.73     4.784487      20.4076     360.7781        37     1.379     1.258  -1.98   0
        62    247.9397    851.9495 299.9753964 +22.6970960     234.3897     72.38918      1.522     4.53     6.908647      20.4076     29.39145         5     1.192     0.489 -21.85   0
        63    513.3159    851.0366 300.0582577 +22.7764247     370.8495     72.31551      1.643     3.05     4.709542      20.4076     54.46703         5     0.732     0.693 -46.95   0
        64     13.3526    981.3438 299.8604090 +22.6637944     1304.069     72.37077      6.864     7.16    -8.738125      20.4076     50.12251        11     1.367     1.049 -84.77   3
        65    194.8967    848.0995 299.9601570 +22.6800783     677.9352     72.53632      1.804     6.47     7.949525      20.4076     70.46215        21     1.410     1.309  59.10   0
        66    172.1423    845.4197 299.9539551 +22.6724828     1606.029     72.33393      1.768     3.81     7.936217      20.4076     170.9629        25     1.279     1.245  67.37   0
        67    103.5327    846.8279 299.9321740 +22.6522998     262.4203     72.31551      1.714     4.59     5.904942      20.4076     40.43704         5     1.195     0.501  36.28   0
        68    998.1768    833.1356 300.2151786 +22.9165888     2238.822     72.31551      1.919     4.71      4.16388      20.4076     146.5421        31     1.465     1.303  18.15   0
        69    704.2539    832.9966 300.1235885 +22.8284841     418.7935     72.29707      1.890     3.70     4.686758      20.4076     32.87772         5     0.996     0.395  29.37   2
        70    781.9316    827.2723 300.1496556 +22.8501190     532.3965     72.40759      1.441     3.62     4.769765      20.4076     66.92741        12     1.017     0.873  15.04   0
        71    204.6635    827.1964 299.9699895 +22.6770133     364.8574     72.29707      1.449     2.73     6.933244      20.4076     60.63155         7     0.835     0.796  72.15   0
        72    649.7391    820.9070 300.1105365 +22.8086737     4881.181     72.42599      1.592     3.41     4.570866      20.4076     442.8925        35     1.278     1.229  -3.88   0
        73    451.6954    817.9435 300.0498377 +22.7484508     602.2982     72.40759      1.588     4.27     5.131006      20.4076     54.03979        13     1.060     0.870  13.59   0
        74    199.8157    814.5814 299.9725838 +22.6719407      1306.29     72.31551      1.746     4.11     6.390727      20.4076     138.3298        20     1.371     0.978  17.59   0
        75    671.2710    813.6553 300.1196016 +22.8130453     708.5374     72.35236      1.744     3.42     4.529098      20.4076     78.18364         9     0.956     0.669  52.33   2
        76    468.1414    813.1286 300.0565217 +22.7520002     189.1633     72.37077      1.404     3.88     5.160654      20.4076     30.08643         5     1.009     0.428  44.68   0
        77    587.1487    804.3523 300.0964251 +22.7851596      178.732     72.37077      1.256     4.71     4.590365      20.4076     30.04234         5     0.859     0.732 -66.95   0
        78    825.7651    800.7188 300.1719524 +22.8556268     4160.185     72.27864      1.650     3.71     4.995398      20.4076     323.7375        33     1.306     1.224   8.23   0
        79    557.4689    797.7828 300.0893190 +22.7743766     315.6508     72.35236      1.558     3.46     4.617209      20.4076     35.32677         6     0.904     0.670   4.80   0
        80    234.5412    794.7302 299.9898334 +22.6766635     317.6926     72.35236      1.476     4.83     5.703485      20.4076      46.9557         7     1.023     0.646  80.39   0
        81    542.8627    793.1303 300.0862838 +22.7686624     622.4504     72.37077      1.470     3.37     4.687758      20.4076     61.78986        10     0.918     0.743   4.39   0
        82    188.9995    790.9282 299.9769106 +22.6619114     1065.891      72.2233      1.789     4.59     5.698106      20.4076     109.5561        18     1.282     1.161 -19.60   0
        83    604.0779    786.5023 300.1075004 +22.7851097     473.9819     72.46279      1.375     3.73      4.73216      20.4076     67.12642        10     0.988     0.772  22.97   0
        84    338.7704    783.1245 300.0260212 +22.7045957     54329.99     72.33393      1.635     3.34     5.334674      20.4076     4652.336        90     1.451     1.377  34.87   0
        85   1009.8940    781.5231 300.2356156 +22.9052682     926.1816     72.46279      2.028     5.61     4.396017      20.4076     63.06091        18     1.243     1.147  66.80   0
        86    596.6766    782.3231 300.1065540 +22.7816914     1733.195     72.42599      1.586     3.27      4.78441      20.4076     162.1785        20     1.103     1.037 -48.66   0
        87    267.2695    781.5349 300.0042997 +22.6826951     464.7363     72.37077      1.505     5.21     5.531917      20.4076     46.91416         9     1.187     0.646 -25.99   0
        88    625.8417    778.1889 300.1169812 +22.7892462     894.1361     72.33393      1.666     3.91      4.77774      20.4076     84.56977        19     1.241     1.026  -7.76   0
        89     25.1388    777.8682 299.9302358 +22.6090018     858.5359     72.38918      1.908     4.33     5.304469      20.4076     90.19505        18     1.286     1.116  -5.10   0
        90    636.5670    776.7678 300.1207837 +22.7920527     596.2185     72.38918      1.609     4.60     4.754757      20.4076     58.04774        12     1.066     0.882  13.55   0
        91    741.9523    773.0452 300.1548266 +22.8225658     499.8902     72.35236      1.448     3.99      5.00946      20.4076     58.65303         9     0.953     0.784  -8.12   0
        92    537.2015    770.4557 300.0918923 +22.7604564     391.0965      72.2602      1.914     4.09     4.954728      20.4076     38.12634         6     1.080     0.443 -57.63   0
        93    779.5025    763.2588 300.1697103 +22.8310064     762.6266     72.40759      1.640     3.73     5.056337      20.4076     69.24374        16     1.104     0.983 -78.12   0
        94    388.5128    760.3966 300.0488841 +22.7129903     31440.53      72.2602      1.596     3.08     5.316821      20.4076      3415.29        66     1.364     1.295  40.43   0
        95    402.7940    761.0355 300.0531201 +22.7174559     2046.455     72.35236      1.558     3.19      5.29494      20.4076     208.3174        22     1.154     1.076  67.22   0
        96    278.1721    759.8837 300.0147278 +22.6797534      187.359     72.33393      1.496     3.98     5.483426      20.4076     29.57961         5     1.003     0.452 -43.58   0
        97    911.6752    756.3920 300.2131491 +22.8686296     2882.572     72.31551      1.642     3.41     5.293056      20.4076     257.1983        27     1.232     1.178   2.67   0
        98    399.6916    754.8762 300.0541568 +22.7147580     695.7314     72.48118      1.865     4.91     5.306656      20.4076     51.66547        11     0.977     0.850  39.04   0
        99    669.5941    752.4907 300.1389634 +22.7949798     948.2347     72.24175      1.479     3.49     4.806743      20.4076     100.3356        14     1.114     0.845  35.24   0
       100    506.0338    752.4481 300.0880426 +22.7459438     553.1088     72.37077      1.702     3.96     5.209003      20.4076      47.1985         8     0.948     0.778 -61.74   0
       101    271.3464    752.1503 300.0151188 +22.6754874      903.954     72.37077      1.642     3.54      5.48966      20.4076     89.23659        17     1.099     1.055  47.47   0
       102    563.7009    750.6725 300.1065738 +22.7627204     171.3522     72.48118      1.227     4.05      5.10836      20.4076     26.56247         6     0.905     0.517 -42.96   0
       103    516.3985    747.0215 300.0930330 +22.7474930     983.4484      72.2602      1.655     4.54     5.210485      20.4076     104.5736        19     1.338     1.025 -74.59   0
       104     76.0276    747.9993 299.9557538 +22.6157059     574.1664     72.29707      1.904     5.34     5.521521      20.4076     44.91896        10     1.136     0.825 -65.82   0
       105    917.5524    744.4373 300.2188680 +22.8669552     471.1975     72.37077      1.464     4.36     5.319231      20.4076     49.58626        12     1.018     0.863 -12.09   0
       106    419.0965    743.5656 300.0638712 +22.7173301     512.0376     72.33393      2.140     4.51     5.285134      20.4076     34.63552         7     0.893     0.647 -74.95   0
       107    374.6010    743.5610 300.0500279 +22.7039873     437.8004     72.35236      1.832     2.67     5.371721      20.4076     50.48145         5     0.728     0.471  76.15   0
       108    104.0312    741.6727 299.9665116 +22.6222930     494.3336     72.33393      1.670     5.18     5.544302      20.4076     55.85712        11     1.197     0.934 -32.82   0
       109    462.3935    742.0698 300.0778319 +22.7298818     445.6436     72.29707      1.406     3.93     5.286363      20.4076     50.57451         7     0.769     0.632  67.10   0
       110    670.7834    741.4739 300.1429148 +22.7921726      383.729     72.33393      1.743     3.70     4.866503      20.4076     33.61491         5     0.845     0.570  50.22   0
       111    895.9407    739.0109 300.2138922 +22.8589228     310.2492     72.29707      1.267     4.19     5.291616      20.4076     43.81351         6     1.034     0.484   9.43   0
       112    268.8791    736.9487 300.0192922 +22.6703859      517.934     72.33393      1.668     2.73     5.476069      20.4076     72.32535         8     0.968     0.628 -16.92   0
       113    591.7682    727.5750 300.1228212 +22.7645013     530.7579     72.33393      1.633     3.69     5.306699      20.4076     57.80859         8     0.943     0.653   2.84   0
       114    561.5934    725.2247 300.1141887 +22.7547825     631.8806     72.31551      1.391     3.49     5.318219      20.4076     78.23369        13     0.994     0.877  24.91   0
       115    583.5865    722.6464 300.1218751 +22.7606340     1331.513     72.33393      1.450     2.87     5.333797      20.4076     167.3464        18     1.127     0.957  57.42   0
       116    470.6978    724.0544 300.0862718 +22.7272001     360.6089     72.42599      1.381     4.60     5.359012      20.4076      45.5927         7     0.917     0.679  88.71   0
       117    978.1360    721.7889 300.2451258 +22.8785918     4591.397     72.27864      1.699     3.63      5.44332      20.4076     323.0312        37     1.330     1.282  -7.00   0
       118    503.2145    721.6412 300.0971777 +22.7362549     392.9141     72.35236      1.552     4.79      5.35765      20.4076     48.04102         8     1.219     0.563  79.61   0
       119    665.0231    718.0308 300.1487398 +22.7837141     405.5243     72.31551      1.557     2.92     5.037438      20.4076     46.72558         7     0.847     0.645  23.49   0
       120    966.6639    713.2775 300.2443136 +22.8727103     1703.551     72.42599      1.714     3.76     5.444767      20.4076     151.0123        22     1.226     1.127 -84.58   0
       121    734.2598    712.4250 300.1721335 +22.8028501     263.0984     72.33393      1.267     3.45     5.221029      20.4076      27.9254         5     0.777     0.442  20.21   0
       122    329.3355    706.9563 300.0478425 +22.6799094     855.6416     72.33393      1.519     3.47     5.589503      20.4076     112.2581        17     1.128     1.062  70.82   0
       123    997.7794    703.3353 300.2572514 +22.8791708      1623.04     72.31551      1.612     3.83     5.476047      20.4076     160.2084        23     1.306     1.057  37.74   0
       124    793.1104    704.4681 300.1930605 +22.8181958     2555.835     72.48118      1.584     3.10     5.247439      20.4076     246.9213        28     1.578     1.017  -0.18   0
       125     15.8309    694.5504 299.9544215 +22.5823162     750.7822     72.37077      1.604     3.53     5.769265      20.4076     82.96514        13     1.154     0.766 -45.28   0
       126    875.3729    690.2826 300.2233160 +22.8387616     608.6161     72.33393      1.703     4.72     5.381566      20.4076     56.20617        12     1.142     0.823  54.47   0
       127    178.0964    690.7854 300.0060680 +22.6299134     558.2771     72.24175      1.562     4.05     5.766532      20.4076     85.64453         8     0.901     0.803 -73.39   0
       128    911.3671    681.3781 300.2374339 +22.8469832     148822.8     72.33393      1.597     3.16     5.468956      20.4076     14183.71       152     1.470     1.433  66.20   0
       129    673.6799    685.6053 300.1619743 +22.7769957     424.3394      72.2602      1.537     4.10     5.179865      20.4076     39.01379         7     1.046     0.459 -10.30   0
       130    763.5952    681.4323 300.1913474 +22.8027363     782.4372     72.31551      1.487     3.51     5.295684      20.4076     78.71263        14     1.016     0.870  28.73   0
       131    944.1751    674.3851 300.2499385 +22.8547988     512.9776     72.35236      1.684     4.69     5.514099      20.4076     46.59528         8     0.953     0.654  19.87   0
       132    597.6575    670.1104 300.1433297 +22.7497653     1780.118     72.37077      1.452     3.11     5.659938      20.4076     193.8788        22     1.179     1.028  51.34   0
       133    778.8099    667.4570 300.2006306 +22.8032793     9460.443     72.29707      1.458     2.79     5.327523      20.4076     1096.919        43     1.219     1.182 -22.39   0
       134    280.2165    662.3963 300.0470441 +22.6523930     4851.197      72.2602      1.462     2.74     5.904701      20.4076     579.9675        30     1.189     1.146  71.20   0
       135    362.3467    660.6618 300.0731545 +22.6765205     1223.314     72.38918      1.412     2.63     5.698578      20.4076     170.2886        16     1.035     0.905 -12.25   0
       136    238.3417    658.6401 300.0352427 +22.6387582     485.3925     72.33393      1.340     2.83     5.844128      20.4076     70.45099         7     0.830     0.632 -20.25   0
       137    570.6193    656.1572 300.1394434 +22.7376557     731.1719     72.35236      1.311     3.50      5.77436      20.4076     92.79251        12     1.114     0.730  -4.23   0
       138    562.3337    648.2421 300.1394350 +22.7328997     3241.713     72.31551      1.400     2.69     5.849127      20.4076     360.3515        29     1.174     1.055 -19.96   0
       139    552.4769    641.9857 300.1383985 +22.7281492     1452.514     72.35236      1.376     2.52     5.904812      20.4076      200.046        18     1.042     0.927  79.32   0
       140    946.4118    640.2502 300.2617277 +22.8456583     492.2648     72.37077      1.845     3.87      5.62913      20.4076     43.61598         9     0.986     0.826 -14.42   0
       141    481.1483    641.3061 300.1164132 +22.7065767     289.1808     72.40759      1.277     3.39     5.802837      20.4076     37.77517         7     0.849     0.585 -25.43   0
       142    215.8566    638.2657 300.0348707 +22.6261689     639.6668     72.38918      1.502     3.34     5.902746      20.4076      73.5868        12     1.003     0.803 -10.05   0
       143    230.2034    636.6259 300.0398642 +22.6300006      577.514     72.29707      1.494     3.50     5.896689      20.4076     73.57912        12     1.002     0.932 -49.63   0
       144    999.1938    633.4664 300.2803968 +22.8595124     568.2925     72.33393      1.836     5.64     5.644364      20.4076     38.09656        10     1.197     0.748 -13.45   0
       145    477.2708    631.7027 300.1183262 +22.7026572     1708.391     72.46279      1.339     2.50     5.845656      20.4076     246.8013        20     1.141     0.899  47.02   0
       146    256.0704    633.1532 300.0490357 +22.6367605     429.5857     72.31551      1.326     3.41     5.927743      20.4076     65.14805         9     0.888     0.751  74.32   0
       147    576.5087    632.3766 300.1490036 +22.7325915     424.8815      72.2602      1.230     3.46     6.018803      20.4076     54.05943         7     0.864     0.666  26.50   0
       148    511.0363    630.9698 300.1290752 +22.7125666     382.8549     72.35236      1.451     3.74     5.929469      20.4076     33.82849         5     0.635     0.632  16.53   0
       149     52.0617    628.4254 299.9871600 +22.5742194     746.8272     72.33393      1.729     4.21     6.091232      20.4076     77.25999        13     1.208     0.778 -86.02   0
       150    131.1942    626.4938 300.0123773 +22.5974008     19893.66      72.2233      1.649     3.03     6.040799      20.4076     2344.996        56     1.406     1.320  20.26   0
       151    562.3240    626.8205 300.1463916 +22.7267452     1037.549     72.33393      1.453     2.73     6.063739      20.4076     117.5907        14     0.962     0.869 -83.21   0
       152    933.8119    623.3932 300.2632747 +22.8370405     291.0837     72.20485      1.635     3.46     5.688851      20.4076     21.64179         5     0.776     0.445 -18.38   0
       153    980.3920    613.3969 300.2810517 +22.8481143      1139.89     72.14945      1.594     3.41      5.72117      20.4076     117.1843        20     1.165     1.078 -29.94   0
       154    846.9335    611.5357 300.2400355 +22.8076162     559.3016     72.38918      1.629     4.41     5.405993      20.4076     52.11246        10     1.008     0.876 -29.58   0
       155     77.3673    610.5135 300.0008409 +22.5766716     1413.068     72.29707      1.869     4.58     6.141585      20.4076     138.8128        23     1.457     1.093  84.44   0
       156    597.5279    626.3853 300.1574958 +22.7371693     266.7717     72.33393      1.216     4.40     6.085454      20.4076     44.23416         8     0.972     0.732  56.96   0
       157    525.7954    607.6765 300.1412371 +22.7103010     213.2214     72.24175      1.099     2.24      6.16463      20.4076     82.33775         7     0.849     0.507  62.11   0
       158    919.7036    606.0333 300.2645144 +22.8278265     1170.159     72.33393      2.753     8.39     5.697559      20.4076     74.60804        21     1.986     1.097   0.84   0
       159    317.7906    606.5482 300.0768738 +22.6476300     345.0607     72.33393      1.429     5.44     5.972313      20.4076      41.4774         8     1.014     0.823 -17.00   0
       160    664.7799    604.6010 300.1855203 +22.7510621     214.9112      72.2602      1.172     3.38     5.744091      20.4076     37.81686         5     0.804     0.411  22.64   0
       161    482.1725    599.7269 300.1302394 +22.6949450     766.5801     72.33393      1.399     2.80     6.013806      20.4076     120.7092        13     1.140     0.819  52.25   0
       162    630.3622    598.0700 300.1769206 +22.7388746     473.6443     72.29707      1.326     4.48      6.09847      20.4076     64.42813         9     1.083     0.643  51.50   0
       163    677.9466    596.9137 300.1921193 +22.7527983     447.3177     72.37077      1.327     3.15     5.736676      20.4076     57.81483         8     0.899     0.672  24.25   0
       164    648.0510    596.5571 300.1829220 +22.7437396     740.0276     72.37077      1.490     2.70     5.954387      20.4076     90.32074        11     0.889     0.810  36.16   0
       165    526.7281    595.6128 300.1454463 +22.7071162     866.4586     72.35236      1.404     3.19     6.193004      20.4076     107.2845        16     1.076     0.958  32.41   0
       166    960.4207    591.4464 300.2819527 +22.8358252      3324.48     72.38918      1.547     2.98     5.773896      20.4076     331.6696        29     1.234     1.110  63.31   0
       167    492.1137    591.1885 300.1361074 +22.6954725     1674.984     72.27864      1.336     2.63     6.091649      20.4076     183.7594        20     1.088     0.930 -11.95   0
       168    856.8541    588.5002 300.2506117 +22.8039673     461.6726     72.42599      1.870     4.30     5.537786      20.4076     46.74781         7     1.189     0.574  22.85   0
       169     54.0093    584.6354 300.0019887 +22.5622415     5002.461     72.33393      1.667     3.18     6.202065      20.4076     598.7814        36     1.362     1.264  41.11   0
       170   1000.3178    581.6569 300.2975788 +22.8449556     368.5702     72.38918      1.387     4.81     5.799915      20.4076     42.13588         8     0.999     0.656  -7.70   0
       171    521.4981    582.0999 300.1482072 +22.7016683     272.0744     72.57305      1.215     3.21     6.205667      20.4076     50.77709         5     0.832     0.538  43.60   0
       172    355.4566    577.8867 300.0979005 +22.6506940     9298.557     72.42599      1.429     2.53     5.973213      20.4076     1321.957        41     1.181     1.164 -51.88   0
       173    477.9419    574.9676 300.1369647 +22.6865674     8962.845     72.35236      1.368     2.77     6.135328      20.4076     1149.223        35     1.123     1.094  64.70   0
       174    724.3439    571.8250 300.2147250 +22.7594891     272.2184     72.33393      1.393     2.65     5.693371      20.4076     42.16732         5     0.725     0.446 -73.45   0
       175    243.3052    572.0134 300.0649256 +22.6153860     302.8613      72.2602      1.357     3.00     5.979848      20.4076     43.26639         6     0.826     0.608  50.71   0
       176    889.5483    569.0301 300.2671305 +22.8081617      1850.04     72.35236      1.476     2.98     5.736306      20.4076     175.3247        21     1.182     0.968  81.87   0
       177    974.3333    566.5285 300.2943866 +22.8328275     12597.05     72.37077      1.550     3.06     5.828385      20.4076     1282.094        47     1.289     1.245  59.06   0
       178    538.5143    564.6077 300.1591865 +22.7017436     11613.22      72.2602      1.359     2.31     6.271645      20.4076     1657.912        42     1.193     1.092  81.84   0
       179    707.8422    560.3890 300.2132975 +22.7512605     509.2912     72.33393      1.340     4.00     5.842233      20.4076     64.52525         9     0.997     0.769  66.40   0
       180    266.0045    560.0710 300.0758630 +22.6187639     1297.653     72.27864      1.416     2.88     5.980028      20.4076     165.4971        19     1.129     1.027  42.41   0
       181    424.1886    559.6517 300.1252090 +22.6660599      267.774     72.33393      1.122     2.67     6.109138      20.4076     50.76536         6     0.756     0.567 -46.98   0
       182    513.0378    557.4541 300.1535781 +22.6920551     341.2241     72.33393      1.435     4.53     6.259435      20.4076     50.02415         7     1.134     0.654  82.16   0
       183    813.0458    553.0164 300.2484796 +22.7806507     812.0322     72.35236      1.444     2.66     5.624372      20.4076     115.5248        14     1.032     0.878  80.62   0
       184    470.2022    552.7533 300.1417704 +22.6778689     4422.068     72.33393      1.380     2.53     6.230259      20.4076     568.4429        27     1.131     1.019  61.82   0
       185    448.4693    551.2545 300.1354928 +22.6709255     1220.483     72.37077      1.305     2.38     6.191814      20.4076     168.0267        17     0.982     0.925  83.48   0
       186    202.7677    550.4930 300.0593105 +22.5970553     749.8649      72.2602      1.425     4.04     6.016319      20.4076     88.98898        11     0.999     0.983   3.11   0
       187    890.0439    548.3392 300.2740053 +22.8023629     1606.366     72.35236      1.558     3.23     5.841664      20.4076     157.1687        21     1.223     1.015 -47.10   0
       188    586.8412    540.3057 300.1821276 +22.7092431       200884     72.35236      1.348     2.47     6.361238      20.4076     26286.63       195     1.423     1.352 -16.15   0
       189    136.0537    548.4810 300.0392256 +22.5764735     192.4133     72.37077      1.158     3.97     6.101445      20.4076     44.06232         5     0.914     0.494  -5.47   0
       190    990.4325    547.5258 300.3055810 +22.8321840     210.6544     72.33393      1.043     3.30     5.876568      20.4076     41.74156         5     0.914     0.490  -7.17   0
       191    770.5687    545.1423 300.2377968 +22.7656669     855.1093     72.35236      1.368     3.19     5.619776      20.4076     108.8818        14     0.990     0.938 -59.06   0
       192    864.1873    543.9759 300.2673599 +22.7933667     378.0478     72.33393      1.948     3.78     5.844374      20.4076     30.33441         5     0.822     0.498 -31.09   0
       193    272.9663    540.1855 300.0844858 +22.6151429     3524.307     72.31551      1.416     2.86     5.977883      20.4076     367.3126        27     1.139     1.069  62.66   0
       194    452.2108    536.3503 300.1414974 +22.6677668     364.7859     72.35236      1.792     4.65     6.254405      20.4076     31.20592         7     0.973     0.632 -54.25   2
       195    839.1022    536.5279 300.2619577 +22.7837147     517.8515     72.46279      1.409     3.63     5.718986      20.4076     58.77296        10     1.056     0.677 -37.46   0
       196    857.3920    534.2401 300.2684031 +22.7885337     311.2924     72.37077      1.322     3.49     5.750783      20.4076     27.45293         5     0.769     0.458  74.14   0
       197    477.3550    524.7446 300.1530925 +22.6719688     378.6866     72.37077      1.536     3.58     6.332462      20.4076     44.98996         5     0.844     0.661   0.72   3
       198    477.4902    520.4961 300.1545142 +22.6707891     2590.569     72.51794      1.308     2.24     6.344189      20.4076     379.7582        21     1.071     0.931  68.31   2
       199    321.7305    522.9714 300.1052429 +22.6248190     561.1684     72.33393      1.434     3.57       5.9735      20.4076     55.03814         8     0.896     0.616 -80.02   0
       200    888.9426    517.2416 300.2837613 +22.7930943     429.7926     72.31551      1.706     4.48      5.70172      20.4076     46.46815         8     1.060     0.642   7.58   0
       201    708.2006    516.4971 300.2276635 +22.7387565     172.9961     72.20485      1.201     3.22     6.039478      20.4076     40.76415         5     0.826     0.559 -50.43   0
       202    794.5188    509.2561 300.2569158 +22.7625263     471.6353     72.37077      1.548     3.65      5.63567      20.4076     52.28966         7     0.938     0.710  39.83   0
       203    874.4615    506.8914 300.2826067 +22.7857835     1767.052     72.42599      1.356     2.38     5.594189      20.4076     223.5699        18     1.105     0.853  57.21   0
       204    761.1927    507.3641 300.2471429 +22.7520027     260.5828     72.33393      1.220     4.16     5.795057      20.4076     33.73476         6     0.763     0.649 -47.15   0
       205    745.7037    504.4711 300.2432552 +22.7465327     2563.602      72.4444      1.338     2.53     5.883419      20.4076     343.7651        23     1.123     0.977  85.96   0
       206      4.5447    505.2452 300.0124021 +22.5246288     834.5462     70.56192      1.741     3.88     6.372995      20.4076     81.22823        15     1.162     0.905  13.27  16
       207    383.7365    504.5871 300.1305028 +22.6381250     198.7174     72.29707      1.237     3.41     6.141229      20.4076     29.13573         5     0.732     0.458  18.37   0
       208    990.1984    502.5790 300.3201047 +22.8191912     312.6072      72.2602      1.200     4.27     5.879726      20.4076     49.93893         7     0.865     0.638 -32.84   2
       209    988.8016    497.8975 300.3211892 +22.8174270     847.8088     72.24175      1.644     5.46      5.87746      20.4076     65.31741        16     1.438     0.904  49.53   2
       210    954.9316    501.0051 300.3096144 +22.8081820     390.5161     72.29707      1.661     4.21     5.819039      20.4076     41.65883         7     0.898     0.562  37.67   0
       211    650.5024    501.1607 300.2146676 +22.7170681     523.0446     72.31551      1.298     3.09     6.326078      20.4076     58.87552        10     0.946     0.710  31.77   0
       212    532.9551    500.2612 300.1783517 +22.6815961     747.2298     72.37077      1.297     2.93     6.401293      20.4076     101.9169        12     1.032     0.748  44.16   0
       213   1003.0363    498.6342 300.3253909 +22.8218995     1326.567     72.40759      1.501     2.84     5.902618      20.4076     149.2124        18     1.077     0.974  36.25   0
       214    874.7407    496.7745 300.2859789 +22.7829589     2474.013     72.33393      1.730     4.26      5.52964      20.4076     260.5867        31     1.669     1.010  75.66   0
       215    627.9421    495.0055 300.2096388 +22.7085420     715.5101     72.29707      1.518     3.23      6.36259      20.4076     82.00176        11     0.962     0.865  13.37   0
       216    413.9939    494.9280 300.1430542 +22.6444190     265.2312     72.27864      1.214     3.31     6.338638      20.4076     36.25149         5     0.617     0.614  -7.22   0
       217    466.4523    493.4681 300.1598546 +22.6597192     433.8401     72.35236      1.269     3.02     6.399693      20.4076     60.29959         9     0.938     0.682 -51.39   0
       218    912.9184    492.0626 300.2994144 +22.7930341     4434.764      72.4444      1.438     2.96     5.679487      20.4076     459.3773        30     1.172     1.115  52.89   0
       219    573.2383    487.6573 300.1949875 +22.6900440     514.9847     72.33393      1.694     3.26     6.413184      20.4076     60.65746         8     1.000     0.716  48.68   0
       220    144.5521    482.2871 300.0633599 +22.5600251     1115.051     72.33393      1.624     4.08      6.08738      20.4076     103.6893        18     1.169     1.066 -50.58   0
       221   1004.7679    482.7386 300.3310926 +22.8178471     689.0731     72.37077      1.421     2.96     5.911925      20.4076      75.0196        13     0.953     0.866 -12.83   0
       222    805.6946    476.1355 300.2711538 +22.7563534     311.9459      72.4444      1.458     4.41     5.615538      20.4076     41.69325         5     0.854     0.646  60.64   0
       223    411.0918    475.5924 300.1484288 +22.6379966     268.1113     72.24175      1.433     4.76     6.363493      20.4076     34.55249         7     1.243     0.518 -37.49   0
       224    137.4486    472.4363 300.0643500 +22.5550680     490.9445     72.33393      1.444     5.27     6.090192      20.4076     51.89767        12     1.035     0.940  61.08   0
       225   1000.8650    471.7033 300.3334580 +22.8135058     311.5195      72.4444      1.512     4.92      5.90123      20.4076     36.64138         8     1.110     0.617  -6.71   0
       226    744.9680    466.5011 300.2553544 +22.7354004     478.5198     72.31551      1.349     3.85     6.042531      20.4076     53.50521         8     0.893     0.641  42.45   0
       227    354.0513    464.9280 300.1341429 +22.6178405     318.2616     72.33393      1.415     4.19     5.958608      20.4076     32.02735         7     0.914     0.549 -42.03   0
       228    634.0301    464.1814 300.2215430 +22.7015092     316.4225     72.33393      1.261     3.99     6.324185      20.4076     42.34682         6     0.958     0.475  38.41   0
       229    686.2822    462.4209 300.2383924 +22.7166531       694.73     72.29707      1.300     2.74     6.216417      20.4076      98.6049        13     1.002     0.773  63.17   0
       230   1001.0824    455.3548 300.3388337 +22.8088697     609.2662     72.29707      1.577     3.92     5.897249      20.4076      62.1075        10     1.107     0.612  46.12   0
       231    747.0505    454.6758 300.2598426 +22.7326254     903.6818     72.33393      1.298     2.48      6.03873      20.4076     130.7064        12     0.941     0.754  82.18   0
       232    904.4442    450.9543 300.3101186 +22.7786788     905.1341     72.37077      1.375     2.64      5.71461      20.4076     141.9252        16     1.027     0.974   4.41   0
       233    888.7009    447.2974 300.3063963 +22.7729146     643.8098     72.53632      1.306     3.66     5.690194      20.4076     68.06522        14     1.107     0.883  22.37   0
       234    632.9500    445.2570 300.2273502 +22.6957480     3290.583     72.38918      1.286     2.38     6.287373      20.4076     419.2516        23     1.027     0.948 -86.10   0
       235    993.2087    443.9952 300.3400652 +22.8032465     419.0139     72.18639      1.353     4.44     5.884734      20.4076     57.53539         8     0.921     0.610  47.35   0
       236    109.6189    436.5450 300.0673513 +22.5364228     400.4692     72.31551      1.197     3.82     6.114576      20.4076      48.0214         6     0.966     0.513  56.76   0
       237    638.8201    433.7125 300.2329263 +22.6941889     236.0371      72.2602      1.085     3.38     6.248123      20.4076     37.22931         5     0.936     0.353 -45.62   0
       238    404.5876    432.7629 300.1603085 +22.6237472     300.1677     72.31551      1.111     2.45     6.225467      20.4076     41.10153         5     0.705     0.453  69.05   0
       239    473.0439    432.2768 300.1817718 +22.6441184      261.757     72.31551      1.029     2.04     6.411902      20.4076     59.85625         7     0.676     0.637 -42.12   0
       240    916.1476    424.1466 300.3224712 +22.7744743     491.9268     72.37077      1.347     3.33     5.834404      20.4076     64.94049        12     1.008     0.816 -36.21   0
       241   1002.7282    423.2307 300.3497760 +22.8001241     986.0377     72.33393      1.461     3.47     5.891008      20.4076     106.6076        17     1.165     0.962 -56.49   0
       242    743.5383    419.0138 300.2703247 +22.7213238     1168.578     72.29707      1.327     2.74     6.074854      20.4076     139.4863        18     1.120     0.945  16.55   0
       243    539.1932    419.8071 300.2064130 +22.6603528     484.2299     72.18639      1.235     2.47     6.350289      20.4076     70.81168         7     0.712     0.645 -45.83   0
       244    247.4642    417.2409 300.1164695 +22.5722030     684.7634     72.29707      1.284     2.65     5.917666      20.4076     98.04298        15     0.986     0.887  74.86   0
       245    309.8471    412.9947 300.1372495 +22.5896801     3671.433     72.31551      1.380     2.93     5.862758      20.4076     478.4285        29     1.184     1.036  64.34   0
       246    257.0381    407.7569 300.1225249 +22.5723494     7638.467     72.42599      1.417     2.74     5.894476      20.4076     904.3391        35     1.217     1.087  55.06   0
       247    635.4683    407.3431 300.2404416 +22.6856076     465.4024     72.35236      1.332     2.75     6.185061      20.4076     49.14172         7     0.864     0.538  32.29   0
       248   1022.7665    402.7495 300.3626764 +22.8002303      1692.44     61.23912      1.372     3.34      5.76982      20.4076     205.0487        19     1.105     0.928  75.16  24
       249    397.8217    402.0450 300.1681735 +22.6128974      4879.65     72.38918      1.340     2.52     6.067504      20.4076     703.3133        30     1.150     1.031  84.95   0
       250    642.0794    398.8088 300.2452710 +22.6851350     18818.19     72.27864      1.319     2.33     6.126778      20.4076     2933.145        50     1.182     1.081  73.36   0
       251    659.6053    398.9646 300.2506800 +22.6904282     878.4396     72.33393      1.863     4.84     6.056367      20.4076     86.22358        16     1.529     0.773 -42.12   0
       252    884.6245    395.5935 300.3219087 +22.7568287     240.3574     72.31551      1.418     4.41     5.745442      20.4076     39.87403         6     0.923     0.691 -16.77   0
       253    838.9383    389.3669 300.3096845 +22.7413629     272.0483     72.35236      1.171     2.91      5.77011      20.4076      55.5085         7     0.811     0.612  28.45   0
       254    262.1565    385.9244 300.1312023 +22.5676145     319.6872     72.31551      1.205     2.56     5.855518      20.4076     55.28553         5     0.758     0.497  33.51   0
       255    975.7346    381.4860 300.3549045 +22.7800404     702.8026     72.42599      1.491     3.58     5.617271      20.4076     94.54932        16     1.162     0.929 -56.43   0
       256    685.0742    380.3549 300.2646547 +22.6927064     418.2354     72.31551      1.749     4.36     5.908565      20.4076     43.12532         6     1.020     0.642 -58.98   0
       257    512.4290    380.8745 300.2107160 +22.6411502     284.5463     72.35236      1.129     3.12      6.28977      20.4076     43.66619         7     1.001     0.533  13.30   0
       258    196.7090    378.7479 300.1131805 +22.5459385     2053.742     72.38918      1.532     2.90     5.950652      20.4076     266.0655        24     1.186     1.108  56.12   0
       259    209.9568    374.5882 300.1186493 +22.5487149     124.4571     72.33393      1.279     4.13     5.937652      20.4076     30.62022         5     0.801     0.607  84.65   0
       260    582.7213    368.2052 300.2367151 +22.6585637     6563.641     72.24175      1.265     2.26     6.179246      20.4076     907.7758        33     1.092     1.026  70.30   0
       261    996.3434    368.7805 300.3654574 +22.7825534     1260.786     72.33393      1.496     3.14     5.499677      20.4076     151.6964        16     1.073     0.934  16.32   0
       262    297.4416    367.6500 300.1481068 +22.5729409     580.9232     72.35236      1.106     2.54      5.76922      20.4076     108.3054        10     0.934     0.662  55.09   0
       263    155.4134    360.9186 300.1061284 +22.5284420     531.8713     72.31551      1.357     2.00     5.982296      20.4076     88.95435         7     0.691     0.646 -32.44   0
       264    842.8222    360.0400 300.3204133 +22.7340935     316.6082     72.37077      1.246     3.68     5.637889      20.4076     34.12899         6     0.899     0.473 -56.68   0
       265      2.5709    358.4832 300.0594240 +22.4819230     1197.184     62.89251      1.487     3.41     6.144806      20.4076     163.4001        19     1.165     1.044  57.54  24
       266    696.3712    358.5421 300.2752534 +22.6898194     433.4918     72.33393      1.049     2.52     5.798799      20.4076     72.28025         9     0.875     0.659  39.32   0
       267    786.9238    357.4001 300.3038440 +22.7166016     1198.676     72.20485      1.490     2.59     5.783789      20.4076     150.7705        16     1.044     0.882 -22.13   0
       268    489.3115    354.4437 300.2120964 +22.6266318     6068.908     72.33393      1.268     2.32     6.253741      20.4076     794.4232        29     1.099     1.007  51.22   0
       269    978.9055    349.2967 300.3663402 +22.7717314     691.6818     72.51794      1.485     3.18     5.412729      20.4076      64.8612        12     0.973     0.820 -22.93   0
       270    881.3369    348.8978 300.3360382 +22.7424176      1440.52     72.42599      1.323     2.40     5.543994      20.4076     198.6896        19     1.111     0.919 -75.19   0
       271    474.0339    343.0746 300.2110298 +22.6187891     540.4714     72.33393      1.420     3.06     6.152622      20.4076      65.7986        11     1.021     0.694   0.24   0
       272    556.6334    341.4439 300.2372752 +22.6430604     430.2052     72.38918      1.331     2.93     6.138187      20.4076     71.14537         7     0.863     0.624 -48.77   0
       273    834.6110    340.2265 300.3242829 +22.7259387     194.2521     72.33393      1.234     2.96     5.698089      20.4076     35.35586         5     0.745     0.430 -67.87   0
       274      1.4521    339.7336 300.0651600 +22.4762063     716.7147     57.07127      1.019     2.21     6.162652      20.4076     135.7285         8     0.907     0.497 -88.67  24
       275    537.6528    339.1569 300.2321071 +22.6367186      373.842     72.37077      1.456     2.48     6.148391      20.4076     42.84457         6     0.712     0.605  15.28   0
       276    853.8792    336.7440 300.3314204 +22.7307045     620.2502     72.37077      1.553     2.55     5.653834      20.4076     85.63795        10     0.879     0.768 -35.61   0
       277    376.9799    333.7058 300.1838651 +22.5870235     2531.952      72.2602      1.324     2.40     5.810285      20.4076     371.3491        21     1.047     0.971  29.95   0
       278     95.3669    330.9204 300.0971989 +22.5018310     1066.276     72.31551      1.527     3.43     6.125981      20.4076     141.6039        18     1.112     1.003  54.69   0
       279    724.6704    328.5426 300.2938061 +22.6896687     214.0517     72.35236      1.160     2.50     5.764221      20.4076     47.69632         5     0.707     0.474 -17.01   0
       280    346.2430    323.0872 300.1777472 +22.5747645     30182.03     72.33393      1.361     2.52     5.801298      20.4076     3638.757        63     1.315     1.132  57.87   0
       281    881.0370    320.8192 300.3450559 +22.7342533      1466.81     72.35236      1.312     2.37     5.715908      20.4076     240.9133        19     1.081     0.908  39.91   0
       282     42.5569    310.7237 300.0873416 +22.4802025     5000.296     72.31551      1.626     3.04     6.175043      20.4076     626.4991        38     1.393     1.218  66.10   0
       283    796.0789    309.6864 300.3221802 +22.7056238     412.9001     72.48118      1.066     2.25     5.867553      20.4076     85.60895         9     0.833     0.643  57.88   0
       284    220.7484    309.3571 300.1431700 +22.5332182     412.0597     72.37077      1.126     2.82     5.928525      20.4076     64.67518         8     0.910     0.655 -35.28   0
       285    444.9386    308.1645 300.2133004 +22.6000439     469.7105     72.35236      1.204     2.49     5.873951      20.4076     79.78259         9     0.795     0.708 -55.72   0
       286    756.6855    302.9712 300.3120803 +22.6919012     1938.299     72.33393      1.323     2.49     5.809434      20.4076     281.9125        20     1.018     0.939  64.20   0
       287    564.8746    297.5702 300.2540765 +22.6329202     304.5544     72.35236      1.241     3.51     6.056556      20.4076     55.82172         7     0.895     0.571  50.32   0
       288    972.0242    295.9719 300.3814963 +22.7543342     453.9241     72.33393      1.395     4.04     5.519816      20.4076     58.81147        11     1.023     0.893 -16.44   0
       289    418.4061    287.5203 300.2117401 +22.5861652     2139.689      72.2602      1.480     2.90     5.810529      20.4076     299.6168        22     1.290     0.897  63.94   0
       290    630.7646    286.3540 300.2782368 +22.6494262     298.0067     72.37077      1.044     3.15     5.918576      20.4076     52.27276         5     0.812     0.475 -48.23   0
       291    857.8237    280.6442 300.3508521 +22.7157525      449.709     72.37077      1.226     2.83     5.917655      20.4076     80.35485         8     0.906     0.591   3.20   0
       292    850.0026    281.1483 300.3482500 +22.7135568     222.6355     72.33393      1.407     4.50     5.917158      20.4076     35.17867         5     0.917     0.657  26.36   0
       293    757.1470    278.0488 300.3203095 +22.6848737     404.8738     72.37077      1.494     2.62     5.819277      20.4076     48.79376         6     0.879     0.443 -55.42   0
       294    739.7712    277.8886 300.3149463 +22.6796265     417.6233     72.31551      1.283     2.82     5.784041      20.4076     67.70576         8     0.869     0.650  89.99   0
       295    707.9874    277.3097 300.3052295 +22.6699456     320.5188     72.27864      1.291     2.52     5.780069      20.4076     43.67211         7     0.715     0.648  25.82   0
       296    494.2856    266.7613 300.2420924 +22.6029270      1244.42     72.31551      1.333     2.40     5.853436      20.4076     176.8444        18     1.042     0.902  59.70   0
       297    579.4326    264.9873 300.2691801 +22.6279148     283.4683     72.31551      1.214     2.17     5.983602      20.4076      46.6431         6     0.779     0.700  68.43   0
       298   1006.1980    263.0211 300.4028477 +22.7550796     384.5311      72.2602      1.253     2.96     5.258982      20.4076     44.80912         7     0.814     0.668  27.38   0
       299    739.2897    258.7839 300.3209936 +22.6739893     2288.863      72.2602      1.269     2.36      5.78125      20.4076     357.1559        20     1.030     0.924 -84.32   0
       300   1000.5553    253.2080 300.4042705 +22.7505683     3285.442     72.35236      1.510     2.73     5.302356      20.4076     371.6021        31     1.257     1.151   0.25   0
       301    447.6003    242.6016 300.2353966 +22.5820027     696.1155      72.1125      1.255     2.47     5.812445      20.4076     114.7717         9     0.833     0.729  22.15   0
       302    122.4414    236.5823 300.1362147 +22.4828598     1429.509     72.35236      1.686     3.92     6.225855      20.4076     131.3322        24     1.489     1.059 -33.82   0
       303    153.1761    236.6695 300.1457398 +22.4920952     450.5946     72.33393      1.384     2.78     6.107123      20.4076     75.85439         9     0.997     0.610  69.82   0
       304   1016.5522    234.0015 300.4154917 +22.7498280     566.3815     72.33393      1.477     2.51     5.163421      20.4076     73.61452         9     0.903     0.615  15.72   0
       305    859.9111    230.4250 300.3677931 +22.7019338     340.3593     72.27864      1.306     4.13     5.879395      20.4076     39.21746         6     0.781     0.624  43.29   0
       306    206.4438    228.3093 300.1650113 +22.5056557      637.496     72.33393      1.536     4.78     6.030571      20.4076     76.26991        13     1.230     0.851 -88.31   0
       307   1001.7985    226.3055 300.4133846 +22.7432002     330.3621     72.24175      1.331     4.37     5.296788      20.4076     40.05722         7     1.256     0.432 -25.42   0
       308     62.0708    225.6974 300.1209835 +22.4616415     239.8719     72.46279      1.260     4.36     6.491687      20.4076     35.26792         7     0.870     0.623  21.51   0
       309    882.3562    222.2529 300.3774426 +22.7062994     348.5498     72.37077      1.202     4.11     5.897491      20.4076     44.76242         6     0.731     0.660 -31.92   0
       310    810.6609    220.2982 300.3557226 +22.6842832     541.6652     72.40759      1.168     3.02     5.852417      20.4076     99.03879         9     0.889     0.794  24.81   0
       311    401.2499    219.7560 300.2283809 +22.5615561     420.7662     72.37077      1.489     3.47     5.841896      20.4076     63.63221         9     0.957     0.731 -41.49   0
       312    901.6331    213.1129 300.3864185 +22.7094381     376.9022     72.29707      1.392     4.73     5.920596      20.4076     37.96468         7     0.879     0.721  23.11   0
       313    909.0012    209.3228 300.3899456 +22.7105523     2049.736      72.2233      1.400     2.51       5.9288      20.4076     281.2452        23     1.137     0.983  58.99   0
       314    327.4967    206.4444 300.2097504 +22.5356405     2239.806     72.35236      1.301     2.23     6.019399      20.4076     318.3949        24     1.145     1.045 -68.77   0
       315    405.4935    201.6469 300.2355742 +22.5576234     1061.808     72.35236      1.343     2.50     5.864188      20.4076     121.0996        13     0.929     0.797 -36.33   0
       316    157.3141    201.7451 300.1583519 +22.4833054     379.4251     72.38918      1.268     2.94     6.240802      20.4076     55.57425         7     0.891     0.641 -87.74   0
       317    807.2005    200.8451 300.3609528 +22.6776529     453.1773     72.33393      1.291     3.17     5.855309      20.4076     89.08169        11     1.108     0.633  50.99   0
       318    914.4639    198.2859 300.3952287 +22.7090117     491.6818     72.42599      1.430     2.36     5.935072      20.4076     52.95623         5     0.698     0.443 -64.80   0
       319    222.3507    193.6046 300.1812117 +22.5004533     749.2378     72.31551      1.385     2.74     6.063332      20.4076     115.0422        15     1.049     0.896   2.42   0
       320    340.7904    193.2052 300.2181793 +22.5358186     330.6889     72.18639      1.365     3.13     6.015577      20.4076     42.83988         6     0.735     0.628  28.22   0
       321    825.1053    190.1464 300.3700042 +22.6799336     620.3643     72.40759      1.291     3.32     5.864304      20.4076     87.88342        11     1.063     0.679  62.84   0
       322    760.1510    190.6819 300.3495831 +22.6606498     1659.297     72.35236      1.324     2.32     5.835183      20.4076     266.6009        16     0.967     0.874  39.46   0
       323     75.1795    190.7120 300.1364018 +22.4555244     335.0587      72.2602      1.282     4.35     6.574523      20.4076     32.15265         6     0.969     0.557 -66.29   0
       324    243.8288    187.1781 300.1899744 +22.5050419      558.809     72.33393      1.426     2.48     6.120991      20.4076     83.77979        10     0.910     0.684 -26.83   0
       325    764.1804    182.2720 300.3535661 +22.6594371     803.6802     72.37077      1.324     3.06     5.845259      20.4076      90.2524        13     1.078     0.823  57.74   0
       326    533.4089    183.1776 300.2813812 +22.5906195     219.8059     72.33393      1.099     2.88     5.975328      20.4076     51.44754         5     0.748     0.419  65.50   0
       327    684.6130    181.2697 300.3290957 +22.6353352     1290.967     72.35236      1.203     2.41     6.011839      20.4076     178.6115        17     1.014     0.882  72.00   0
       328    506.0752    178.0988 300.2745177 +22.5809756     398.9325     72.46279      1.547     2.17     5.904388      20.4076     56.87488         8     0.794     0.628 -38.74   0
       329    383.7227    178.3040 300.2363690 +22.5443955     283.7941     72.46279      1.951     4.41      5.94135      20.4076     38.04923         6     1.312     0.422   8.49   0
       330    892.3441    172.0534 300.3968371 +22.6948473     822.5459     72.37077      1.481     3.75     5.910172      20.4076      104.091        16     1.284     0.816 -68.99   0
       331    880.1891    173.0251 300.3927315 +22.6914903     1419.512     72.33393      1.347     2.50     5.895913      20.4076     192.9325        18     0.998     0.909  52.62   0
       332    610.8455    173.1840 300.3087372 +22.6109294     994.0565     72.35236      1.294     2.28     6.139173      20.4076     145.9732        12     0.869     0.763 -30.15   0
       333   1008.9508    162.5404 300.4362954 +22.7269920     1266.964     72.38918      1.610     3.61     5.927516      20.4076     151.3558        20     1.336     0.964  81.28   0
       334     32.4995    158.9025 300.1334538 +22.4335998     493.7596     72.53632      1.365     3.53     6.771739      20.4076      74.4225         9     1.017     0.795 -27.93   0
       335    242.9137    155.4893 300.1999645 +22.4956645     703.5784     72.49957      1.284     2.74     6.221787      20.4076     98.15731        12     0.943     0.816 -37.59   0
       336    125.2603    154.4844 300.1637121 +22.4601275     308.1854      72.4444      1.393     3.46     6.573013      20.4076     41.72314         5     0.794     0.436  21.66   0
       337    104.7341    149.7945 300.1588529 +22.4526302     2118.441     72.33393      1.578     2.98      6.63891      20.4076     276.0094        27     1.262     1.149  71.67   0
       338    927.9542    147.1611 300.4160145 +22.6983389     847.7223     72.38918      1.453     3.38     6.064549      20.4076     92.86134        13     1.034     0.938 -11.66   0
       339     54.5423    147.0867 300.1441334 +22.4368125      383.748     72.42599      1.231     2.94     6.799375      20.4076     54.49971         7     0.828     0.605 -17.11   0
       340    262.1231    143.2215 300.2099157 +22.4978942      5806.88     72.33393      1.437     2.70     6.340547      20.4076     680.7034        36     1.376     1.074  59.10   0
       341    244.0826    144.4185 300.2039172 +22.4928341     278.9991     72.29707      1.071     3.69     6.275321      20.4076     48.09349         6     0.794     0.493  -2.29   0
       342    399.5828    143.0132 300.2527466 +22.5390036      1004.83     72.29707      0.627     1.89     5.891809      20.4076     424.0656         6     0.555     0.347 -17.17   0
       343      8.6386    138.8381 300.1325456 +22.4206877     307.2787     72.40759      1.444     3.43      7.03306      20.4076     28.44292         5     0.779     0.436  71.75   0
       344     46.3063    137.6115 300.1446460 +22.4316235     1339.693     72.27864      1.625     2.92     6.889841      20.4076     161.0463        19     1.196     1.011  59.79   0
       345    245.7421    134.4236 300.2076736 +22.4904597      625.975     72.33393      1.439     2.52     6.324966      20.4076     75.97688        10     0.919     0.704 -49.69   0
       346    399.9169    132.2430 300.2563422 +22.5360083     1424.922     72.29707      0.536     0.81     5.863051      20.4076     1018.162         5     0.441     0.307 -70.69   0
       347    906.3539    125.0798 300.4164368 +22.6855241     3649.591     72.33393      1.410     2.60        6.128      20.4076     436.1745        31     1.220     1.090  76.36   0
       348   1009.9533    123.9182 300.4491308 +22.7161774     2640.733     72.31551      1.460     2.84     6.280137      20.4076     301.1942        27     1.185     1.097  76.43   0
       349    455.6795    120.5593 300.2774849 +22.5493474     535.6339     72.31551      1.195     2.75     5.810251      20.4076     91.61546         9     0.914     0.678 -37.83   0
       350    569.7910    118.2781 300.3137524 +22.5828540     174.6561     72.29707      0.930     1.93     6.244541      20.4076     56.94221         5     0.693     0.431 -12.87   0
       351    379.9747    112.2173 300.2566285 +22.5242813     644.5125     72.35236      1.573     2.86     5.820229      20.4076     91.42587         9     0.975     0.608  56.20   2
       352    383.7126    110.6130 300.2583117 +22.5249395     484.6026     72.27864      1.492     3.03     5.815217      20.4076     64.01514         7     0.924     0.568 -26.43   3
       353    145.6825    108.5648 300.1849460 +22.4530566     721.3544     72.29707      1.610     3.77     6.634032      20.4076     93.90067        14     1.115     1.012  50.81   0
       354    507.1027    107.5075 300.2977240 +22.5609913     1594.374     72.51794      1.243     2.29     5.986441      20.4076     230.2598        16     0.932     0.894 -39.12   0
       355    435.2716    107.7197 300.2752950 +22.5395464     576.1783     72.46279      1.548     3.91     5.794741      20.4076      61.5088        10     0.985     0.831  68.50   0
       356    569.0747    106.7515 300.3172659 +22.5793255       377.84     72.33393      1.366     3.51     6.272631      20.4076     48.31329         8     1.009     0.535 -51.28   0
       357    331.1951    103.6096 300.2442418 +22.5071999     265.8404     72.18639      1.086     3.44     6.020602      20.4076     28.78164         5     0.746     0.458 -16.51   0
       358    250.6659    102.8552 300.2194381 +22.4828647     387.9404     72.38918      1.146     3.21     6.455518      20.4076     54.75838         9     0.877     0.725  12.61   0
       359    795.3462     97.0698 300.3909047 +22.6442560     406.5053     72.37077      1.272     2.47      5.89471      20.4076     69.71925         8     0.856     0.672  14.57   0
       360    643.6166     93.5858 300.3447514 +22.5978508     262.6913     72.27864      1.322     3.45     6.254759      20.4076     39.07789         6     0.877     0.486  89.09   0
       361    941.6472     91.8100 300.4382302 +22.6865080     289.7583     72.35236      1.243     4.13     6.479898      20.4076     36.74925         6     0.767     0.635  -2.74   0
       362    380.5607     92.6222 300.2631626 +22.5188251     307.6765     72.37077      1.228     4.80     5.769479      20.4076     33.16644         7     1.360     0.479   3.33   0
       363    691.9036     88.7534 300.3613618 +22.6109117     369.0807     72.35236      1.223     4.27     6.222922      20.4076     39.58931         6     0.963     0.539  66.30   0
       364    281.1205     87.1663 300.2339952 +22.4874781     5962.679     72.27864      1.421     2.80     6.461617      20.4076     695.6401        35     1.308     1.067  67.16   0
       365    787.7343     88.0580 300.3914531 +22.6393862     321.3406     72.37077      1.373     2.85     5.981948      20.4076     39.83292         5     0.774     0.492  34.51   0
       366    132.3439     86.8454 300.1878397 +22.4428216     758.7545     72.37077      1.921     4.42     6.685933      20.4076     104.1123        13     1.387     0.781  -9.41   0
       367    910.1481     84.7352 300.4306989 +22.6750506     370.9095     72.37077      1.509     3.77     6.340777      20.4076     52.04628         5     1.193     0.342  48.30   0
       368    252.8587     81.1859 300.2271437 +22.4772953     308.5109     72.31551      1.227     2.83     6.508858      20.4076     45.86053         8     0.810     0.659  46.50   0
       369    296.2230     78.5734 300.2414778 +22.4895319     466.0288     72.31551      1.441     3.76     6.382281      20.4076     59.93184         6     0.820     0.494   1.81   0
       370     43.1170     77.4744 300.1631478 +22.4133972     305.6064      72.4444      1.543     4.42     7.195503      20.4076     37.98903         7     1.189     0.467  -9.27   0
       371    527.2192     72.6015 300.3153017 +22.5569779     6451.665      72.2602      1.382     2.51      6.15527      20.4076      866.787        33     1.223     1.020  76.67   0
       372    412.5641     72.3499 300.2796924 +22.5225809     692.1258     72.35236      1.347     2.87      5.75862      20.4076     100.2201        13     0.954     0.883 -68.17   0
       373    584.2359     67.5848 300.3346830 +22.5726017     297.8835     72.33393      1.069     2.26     6.298971      20.4076     40.96228         5     0.680     0.471 -17.04   0
       374    721.4192     63.8206 300.3786406 +22.6125724     356.0499     72.33393      1.267     3.47     6.258045      20.4076     44.12155         5     0.735     0.472 -75.20   0
       375    779.7712     62.3859 300.3972921 +22.6296186      887.705     72.35236      1.568     3.17     6.149275      20.4076     127.4416        14     1.110     0.851  48.88   0
       376    872.1420     61.1933 300.4264770 +22.6569082     427.6341     72.31551      1.305     3.76     6.184884      20.4076     57.75797         8     0.901     0.676  81.14   0
       377    220.1799     56.2965 300.2250480 +22.4603561     457.2629     72.24175      1.350     3.14     6.626814      20.4076     51.70958        10     0.883     0.787  40.63   0
       378    578.5984     55.0068 300.3370038 +22.5672975     573.5151     72.14945      1.579     3.41     6.299032      20.4076     58.09007         8     0.863     0.659  40.73   0
       379    655.6696     52.6813 300.3617643 +22.5896940     6206.396      72.4444      1.345     2.42       6.3179      20.4076     936.8597        33     1.193     1.057  88.53   0
       380    430.6221     51.6628 300.2920171 +22.5220408     1600.053     72.31551      1.410     2.50     5.757243      20.4076     207.0311        18     1.026     0.967 -68.46   0
       381    767.1550     51.4483 300.3969045 +22.6226975     284.1775     72.37077      1.219     4.26     6.223883      20.4076     27.41058         5     0.926     0.559 -47.10   1
       382    696.7671     49.9313 300.3754602 +22.6012010     882.3305     72.33393      1.343     2.93     6.308515      20.4076     122.8201        14     0.956     0.907  55.58   0
       383    766.7310     47.9882 300.3978938 +22.6215752     469.6064     72.37077      1.586     5.20     6.236032      20.4076     39.12917         8     1.201     0.637 -15.01   0
       384    712.7778     45.9404 300.3817427 +22.6048436     576.7057     72.31551      1.476     4.53     6.300597      20.4076     76.10135        11     1.276     0.824  57.07   0
       385    179.2031     44.0553 300.2162743 +22.4445656     637.3931     72.27864      1.399     3.88     6.675868      20.4076     88.13061        13     1.137     0.833  70.01   0
       386    982.4343     43.8953 300.4664843 +22.6849168     546.7912     72.33393      1.441     3.03     6.508997      20.4076     64.24291         8     0.964     0.625  56.60   0
       387    751.0197     41.7687 300.3950125 +22.6150855     495.2065     72.33393      1.342     2.73     6.271812      20.4076     79.70428         9     0.924     0.665  83.93   0
       388    237.7556     42.5721 300.2349610 +22.4616765     301.1556     72.37077      1.690     3.49     6.625998      20.4076     29.03711         5     0.751     0.467  16.11   0
       389    699.8778     37.5129 300.3804541 +22.5985597     2855.214     72.48118      1.407     2.39     6.331974      20.4076     446.2012        27     1.160     1.076 -84.97   0
       390    714.6357     36.4606 300.3853939 +22.6026727     1012.062     72.35236      1.797     3.77     6.318311      20.4076     95.76566        17     1.299     0.868  62.53   0
       391    340.9226     38.0612 300.2685126 +22.4912745      550.279     72.38918      1.600     3.92      5.88212      20.4076     52.23013         7     0.888     0.531 -48.98   0
       392    786.3405     29.0814 300.4101334 +22.6220024     1619.942     72.42599      1.448     2.81     6.319038      20.4076     190.6521        19     1.197     0.908  88.59   0
       393    724.2153     22.4246 300.3929277 +22.6015012     801.1734     72.35236      1.382     3.12     6.333366      20.4076     87.92981        14     1.008     0.887  86.08   0
       394    529.7819     21.6081 300.3326257 +22.5430827     1233.826     72.27864      1.514     2.75     6.179852      20.4076     164.5871        15     1.042     0.854  48.90   0
       395    103.0637     21.8424 300.1998045 +22.4153769     630.9111     72.33393      1.505     4.42     6.684623      20.4076     54.70655         8     0.950     0.665  -7.63   0
       396    433.7390     19.6219 300.3033704 +22.5137628     849.2154     72.31551      1.445     3.37     5.747013      20.4076     99.68111        16     1.133     0.924 -53.80   0
       397    815.8857     18.5845 300.4227454 +22.6278204     382.6862     72.29707      1.301     3.16     6.386781      20.4076     56.52355        10     0.938     0.772  66.38   0
       398    580.8370    997.5615 300.0316191 +22.8387199     2349.029     72.40759      1.911     4.51     4.655523      20.4076     157.3411        30     1.398     1.300  77.13   0
       399    329.0920   1018.3483 299.9465090 +22.7691669     1083.725     72.38918      1.908     3.93     13.46605      20.4076      109.926        20     1.472     1.054 -19.43  16
       400    166.2401   1013.6343 299.8974076 +22.7189437     1331.675     72.37077      3.045    12.28     96.21027      20.4076     51.39577        32     2.576     1.631 -42.05  18
       401    208.4727   1004.7635 299.9134217 +22.7290759     2656.588     72.27864      5.935    20.38      80.7328      20.4076     60.26765        98     4.102     2.814  82.45  19
       402    205.3735   1000.3613 299.9138905 +22.7268836     2409.218     72.35236      5.131    18.23     77.30092      20.4076     57.76279        86     4.598     2.009 -49.73  19
       403    389.3548   1004.1811 299.9698654 +22.7831844     609.1925     72.37077      2.206     5.33      4.64055      20.4076     43.16764        11     1.269     1.035 -72.01   0
       404    960.4733    977.1240 300.1565815 +22.9466544      795.577     72.40759      2.257     6.28     3.950918      20.4076     47.78235        15     1.485     1.130 -25.34   0
