#   1 NUMBER                 Running object number                                     
#   2 X_IMAGE                Object position along x                                    [pixel]
#   3 Y_IMAGE                Object position along y                                    [pixel]
#   4 ALPHA_J2000            Right ascension of barycenter (J2000)                      [deg]
#   5 DELTA_J2000            Declination of barycenter (J2000)                          [deg]
#   6 FLUX_APER              Flux vector within fixed circular aperture(s)              [count]
#   7 FLUXERR_APER           RMS error vector for aperture flux(es)                     [count]
#   8 FLUX_RADIUS            Fraction-of-light radii                                    [pixel]
#   9 FWHM_IMAGE             FWHM assuming a gaussian core                              [pixel]
#  10 BACKGROUND             Background at centroid position                            [count]
#  11 THRESHOLD              Detection threshold above background                       [count]
#  12 FLUX_MAX               Peak flux above background                                 [count]
#  13 ISOAREA_IMAGE          Isophotal area above Analysis threshold                    [pixel**2]
#  14 A_IMAGE                Profile RMS along major axis                               [pixel]
#  15 B_IMAGE                Profile RMS along minor axis                               [pixel]
#  16 THETA_IMAGE            Position angle (CCW/x)                                     [deg]
#  17 FLAGS                  Extraction flags                                          
         1    407.1914     16.5401 300.3408738 +22.5070816     2111.014     72.54461      1.368     2.52     5.076759     20.48269     265.9157        23     1.167     0.942  69.20   0
         2     54.4010     14.4486 300.2318696 +22.4007736     1397.211     72.58161      1.492     3.06     5.404935     20.48269     153.2667        17     1.081     0.952  76.73   0
         3    898.1804     13.6091 300.4947521 +22.6532311     310.6247     72.58161      1.357     3.71     5.010589     20.48269     54.25114         7     0.938     0.735 -48.91   0
         4    538.3396     11.1229 300.3834469 +22.5448019      598.175     72.65556      1.489     3.52     4.817675     20.48269     67.79867         9     1.017     0.622  50.53   0
         5     42.5554     10.2104 300.2295637 +22.3960060     88.74277     72.60011      1.243     4.30     5.546519     20.48269     28.08614         5     1.130     0.466 -31.64   0
         6    882.0665      5.4654 300.4923684 +22.6460665     369.5705     72.65556      1.417     3.38     4.904063     20.48269     42.75603         8     0.851     0.693  52.95  16
         7    249.6116      1.8603 300.2966207 +22.4556574     276.7327     59.46617      1.292     3.65     5.000982     20.48269      40.2234         6     0.828     0.605  55.46  24
         8     41.7117    995.3505 299.9092790 +22.6783227     2861.058     72.60011      9.582    33.59     30.12949     20.48269     79.12116       301     7.871     3.979 -15.93  19
         9    204.2252   1022.5454 299.9509169 +22.7349216     577.8286     62.58997      1.861     4.36     10.17469     20.48269     61.16269        14     1.466     1.040 -26.54  24
        10    189.2034   1016.5328 299.9482057 +22.7286877     1332.539     72.58161      6.490    15.35     12.26272     20.48269     54.34849        32     3.946     1.661 -76.54  26
        11    122.7535   1020.4035 299.9262975 +22.7098414     1393.896     70.95414      6.377    11.89     24.69813     20.48269     48.31323        26     2.204     1.787  63.58  26
        12    130.2254   1022.4854 299.9279412 +22.7126820      865.533      62.8041      4.839     7.17     23.69166     20.48269     44.37608         9     1.646     0.875  40.39  27
        13    110.1068   1022.9238 299.9215480 +22.7067654     624.6762     60.76149      5.225     6.61     27.95242     20.48269      37.8459         8     1.806     0.680  13.31  25
        14     86.0144   1023.1903 299.9139769 +22.6996057     1158.289     59.14926      5.128     7.41      32.6417     20.48269     52.88789        17     2.083     0.739  -6.58  27
        15     70.0549   1014.2222 299.9119390 +22.6922427     2324.303     72.61859     15.120    31.75     32.75793     20.48269     56.36004       210     5.982     4.676  -2.43  27
        16     60.7964   1001.4388 299.9132247 +22.6857993     1174.559     72.63708      7.687     8.30     29.85125     20.48269     41.45826        12     1.900     1.014   4.43   3
        17     40.4131   1015.2773 299.9023890 +22.6836417     3775.868     72.61859     10.027    45.64     38.09304     20.48269     77.59241       582     8.937     6.469   7.45  27
        18    378.9453   1000.1183 300.0125418 +22.7809478     536.6395     72.63708      1.557     5.63     3.396206     20.48269     47.28346        10     1.243     0.720  47.99   0
        19    892.7640    991.8361 300.1752372 +22.9327202     2023.291     72.67403      1.643     3.68     3.862687     20.48269     147.0819        26     1.264     1.146 -88.35   0
        20    543.3586    988.9767 300.0673265 +22.8270949      233.684     72.63708      1.354     4.89      3.12513     20.48269     34.76456         8     0.990     0.683 -14.44   0
        21    390.4065    987.8270 300.0201081 +22.7808637      212.608     72.60011      1.455     5.63     3.392446     20.48269     35.76003         6     1.038     0.926 -63.06   0
        22    681.8977    981.0216 300.1130519 +22.8663764     792.8857      72.5261      1.994     6.26     3.487976     20.48269     51.67269        18     1.425     1.017  46.58   0
        23   1008.2181    980.1142 300.2150547 +22.9639688     387.7996     72.54461      1.682     6.29     2.761827     20.48269     38.72776        13     1.424     0.781 -75.09   0
        24    716.3551    974.8867 300.1257819 +22.8749518     1029.562     72.58161      1.547     4.29     3.485922     20.48269     84.11163        14     1.048     0.952  84.55   0
        25    494.0461    975.9120 300.0562319 +22.8085506     347.8663     72.58161      1.368     2.72      3.23271     20.48269     53.61733         6     0.888     0.445  36.14   0
        26    738.5609    968.5981 300.1347465 +22.8798075      11299.6     72.61859      1.600     3.07     3.485254     20.48269     1010.442        50     1.364     1.249 -83.73   0
        27    784.2360    968.8644 300.1488906 +22.8935825     419.9043     72.60011      1.535     5.60     3.516439     20.48269     46.05917        10     1.120     0.867  51.82   0
        28    929.9089    968.0497 300.1945616 +22.9370290     476.9156     72.60011      1.696     5.49     3.850714     20.48269     40.17829        11     1.138     0.748  47.36   0
        29    871.2586    961.8337 300.1783005 +22.9176599     202.4627     72.61859      1.573     3.43     3.858294     20.48269     31.61562         5     0.971     0.350  45.02   0
        30     50.7715    960.6036 299.9234027 +22.6710881     455.3106     72.56311      1.556     5.51      16.7713     20.48269     58.46635        10     1.308     0.735  56.92   0
        31    443.2615    956.7084 300.0466804 +22.7878032      488.797      72.6925      1.898     4.98     3.372733     20.48269     43.04526        10     1.101     0.930  61.12   0
        32    592.1871    955.3966 300.0934579 +22.8321125      241.144     72.43348      1.355     4.39     3.317953     20.48269     28.04907         5     1.162     0.471  57.29   0
        33    747.0821    950.7476 300.1432119 +22.8772406     1342.813     72.63708      1.493     3.08     3.489833     20.48269     127.3889        19     1.106     0.980 -40.91   0
        34    724.5577    951.3503 300.1359986 +22.8706581     306.1932     72.61859      1.720     5.85     3.477705     20.48269     30.48015         6     1.124     0.857 -57.11   0
        35    930.1165    949.6490 300.2006163 +22.9318087     429.8506     72.58161      1.335     5.13     3.853525     20.48269     42.77692         9     0.988     0.754 -14.39   0
        36    599.3130    948.0353 300.0980726 +22.8321384      583.796     72.58161      1.815     4.59     3.348323     20.48269      48.0822         9     1.067     0.835 -23.66   0
        37    785.4713    944.3035 300.1572705 +22.8869039     845.2796     72.71097      1.695     4.18     3.543224     20.48269     77.64562        15     1.155     0.951  85.43   0
        38    894.1692    941.5353 300.1920499 +22.9187022     380.1021     72.60011      1.516     3.41     3.858326     20.48269      46.0502         7     0.995     0.883   3.91   0
        39    833.5782    935.7796 300.1750367 +22.8988829     443.4291     72.60011      1.480     5.48     3.720104     20.48269     50.33896        15     1.290     0.856  14.47   0
        40    685.0029    934.6054 300.1291280 +22.8539893     559.0201     72.41495      1.392     3.37     3.472227     20.48269     81.18124        13     1.017     0.864  28.96   0
        41    288.3866    934.3912 300.0057740 +22.7349202     178.4882     72.48907      1.546     4.94     3.844076     20.48269     36.95899         5     1.123     0.615  54.66   0
        42    696.2397    931.7226 300.1335662 +22.8565324     580.3458     72.58161      1.369     3.43       3.4712     20.48269     64.24254        13     0.981     0.927 -79.43   0
        43    397.5885    931.0421 300.0408252 +22.7667360     4165.491     72.60011      1.534     2.94     3.415798     20.48269     437.4879        34     1.248     1.193   4.52   0
        44     59.2182    919.7773 299.9393127 +22.6619258      251.668     72.60011      1.625     6.13     5.317676     20.48269     34.23486         7     1.326     0.953  86.96   0
        45    440.7362    919.5155 300.0579997 +22.7763786     384.7564      72.6925      1.443     4.84      3.49863     20.48269     38.44869         9     1.019     0.651 -33.01   0
        46    122.4311    916.5181 299.9600104 +22.6799735     848.7796     72.60011      1.985     6.85     5.859982     20.48269     60.56113        19     1.508     1.184 -77.99   0
        47     39.1681    918.5588 299.9334818 +22.6555555     221.1025     72.65556      1.456     6.83     4.823972     20.48269     38.03377         8     1.247     1.049  21.22   0
        48    100.1067    913.7841 299.9539644 +22.6724867     1554.207      72.5261      1.620     3.53     5.970102     20.48269      175.777        25     1.277     1.122  86.39   0
        49    727.8931    910.2368 300.1504191 +22.8598597     317.3336     72.56311      1.144     3.54     3.500348     20.48269     45.97543         5     0.795     0.519  57.85   0
        50    971.7377    902.5809 300.2289148 +22.9307711      2065.79     72.58161      1.612     3.38     3.604597     20.48269       166.32        23     1.220     1.044  50.56   0
        51    631.3995    901.5616 300.1231886 +22.8284296     477.9767     72.60011      1.856     4.71     3.569022     20.48269     54.90178         9     1.211     0.694 -72.10   0
        52    925.9078    901.0610 300.2151185 +22.9165970     2179.203     72.67403      1.547     3.11     3.858039     20.48269     170.3528        27     1.281     1.105 -46.97   0
        53    402.2021    901.1810 300.0519782 +22.7595569     193.8043      72.5261      1.445     4.46     3.600392     20.48269     25.52342         5     0.772     0.733 -65.70   0
        54    709.3568    895.0235 300.1495958 +22.8499346     658.3467     72.65556      1.406     3.33     3.505517     20.48269     76.66998        14     1.028     0.917 -64.71   0
        55    132.0031    895.0632 299.9699659 +22.6766981     561.3784     72.58161      1.770     5.57     5.000107     20.48269     48.44754        12     1.241     0.911  40.75   0
        56    456.9063    893.7753 300.0714074 +22.7738478     232.9513     72.54461      1.183     4.62     3.685032     20.48269     33.72643         6     0.975     0.621 -24.65   0
        57    577.5724    889.0101 300.1105138 +22.8086821     4765.721     72.60011      1.401     2.53     3.704867     20.48269     598.8226        28     1.121     1.049 -81.26   0
        58     67.7979    889.7276 299.9517557 +22.6558905     388.7436     72.50758      1.197     2.96     4.858969     20.48269      61.5593         7     1.016     0.435  63.75   0
        59    379.7884    886.0731 300.0499222 +22.7484979     551.0463     72.61859      1.349     3.57     3.712378     20.48269     78.79221        12     1.063     0.835  21.12   0
        60    127.7610    883.0723 299.9725494 +22.6719875     1471.663     72.56311      1.643     3.20     4.603354     20.48269     131.8066        20     1.155     1.063  10.51   0
        61    598.2544    881.5056 300.1193948 +22.8127328     693.0066     72.65556      1.320     2.81     3.759788     20.48269     80.86536        14     0.949     0.882  49.37   0
        62    147.2495    880.0350 299.9795930 +22.6769679     514.7226     72.61859      1.762     4.08     4.440154     20.48269     50.55342         8     0.855     0.752  65.74   0
        63    514.8107    872.3402 300.0964018 +22.7850718     296.7849     72.56311      1.461     4.88     3.819819     20.48269     36.34441         7     1.005     0.670   2.69   0
        64    970.7883    868.8508 300.2395954 +22.9208005     1091.491     72.63708      1.561     3.41     3.608639     20.48269      97.5237        22     1.219     1.070 -27.29   0
        65    753.6159    868.6624 300.1719620 +22.8556408     4217.863     72.56311      1.454     2.68      3.65889     20.48269      463.951        30     1.155     1.111  66.41   0
        66   1008.5990    868.7262 300.2514285 +22.9320969     405.6884     72.48907      1.660     4.48     3.387368     20.48269      32.2252         7     1.035     0.552  32.04   0
        67    162.0979    863.0098 299.9897463 +22.6765452     652.5399     72.48907      1.675     3.68     3.969935     20.48269     57.44598        11     1.078     0.691  28.58   0
        68    470.6742    861.2519 300.0862742 +22.7686493     590.4322     72.61859      1.350     2.61     3.896922     20.48269     75.07142        12     0.894     0.828   0.58   0
        69    117.0656    859.4777 299.9769029 +22.6620132     1190.058      72.6925      1.713     3.14     3.968592     20.48269     109.8537        19     1.105     1.023 -55.01   0
        70    266.6342    851.4871 300.0259875 +22.7046204     53368.63     72.56311      1.537     2.78     3.902865     20.48269     5701.165       103     1.419     1.383  46.73   0
        71    532.2165    854.7051 300.1075573 +22.7852339     520.1356      72.5261      1.389     4.61     3.861829     20.48269     49.98079         8     0.907     0.666  12.80   0
        72    524.4669    850.2889 300.1065820 +22.7816421     1629.951     72.71097      1.361     2.46     3.880956     20.48269     195.8607        19     1.079     0.917  77.42   0
        73    937.1467    849.4660 300.2354124 +22.9051506     954.5081     72.63708      1.637     3.59      3.88272     20.48269     93.11108        16     1.105     0.993 -12.28   0
        74    195.1163    849.4415 300.0044219 +22.6825672     485.2778     72.56311      1.563     4.91     3.946343     20.48269     46.39859         9     0.920     0.786  88.80   0
        75    553.5173    846.3391 300.1169096 +22.7892231     849.6089      72.6925      1.380     3.36     3.879024     20.48269     109.9794        16     1.149     0.950 -40.04   0
        76    564.5810    844.8903 300.1208250 +22.7921261     524.7858      72.5261      1.345     2.99     3.892413     20.48269     65.82997        11     0.955     0.766  88.64   0
        77    884.5114    841.7874 300.2215003 +22.8871686     273.5275     72.54461      1.265     4.07     3.954282     20.48269     38.52517         8     0.985     0.729 -61.67   0
        78    669.8927    841.0029 300.1548814 +22.8225958     444.6361     72.50758      1.276     3.27     3.668764     20.48269     63.73491         8     0.834     0.656  49.33   0
        79    316.3641    828.6916 300.0488659 +22.7130081     31260.69     72.54461      1.455     2.62     3.906229     20.48269     3722.747        82     1.349     1.307 -86.04   0
        80    707.2672    831.4062 300.1696448 +22.8310490     744.7219     72.58161      1.381     2.80     3.761681     20.48269     85.26546        13     0.956     0.833 -64.69   0
        81    330.6107    829.2087 300.0531281 +22.7174317      1933.87     72.48907      1.413     2.55     3.912936     20.48269      239.464        20     1.102     0.958  71.91   0
        82    839.4185    824.3406 300.2131207 +22.8686418     2726.213     72.56311      1.438     2.52     4.039691     20.48269     277.0799        25     1.132     1.035 -71.73   0
        83    327.4452    823.2723 300.0540748 +22.7147792     638.3097     72.58161      1.653     3.32     3.916066     20.48269     78.79852         9     0.893     0.816 -43.86   0
        84    198.9128    820.4234 300.0150417 +22.6753870     624.0814     72.54461      1.395     3.32     3.926743     20.48269     85.13967        15     1.051     0.982  20.68   0
        85    597.4122    820.3738 300.1390223 +22.7949383     974.7613     72.60011      1.253     2.61     3.983905     20.48269     118.9576        14     0.989     0.786  65.98   0
        86    433.9200    820.3826 300.0881343 +22.7458982     491.6851     72.60011      1.163     2.01     3.867771     20.48269       69.198         7     0.667     0.641 -30.70   0
        87    444.5385    815.4803 300.0930328 +22.7476776     859.2932     72.67403      1.312     2.58     3.892662     20.48269     110.7512        13     0.978     0.761  73.71   0
        88      4.0405    815.8597 299.9559847 +22.6155754     424.4791     69.26907      1.439     3.62     4.949176     20.48269      62.1549         9     1.117     0.738 -36.05  16
        89    845.5136    812.2477 300.2189546 +22.8669967     401.2003     72.58161      1.304     3.38     4.089051     20.48269     66.90445        13     1.073     0.850 -46.34   0
        90    346.7301    811.5202 300.0638952 +22.7171955     321.9774     72.71097      1.240     4.90     3.938249     20.48269     37.53782         8     1.013     0.672  37.37   0
        91    390.3732    810.3286 300.0778575 +22.7299488      497.965     72.58161      1.454     3.02     3.882438     20.48269     55.16201         9     1.038     0.543  47.18   0
        92    302.1772    811.2335 300.0501335 +22.7037439     422.8989     72.61859      1.590     4.81     3.909137     20.48269     40.60836         7     0.832     0.800 -19.78   0
        93     32.1502    809.9412 299.9666396 +22.6223193     557.1689     72.65556      2.057     4.89     4.642794     20.48269      63.8222         8     1.006     0.675  25.92   0
        94    823.1356    806.9885 300.2136909 +22.8587784     422.0927     72.54461      1.613     4.51     4.110961     20.48269     34.02504         7     1.050     0.551 -29.99   0
        95    196.5164    804.6946 300.0194131 +22.6701578     601.6138     72.78479      1.585     3.48     3.918396     20.48269     70.74371        11     1.144     0.641  47.26   0
        96    520.0791    795.1671 300.1231483 +22.7645101     434.6852     72.58161      1.307     4.25     4.017789     20.48269     61.18582         9     1.152     0.673  55.87   0
        97    527.4092    794.4069 300.1256770 +22.7664906     71.18562     72.45202      0.243     3.97     4.026045     20.48269     42.28726         5     1.002     0.449  77.08   0
        98    489.1186    793.5104 300.1140514 +22.7547479      625.601     72.71097      1.400     3.59     4.013125     20.48269     83.52045        12     1.033     0.921  57.99   0
        99    398.8706    792.6230 300.0862601 +22.7274194     181.7243     72.61859      1.171     2.66     3.888336     20.48269     49.03043         6     0.713     0.623 -58.28   0
       100    753.9632    791.6360 300.1971300 +22.8336335      3448.74     72.67403      0.683     1.08     4.019286     20.48269     1562.717         8     0.589     0.426 -54.84   0
       101    511.3362    790.8327 300.1218370 +22.7606440     1537.608     72.60011      1.378     2.45     4.036922     20.48269     184.8235        17     1.013     0.874  73.23   0
       102    905.7996    789.6342 300.2451040 +22.8785730     4448.459     72.56311      1.415     2.64     4.150897     20.48269     503.8278        28     1.138     1.049 -81.22   0
       103    430.9915    790.0490 300.0970902 +22.7363175     443.4947     72.60011      1.491     3.34     3.904893     20.48269     40.31689         5     0.640     0.590  89.61   0
       104    592.8076    785.6130 300.1488961 +22.7835815     305.6668     72.48907      1.217     3.90     4.086984     20.48269     55.73005         7     0.982     0.568 -24.94   0
       105    894.2397    781.0652 300.2442874 +22.8726474     1651.255     72.56311      1.368     2.47      4.19361     20.48269     199.2089        19     1.007     0.971  74.21   0
       106    662.1249    780.7510 300.1720626 +22.8029728     314.1994     72.60011      1.348     3.40     3.987224     20.48269     41.60671         6     0.752     0.637  71.96   0
       107    257.2130    775.2900 300.0478443 +22.6799421     943.1956     72.54461      1.471     2.82     3.926027     20.48269     112.2006        14     1.005     0.868 -16.72   0
       108    720.7560    772.4784 300.1930160 +22.8181777     2668.091     72.58161      1.489     2.48     3.963453     20.48269     277.2622        28     1.426     0.978  10.70   0
       109    925.3224    771.1078 300.2572173 +22.8791032     1778.216     72.74789      1.442     2.83     4.108202     20.48269     171.5527        19     1.020     0.972 -68.09   0
       110    106.0176    759.2696 300.0060650 +22.6299693     588.8704     72.63708      1.438     3.48     4.040397     20.48269      73.7275        11     0.943     0.890 -80.84   0
       111    803.0464    758.1138 300.2233280 +22.8387229     468.4436     72.58161      1.337     3.23     4.325262     20.48269     63.17606        10     0.935     0.727  25.94   0
       112    386.1799    758.1609 300.0935209 +22.7137256     311.9497     72.63708      1.391     4.32     3.958536     20.48269     32.08457         5     0.762     0.697 -48.28   0
       113    839.0527    749.2830 300.2374219 +22.8469796     146975.1     72.63708      1.366     2.41     4.427193     20.48269     17948.46       167     1.421     1.343  88.21   0
       114    601.5563    753.0293 300.1622179 +22.7768534     286.4761     72.63708      1.045     3.09     4.202806     20.48269     52.39706         6     0.775     0.497  89.03   0
       115    986.1900    750.9478 300.2827557 +22.8915522      1165.97     72.60011      1.430     2.98     3.902725     20.48269     132.7812        19     1.111     0.962 -18.81   0
       116    691.6936    749.8734 300.1913150 +22.8029749     636.7072     72.72943      1.250     2.83     3.963453     20.48269     82.56712        10     0.864     0.753  27.14   0
       117    872.1718    741.8500 300.2501628 +22.8547713     314.8677     72.61859      1.109     2.61     4.466481     20.48269     59.06248         6     0.749     0.565   2.70   0
       118    525.3515    738.2131 300.1433130 +22.7497479     1577.129     72.61859      1.221     2.32     4.368034     20.48269     212.1833        17     0.970     0.872  83.56   0
       119    706.5292    735.5023 300.2006100 +22.8032970     9420.309     72.72943      1.246     2.19     3.966881     20.48269     1194.624        36     1.098     1.048 -76.15   0
       120    208.0344    730.7772 300.0470324 +22.6524180     4867.257     72.61859      1.381     2.56     3.932895     20.48269     580.7727        30     1.141     1.067  75.55   0
       121    290.0045    728.9396 300.0731129 +22.6764879     1069.484     72.56311      1.367     2.77     4.080246     20.48269     139.0809        14     1.055     0.811  73.76   0
       122    165.9536    726.5982 300.0353127 +22.6385909     445.8354     72.60011      1.251     2.70     3.987934     20.48269     65.66275         8     0.862     0.693 -34.76   0
       123    498.3733    724.3557 300.1394226 +22.7376799     753.3658     72.61859      1.267     2.51     4.397381     20.48269     106.3126        12     0.921     0.759 -40.39   0
       124    490.0087    716.4037 300.1394052 +22.7328892     3133.305     72.43348      1.233     2.29     4.448899     20.48269     466.6038        24     1.046     0.921  81.03   0
       125    551.3612    712.5612 300.1597508 +22.7501860       260.32     72.67403      1.508     4.28     4.540417     20.48269      24.1642         5     0.996     0.524  43.23   0
       126    480.1577    710.2627 300.1383364 +22.7281723     1374.256     72.60011      1.210     2.31     4.484749     20.48269     186.3205        13     0.894     0.807 -67.77   0
       127    408.8871    709.4223 300.1164339 +22.7065541     276.5367      72.5261      1.307     2.80     4.235333     20.48269     51.02353         8     0.864     0.656  51.57   0
       128    873.6555    708.0928 300.2616033 +22.8455206      388.478     72.65556      1.130     2.87     4.536396     20.48269     73.86891         8     0.963     0.532 -63.15   0
       129    675.6112    708.7646 300.1996743 +22.7863514      235.679     72.60011      1.215     3.08     3.977773     20.48269     32.76247         5     0.734     0.447  70.41   0
       130    143.4775    706.4999 300.0348632 +22.6260819     753.0341     72.72943      1.488     3.39     4.109107     20.48269     82.74002        12     1.041     0.777 -33.18   0
       131    157.7225    704.8475 300.0398270 +22.6298832     631.3593     72.60011      1.475     3.59     4.053663     20.48269     72.49774        10     0.908     0.874 -14.41   0
       132    927.1916    701.2740 300.2805116 +22.8596046     466.1783     72.56311      1.260     3.84     4.264438     20.48269     66.81336         8     1.039     0.512  59.07   0
       133    183.7317    701.8881 300.0488722 +22.6368398     562.9005     72.74789      1.454     3.12     4.017966     20.48269     65.96817        11     0.954     0.844  23.14   0
       134    404.9152    699.8972 300.1182953 +22.7026296     1722.498     72.76634      1.270     2.19     4.292345     20.48269     288.1765        18     0.925     0.911 -15.37   0
       135    504.1909    700.1976 300.1490886 +22.7324917     388.6008     72.41495      1.177     2.60     4.600068     20.48269     61.75832         8     0.776     0.670 -60.57   0
       136    438.6789    699.0842 300.1290642 +22.7125238     222.5706     72.72943      0.935     2.45     4.428607     20.48269     50.48074         7     0.715     0.641 -60.00   0
       137     58.9753    694.9957 300.0123503 +22.5974207     19474.33     72.56311      1.501     2.86      4.52158     20.48269     2056.165        61     1.349     1.284  75.87   0
       138    980.5685    697.0450 300.2985321 +22.8743828     716.8749     72.65556      1.297     3.55     3.989903     20.48269     97.94637        12     1.022     0.790  26.78   0
       139    490.0281    695.0775 300.1463456 +22.7267747     1122.742     72.60011      1.408     3.15     4.632445     20.48269     130.6522        16     1.030     0.989 -41.78   0
       140    525.2120    694.4361 300.1575046 +22.7371422     514.9823     72.58161      1.345     2.20     4.656444     20.48269     66.10911         6     0.763     0.492   6.23   0
       141    406.8850    691.9452 300.1214936 +22.7009388     218.9771     72.67403      1.152     3.69     4.361772     20.48269     38.80473         5     0.643     0.609  -8.58   0
       142    243.0597    687.0000 300.0721538 +22.6503723     354.9082     72.54461      1.402     3.66     4.116778     20.48269     41.73481         5     1.333     0.289   0.00   0
       143    573.4227    682.7024 300.1763273 +22.7482310     246.4947      72.5261      1.105     3.44     4.584375     20.48269     34.27586         5     0.757     0.452 -70.77   0
       144    907.9858    681.1347 300.2810718 +22.8480646       1020.3     72.58161      1.342     2.62     4.453013     20.48269     127.3302        17     1.014     0.942 -52.98   0
       145      4.9147    679.1970 300.0006959 +22.5766636     1489.992     71.65079      1.928     4.85     4.711829     20.48269     104.3315        26     1.582     1.085  83.54  16
       146     71.5727    679.6487 300.0212527 +22.5968014     337.1997     72.61859      1.175     4.61     4.509294     20.48269      44.0659         8     0.971     0.622  74.06   0
       147    774.9481    679.0303 300.2402892 +22.8075911     447.0195     72.63708      1.117     4.40     4.351111     20.48269     62.77435         7     1.235     0.446 -41.31   0
       148    453.3292    675.9059 300.1411585 +22.7102664     435.0192     72.71097      1.220     2.84     4.688176     20.48269     62.81271         9     0.831     0.757  30.09   0
       149    848.2535    673.9327 300.2647924 +22.8280966     799.4051     72.61859      1.472     3.29     4.563763     20.48269     97.24371        15     1.102     0.945  74.30   2
       150    844.4726    673.4566 300.2637687 +22.8268268     418.1556     72.63708      1.457     4.06     4.547451     20.48269     43.14775         6     0.749     0.705  33.44   3
       151    592.4681    672.8884 300.1854477 +22.7511243     127.5026     72.74789      1.004     2.99     4.526796     20.48269     46.15216         6     0.728     0.627  40.49   0
       152    311.9675    673.2482 300.0980496 +22.6671013     178.5693     72.63708      1.240     4.87     4.439342     20.48269     29.06637         5     0.904     0.743  -4.98   0
       153    409.9714    668.0519 300.1302218 +22.6950084      727.028     72.61859      1.222     2.08     4.545781     20.48269     124.0588        11     0.911     0.669  87.57   0
       154    558.1683    666.5414 300.1768326 +22.7390180      562.455     72.61859      1.459     2.75     4.711628     20.48269     75.54552         9     0.971     0.623  77.91   0
       155    605.2539    665.0926 300.1919632 +22.7527198     421.7419     72.65556      1.166     2.54     4.481555     20.48269      73.1931         8     0.793     0.656 -36.91   0
       156    575.7357    664.7921 300.1828704 +22.7437832     571.6965     72.58161      1.165     2.40     4.624315     20.48269     95.26994        11     0.873     0.764  42.50   0
       157    454.2004    663.8643 300.1453444 +22.7070719     1036.627     72.58161      1.287     2.33     4.743831     20.48269     148.6307        11     0.841     0.779  70.08   0
       158    888.0200    659.3544 300.2819285 +22.8358254     3271.759     72.65556      1.310     2.33     4.525888     20.48269     434.4007        27     1.113     0.992  83.45   0
       159    419.7777    659.3180 300.1361120 +22.6954433     1581.086     72.56311      1.193     2.16     4.625511     20.48269     260.2127        17     0.962     0.827  61.69   0
       160    985.9429    657.1630 300.3131757 +22.8645345     758.0941     72.60011      1.439     3.05     4.124302     20.48269     91.41607        13     0.959     0.894  16.12   0
       161    784.7106    656.5441 300.2506420 +22.8040592     220.0454     72.63708      1.081     3.98     4.375533     20.48269     39.65738         5     0.936     0.491   5.89   0
       162    395.0464    654.7998 300.1298868 +22.6867291     344.8326     72.58161      1.411     3.77     4.531441     20.48269     55.95379         5     0.771     0.646   7.40   0
       163    449.1102    650.3392 300.1481573 +22.7016638     279.6954      72.6925      1.055     2.49     4.763779     20.48269     68.71122         5     0.746     0.417  21.17   0
       164    927.4527    649.1943 300.2975262 +22.8447216     274.4283     72.56311      1.140     2.52     4.418638     20.48269     47.00069         5     0.709     0.457  68.57   0
       165    283.1410    646.2177 300.0978731 +22.6506986     9055.776     72.56311      1.301     2.28     4.570398     20.48269     1208.591        39     1.116     1.095 -20.73   0
       166    405.6513    643.2115 300.1369530 +22.6865844     8998.855     72.61859      1.257     2.16     4.630145     20.48269     1320.096        41     1.143     1.054 -67.88   0
       167    651.8329    639.4312 300.2148104 +22.7593166     261.5229     72.61859      1.117     2.59     4.315884     20.48269      54.2009         5     0.883     0.362  83.58   0
       168    170.8584    640.4099 300.0648571 +22.6153444     430.1725     72.56311      1.370     2.30     4.374441     20.48269     39.75443         5     0.707     0.446 -22.23   0
       169   1010.2102    638.3054 300.3268755 +22.8663856     961.2449     72.54461      1.294     2.65     4.193099     20.48269     116.1479        16     0.992     0.903  68.56   0
       170    817.3245    637.1018 300.2671264 +22.8082491     1939.153     72.72943      1.279     2.17     4.422017     20.48269     255.2596        19     0.998     0.899  49.56   0
       171    901.9589    634.3671 300.2943975 +22.8328236     12232.43     72.65556      1.308     2.28     4.451031     20.48269     1582.397        45     1.168     1.102 -73.04   0
       172    466.2040    632.7661 300.1591888 +22.7017465     11409.79     72.60011      1.237     2.13     4.868284     20.48269     1768.694        40     1.103     1.025  73.53   0
       173    635.8021    628.5773 300.2133462 +22.7513945     505.5534     72.54461      1.117     2.46     4.447576     20.48269     73.92294         8     0.808     0.630  47.58   0
       174    193.6791    628.3397 300.0758730 +22.6187296     1527.109     72.65556      1.416     2.78     4.469553     20.48269     187.7675        18     1.041     0.934 -79.48   0
       175    351.4623    627.4761 300.1252115 +22.6658158     287.4727     72.65556      1.161     4.00     4.550421     20.48269     49.60457         6     1.082     0.424  45.02   0
       176    440.2849    625.7574 300.1534019 +22.6919622      383.128     72.56311      1.283     4.57     4.803988     20.48269     53.68949         7     1.027     0.577  67.05   0
       177    397.8527    620.9550 300.1417613 +22.6778583     4401.921     72.61859      1.278     2.18     4.702617     20.48269     698.4517        24     1.049     0.942  57.12   0
       178    740.6467    620.8839 300.2485047 +22.7806115     802.8696     72.58161      1.291     2.58     4.396486     20.48269     124.9187        12     0.907     0.818   8.00   0
       179    376.1531    619.3698 300.1355263 +22.6708953      1249.42     72.61859      1.226     2.49     4.659874     20.48269     176.2925        15     1.025     0.784  75.67   0
       180    130.5596    618.7695 300.0593679 +22.5970452      667.322     72.60011      1.278     2.69     4.513917     20.48269     127.1611        11     0.902     0.826  34.63   0
       181    817.6953    616.2686 300.2740141 +22.8023761     1623.228     72.72943      1.366     2.73     4.416684     20.48269     181.3993        20     1.083     0.970 -33.55   0
       182    514.4897    608.4841 300.1821088 +22.7092556     199513.2     72.74789      1.187     2.07      4.86877     20.48269     27326.24       211     1.410     1.383 -46.41   0
       183    337.9362    614.3442 300.1252730 +22.6579905     337.0692     72.65556      1.252     3.38      4.64186     20.48269     47.76899         8     0.921     0.708 -82.48   0
       184    698.1912    613.2862 300.2377482 +22.7657049     784.9326      72.5261      1.164     2.27     4.386242     20.48269     138.8573        14     0.919     0.819 -21.95   0
       185    200.5533    608.5666 300.0844362 +22.6151200     3625.389     72.63708      1.342     2.34     4.644102     20.48269     462.1177        28     1.086     1.048  17.87   0
       186    766.6085    604.4851 300.2619241 +22.7836823     562.3785     72.54461      1.119     2.14     4.406649     20.48269     72.37448         5     0.648     0.479  19.13   0
       187    545.9656    595.2784 300.1961984 +22.7149018     185.1478     72.54461      1.148     4.21     4.745193     20.48269     36.98831         7     0.736     0.688 -44.70   0
       188    405.1319    589.1227 300.1543717 +22.6709057     2714.707     72.71097      1.323     2.19      4.79821     20.48269     454.3078        25     1.398     0.875 -83.84   0
       189    249.6046    591.2794 300.1053023 +22.6248762     417.5046     72.50758      1.168     3.36     4.648604     20.48269     62.69807         8     0.963     0.636 -57.37   0
       190    855.2015    588.5671 300.2947083 +22.8056566     237.3542     72.56311      1.104     3.44     4.471358     20.48269     38.04988         5     0.778     0.439 -20.96   0
       191    816.7534    584.9827 300.2838894 +22.7931067     389.4827     72.63708      1.203     3.46     4.421181     20.48269     46.71129         9     0.967     0.640  63.11   0
       192    834.4247    580.5018 300.2908535 +22.7971144     239.5246      72.5261      1.033     3.70     4.454478     20.48269     32.65803         6     0.951     0.415  19.04   0
       193    722.4420    577.3358 300.2569872 +22.7626484     508.4634     72.58161      1.422     2.57     4.362456     20.48269      59.6608         7     0.880     0.473 -78.31   0
       194    802.1938    574.8569 300.2826428 +22.7858353     1645.661     72.56311      1.223     2.05     4.389612     20.48269     288.6108        16     0.952     0.828  62.63   0
       195    673.2172    572.5055 300.2432234 +22.7465083     2527.761      72.5261      1.172     1.99      4.20682     20.48269     411.1829        20     0.947     0.913 -85.56   0
       196     33.0543    572.9538 300.0439659 +22.5546454     299.4657     72.63708      1.291     3.76     4.558937     20.48269     47.36997         7     1.048     0.544   0.18   0
       197    917.6139    569.9344 300.3202217 +22.8190014     601.9614     72.56311      1.312     1.82     4.465923     20.48269     91.03933         7     0.670     0.615  59.34   0
       198    882.7925    569.4238 300.3095311 +22.8084230     289.7474     72.60011      0.981     2.33     4.525494     20.48269      49.8147         5     0.684     0.476 -15.71   0
       199    577.8600    569.0598 300.2146485 +22.7169359     379.1154     72.67403      1.166     2.23     4.641679     20.48269     73.23341         8     0.768     0.640 -63.39   0
       200    460.5946    568.5861 300.1783024 +22.6816426     675.4127     72.47054      1.086     2.19     4.921549     20.48269     117.5436         9     0.842     0.598  80.27   0
       201    930.5765    566.4568 300.3253937 +22.8218852     1253.444     72.60011      1.214     2.13     4.452108     20.48269     164.2469        13     0.858     0.801 -44.34   0
       202    916.1366    565.4882 300.3212060 +22.8172813     670.3255     72.71097      1.260     2.43     4.476204     20.48269     92.91621        10     0.814     0.761  34.86   0
       203    802.4042    565.3478 300.2857987 +22.7831667     1962.342     72.60011      1.168     2.08     4.382357     20.48269     273.2562        19     0.956     0.909  87.40   2
       204    801.3574    561.6415 300.2866769 +22.7817884      555.341     72.71098      1.624     3.63     4.377006     20.48269     49.72404         8     0.935     0.627  55.51   3
       205    555.6879    563.0652 300.2096938 +22.7085679     725.6327      72.6925      1.362     2.46     4.663287     20.48269     94.84067         9     0.822     0.705 -76.24   2
       206    555.3997    559.0249 300.2109171 +22.7073215     378.4806     72.54461      1.227     2.33     4.656807     20.48269     69.93114         7     0.788     0.570 -67.20   3
       207    341.5529    562.9971 300.1430849 +22.6443404     270.0364     72.58161      1.023     1.91      4.84396     20.48269     62.69571         6     0.720     0.493  83.05   0
       208    394.1488    561.8788 300.1598084 +22.6597928     368.0504     72.60011      1.197     2.98     4.846899     20.48269     60.83751         8     0.778     0.696  47.77   0
       209    840.4708    559.9918 300.2994035 +22.7930336     4168.078     72.58161      1.224     2.06      4.50448     20.48269     618.0776        25     0.992     0.950 -72.15   0
       210    449.6148    558.2883 300.1782322 +22.6753944     1575.951     72.54461      0.758     0.96     4.898881     20.48269     663.5328         8     0.569     0.489   6.25   0
       211    578.4607    556.5508 300.2189005 +22.7135242     295.6558     72.65556      1.019     3.70     4.622189     20.48269     43.77011         6     0.939     0.419  18.58   0
       212    501.0823    555.9508 300.1950085 +22.6901547     264.5008     72.60011      1.084     3.21     4.873576     20.48269     61.51924         7     0.966     0.525  57.09   0
       213    932.4196    550.4551 300.3311687 +22.8178391     817.5699     72.58161      1.270     2.40     4.465606     20.48269     108.5904        11     0.889     0.740  50.30   0
       214     72.4375    550.6742 300.0634386 +22.5600737     990.5991     72.54461      1.495     2.55     4.460562     20.48269     137.5714        15     0.951     0.910   1.97   0
       215    702.3823    547.9019 300.2603034 +22.7481829     266.1558      72.5261      1.012     3.42     4.221241     20.48269     36.83479         5     0.766     0.441 -70.95   0
       216    733.3535    544.1519 300.2711705 +22.7563870     410.7745     72.61859      1.269     2.72     4.385294     20.48269     51.90454         7     0.812     0.611  16.14   0
       217     65.0640    541.0026 300.0642905 +22.5550872     422.4073     72.60011      1.380     4.37      4.44901     20.48269     44.33094         7     1.067     0.535 -40.62   0
       218    928.7705    539.5178 300.3335850 +22.8136031     383.3101     72.61859      1.457     3.35     4.473871     20.48269     52.90858         5     0.775     0.419 -24.65   0
       219    672.7336    534.7268 300.2553493 +22.7355134     484.9881     72.63708      1.059     1.92     4.094941     20.48269     79.71654         6     0.674     0.541  46.04   0
       220    561.4706    532.3115 300.2214873 +22.7014712      449.582     72.76634      1.353     3.34     4.622241     20.48269     46.73338         7     0.846     0.637 -15.17   0
       221    614.0554    530.4747 300.2384567 +22.7167057     768.4114     72.61859      1.246     2.24     4.531782     20.48269     123.2542        13     0.924     0.802 -59.95   0
       222   1021.3734    528.2430 300.3661299 +22.8380981     879.7382     67.79989      1.238     2.59     4.463584     20.48269     140.4683        14     0.956     0.823  51.35  16
       223    928.6669    522.6843 300.3390226 +22.8087346     566.3207     72.71098      1.149     3.22     4.487933     20.48269     78.47289         8     0.878     0.668 -87.88   0
       224    674.8785    522.6702 300.2599349 +22.7326934      822.126     72.71097      1.269     2.56     4.154818     20.48269     119.9403        14     0.944     0.813  -4.33   0
       225    831.8859    519.1084 300.3100127 +22.7787154     924.4501     72.76634      1.273     2.24     4.555459     20.48269     156.1232        17     1.059     0.970 -83.53   0
       226    790.3527    516.4114 300.2979447 +22.7654972     345.7784     72.61859      1.523     3.86     4.492619     20.48269     44.77894         6     0.858     0.528 -47.53   0
       227    816.0872    515.0901 300.3063942 +22.7728277     708.9407     72.76634      1.351     2.08     4.527635     20.48269     107.0825         9     0.769     0.672 -57.97   0
       228    796.6835    515.4015 300.3002458 +22.7671038     304.3651     72.50758      1.046     2.22     4.494516     20.48269     56.77469         6     0.758     0.511  47.17   0
       229    560.4665    513.3144 300.2273471 +22.6957152     3185.517      72.6925      1.183     2.10      4.62339     20.48269     423.8354        20     0.984     0.871  60.96   0
       230    920.8274    511.9491 300.3400662 +22.8033013      330.085     72.61859      1.218     3.17     4.514921     20.48269     60.21736         8     0.887     0.628 -85.62   0
       231     36.4288    504.7745 300.0671654 +22.5361038     380.3755     72.60011      1.634     3.06     4.445597     20.48269     49.36206         5     0.818     0.560  36.50   0
       232    400.5446    500.2696 300.1818157 +22.6440264     271.7531     72.61859      1.078     2.66     4.868869     20.48269     65.58177         6     0.814     0.490  48.79   0
       233    332.1827    500.6326 300.1604334 +22.6236317     299.7701     72.58161      1.282     2.71     4.821229     20.48269     48.84283         5     0.723     0.450 -17.71   0
       234    971.6708    492.3084 300.3623028 +22.8128845     1260.837     72.74789      1.188     2.32      4.48412     20.48269     180.8691        15     0.918     0.867 -31.85   0
       235    930.2178    491.0506 300.3497843 +22.8001080     933.3221     72.60011      1.268     2.21     4.513703     20.48269      148.293        12     0.874     0.780 -82.54   0
       236    843.7000    492.0118 300.3224988 +22.7744689      491.163     72.50758      1.262     2.48     4.624548     20.48269      87.2831         9     0.912     0.590  42.95   0
       237    670.9661    487.3094 300.2702047 +22.7213643     998.7136     72.58161      1.128     2.02     4.300469     20.48269     185.8003        13     0.854     0.779  79.09   0
       238    466.8677    488.0089 300.2064350 +22.6603911      285.787     72.60011      1.139     2.07     4.874474     20.48269      74.4003         8     0.752     0.621  60.57   0
       239    174.8716    485.6271 300.1163996 +22.5721448     661.9448     72.58161      1.417     3.45     4.454144     20.48269     91.78045        13     1.093     0.811  79.74   0
       240    237.4785    481.2788 300.1372727 +22.5896755     3665.121     72.72943      1.286     2.27     4.679451     20.48269     438.6662        26     1.058     1.002  68.37   0
       241    970.4649    479.5410 300.3660745 +22.8088537     4315.958     72.63708      1.257     2.14      4.48858     20.48269     567.2595        30     1.118     1.018  79.32   0
       242    184.6367    476.2522 300.1224799 +22.5723839     7500.071     72.61859      1.303     2.22     4.488942     20.48269     1037.359        41     1.246     1.058  63.94   0
       243    950.4630    470.6172 300.3627357 +22.8002985     1787.184     72.58161      1.199     2.08     4.504383     20.48269     265.3437        17     0.953     0.897  61.26   0
       244    325.3893    470.2559 300.1681884 +22.6128757     4682.437     72.60011      1.226     2.20     4.726435     20.48269     605.5607        29     1.078     1.009  61.04   0
       245    569.6292    466.9432 300.2452641 +22.6851451     18232.95     72.60011      1.191     1.97     4.583255     20.48269     3091.487        51     1.119     1.037  76.21   0
       246    417.0805    468.8153 300.1971782 +22.6399545     302.2169     72.58161      1.428     2.94     4.829153     20.48269     45.38535         5     0.862     0.663  25.60   0
       247    587.1066    466.9651 300.2506985 +22.6903895     880.5153     72.56311      1.857     6.33     4.555182     20.48269     79.74469        16     1.652     0.680 -50.12   0
       248    969.1334    466.6886 300.3698345 +22.8047606     326.8121     72.71097      1.060     1.89     4.487135     20.48269     52.90653         5     0.706     0.422 -19.62   0
       249    813.3547    463.1438 300.3224188 +22.7570835     210.7657     72.63708      1.055     3.50     4.563093     20.48269     38.95203         5     0.788     0.450  75.39   0
       250    766.6664    457.2886 300.3097711 +22.7414144     451.4171     72.71098      1.178     1.95     4.524267     20.48269     62.21167         5     0.662     0.463 -79.06   0
       251    189.5749    454.7604 300.1309955 +22.5676980     354.0568     72.63708      1.344     5.23     4.457426     20.48269      45.5249         8     1.160     0.737  63.52   0
       252    903.1890    449.1806 300.3549583 +22.7799791     701.7366     72.56311      1.244     3.17     4.558477     20.48269     112.0183        13     1.140     0.781 -65.93   0
       253    439.9568    449.0026 300.2107314 +22.6411243      420.487     72.61859      1.259     2.73     4.766828     20.48269     54.37141         8     0.812     0.642  38.48   0
       254    124.3642    447.1307 300.1132077 +22.5459488     2126.208     72.60011      1.368     2.40     4.260412     20.48269     274.9885        23     1.112     1.014  72.76   0
       255    510.2369    436.3968 300.2366974 +22.6585715     6446.002     72.63708      1.171     1.99     4.664052     20.48269     965.4595        29     1.054     0.903  80.17   0
       256    923.8001    436.5773 300.3654787 +22.7825294     1131.468      72.5261      1.231     2.30     4.528698     20.48269     184.2304        16     0.936     0.883 -40.01   0
       257    225.0382    435.7794 300.1481836 +22.5728870     705.5574     72.61859      1.330     3.03     4.524701     20.48269     86.43623        11     0.935     0.787  81.16   0
       258     82.5417    429.1677 300.1060472 +22.5282493     502.7944     72.61859      1.532     2.97     4.229433     20.48269     62.40474        10     0.920     0.766  21.92   0
       259    770.0514    428.1554 300.3202887 +22.7340576     447.1945     72.63708      1.559     2.34     4.383172     20.48269     54.56196         7     0.818     0.524  49.78   0
       260    624.0998    426.4929 300.2753634 +22.6898510     511.5399     72.76634      1.323     2.37     4.363324     20.48269     85.59353        11     0.908     0.760 -43.38   0
       261    714.3559    425.1816 300.3039015 +22.7165177     1109.966     72.61859      1.204     2.16     4.357855     20.48269     159.2509        15     0.985     0.785  69.50   0
       262   1001.5382    424.1521 300.3937586 +22.8022364     212.2628     72.63708      1.119     3.38     4.444076     20.48269     44.61251         5     0.971     0.347  -5.74   0
       263    416.8710    422.6725 300.2121000 +22.6266437     5956.063     72.67403      1.226     2.05     4.685804     20.48269     1021.288        30     1.076     0.936  72.33   0
       264    808.8015    417.1161 300.3359500 +22.7424931     1348.503     72.50758      1.195     1.85     4.349608     20.48269     267.1225        12     0.890     0.730 -71.91   0
       265    906.3293    417.0736 300.3663659 +22.7716913     690.2759     72.67403      1.268     2.46     4.543802     20.48269     99.26034         9     0.792     0.730 -30.59   0
       266    401.5126    411.3133 300.2110107 +22.6187781     558.8585     72.72943      1.326     2.01     4.604156     20.48269      74.2686         5     0.646     0.487 -74.44   0
       267    484.3528    408.9203 300.2375648 +22.6429227     502.0803     72.61859      1.368     2.80     4.638224     20.48269     64.98622         9     0.821     0.755 -14.24   0
       268    464.7049    407.0209 300.2320671 +22.6364881     224.6216     72.50758      1.409     4.40     4.636055     20.48269     40.14359         6     0.885     0.622 -51.91   0
       269    781.5684    404.4294 300.3315832 +22.7306899     577.7468     72.60011      1.062     2.37     4.324669     20.48269     82.06411         9     0.831     0.686 -63.83   0
       270    304.5280    401.9912 300.1838716 +22.5870252     2528.648     72.58161      1.272     2.22     4.421291     20.48269     368.4469        22     1.041     0.943  62.92   0
       271     22.7117    399.5587 300.0970770 +22.5018062     1017.104     72.60011      1.601     3.70     4.519987     20.48269      124.694        18     1.249     1.008  79.20   0
       272    652.0057    396.6970 300.2937307 +22.6896533     289.4301     72.50758      1.262     3.24     4.330207     20.48269     46.04688         5     1.046     0.533  89.47   0
       273    273.7657    391.4337 300.1777341 +22.5747708      29414.4     72.67403      1.252     2.18     4.395016     20.48269     4171.864        65     1.217     1.120  61.67   0
       274    808.4929    388.6623 300.3450945 +22.7342236     1282.984     72.71098      1.133     2.00     4.337808     20.48269     218.2012        17     0.945     0.884  36.76   0
       275    723.9153    377.6100 300.3223287 +22.7057129     566.1595     72.56311      1.254     2.93     4.340701     20.48269     85.25299         9     0.867     0.753  34.43   0
       276    148.0430    377.6533 300.1431276 +22.5331143     420.1735     72.61859      1.324     2.63     4.269115     20.48269     61.18891         9     0.882     0.657  53.16   0
       277    372.2681    376.8104 300.2131170 +22.6001047     469.3794     72.60011      1.321     2.69     4.407751     20.48269     70.77876         9     0.883     0.648  34.37   0
       278    684.2253    370.9460 300.3121283 +22.6919080     1901.788     72.61859      1.207     1.91     4.332045     20.48269      359.104        20     0.978     0.870  71.83   0
       279    492.2574    365.3678 300.2541674 +22.6327840     302.3596     72.61859      1.186     3.48     4.498433     20.48269     61.78673         6     0.795     0.545  50.49   0
       280    899.1910    363.8051 300.3814391 +22.7542417     655.0989     72.45202      1.206     2.28     4.279251     20.48269     108.0912        12     0.906     0.774  52.49   0
       281    346.0171    355.8614 300.2117534 +22.5862203      2180.45     72.56311      1.374     2.63     4.285247     20.48269     308.6412        23     1.256     0.890  58.60   0
       282    558.0161    354.4002 300.2781978 +22.6493400     307.6009     72.48907      1.176     3.07     4.412989     20.48269     54.04908         9     0.963     0.615 -57.22   0
       283    777.6465    349.4883 300.3482017 +22.7137262      312.678     72.58161      1.045     3.36      4.32575     20.48269     43.94325         7     0.921     0.540  59.02   0
       284    785.1440    348.3663 300.3509024 +22.7156494     560.8818     72.61859      1.043     2.01     4.322438     20.48269     100.2477         9     0.788     0.647 -69.37   0
       285    684.5941    346.2460 300.3202630 +22.6849214     209.8192     72.60011      0.994     2.25      4.33726     20.48269     45.32943         5     0.667     0.483 -78.84   0
       286    667.2199    346.0291 300.3149217 +22.6796542     391.6532     72.60011      1.124     2.63     4.337239     20.48269     60.72664         8     0.801     0.649  45.35   0
       287    635.5342    345.3029 300.3052889 +22.6699529     290.7249     72.71098      1.080     2.75     4.345745     20.48269     54.19321         7     0.822     0.629 -18.03   0
       288    136.4264    336.2589 300.1529567 +22.5177506     149.8714     72.60011      1.426     4.40     4.321178     20.48269     32.09966         5     0.917     0.600 -41.23   0
       289    421.7915    335.0077 300.2420963 +22.6029455     1108.658     72.45202      1.178     2.10     4.460661     20.48269     206.0204        12     0.829     0.775   9.15   0
       290    933.0347    330.9653 300.4026546 +22.7549345     278.2443     72.67403      1.046     3.69      4.04798     20.48269     41.66043         5     0.630     0.622   6.89   0
       291    666.5905    326.9129 300.3209319 +22.6739729     2278.442      72.5261      1.209     2.02     4.341167     20.48269     383.6465        24     1.071     0.941 -83.12   0
       292    805.1464    328.0662 300.3637270 +22.7158055     282.6956     72.63708      0.980     1.97     4.314224     20.48269     60.31834         5     0.723     0.474 -34.73   0
       293    927.9183    321.0932 300.4042642 +22.7505643     3126.281     72.74789      1.238     2.07      4.05287     20.48269     515.2327        26     1.083     0.920  70.86   0
       294    473.7856    319.8169 300.2632071 +22.6141653     338.2045     72.54461      2.047     4.69     4.449966     20.48269     38.75102         6     1.070     0.583  35.56   0
       295    988.9893    315.5132 300.4251220 +22.7672436     390.2111     72.54461      1.319     2.97      4.04798     20.48269     69.50265         9     0.916     0.672  64.18   0
       296    375.1297    311.0091 300.2353699 +22.5820679     689.3334     72.58161      1.327     2.62     4.347087     20.48269     109.2219        13     1.002     0.900  32.56   0
       297    997.2831    308.8719 300.4298650 +22.7678167     1627.445     72.72943      1.323     2.64      4.04798     20.48269     207.6307        18     1.090     0.873 -78.99   0
       298     80.4990    305.0152 300.1457212 +22.4920114     557.8204     72.50758      1.534     4.20     4.539955     20.48269     78.08228        13     1.080     0.921  46.71   0
       299     49.8938    305.0562 300.1362001 +22.4828443     1337.044     72.65556      1.554     3.06     4.678885     20.48269      146.509        19     1.139     1.018 -28.84   0
       300    943.7033    301.4243 300.4155719 +22.7496350     504.0304     72.50758      1.118     2.41      4.04798     20.48269     69.89783         9     0.850     0.637  69.06   0
       301    787.2004    298.1979 300.3678304 +22.7018459     407.5704     72.37786      1.372     1.76     4.311761     20.48269     66.79196         6     0.694     0.513  46.54   0
       302    133.6437    297.0854 300.1648078 +22.5056728     474.5833     72.58161      1.346     4.28     4.420103     20.48269     53.03477        10     1.022     0.821 -79.71   0
       303    928.8704    294.0055 300.4133548 +22.7430612      287.993     72.56311      1.181     2.50      4.04798     20.48269      57.5736         8     0.803     0.641 -46.18   0
       304    809.9783    290.1785 300.3775324 +22.7063620     384.2484     72.60011      1.126     2.32     4.300949     20.48269     66.95884         7     0.799     0.546 -44.95   0
       305    738.1552    288.0785 300.3558325 +22.6842489     621.8625     72.60011      1.131     2.12     4.344587     20.48269     105.3762         9     0.745     0.706  42.74   0
       306    328.6599    287.8988 300.2284171 +22.5615026      278.296      72.6925      1.040     3.39     4.298419     20.48269     59.22351         5     0.757     0.439  73.30   0
       307    828.9427    281.4334 300.3862820 +22.7095270      278.058     72.61859      0.994     1.71     4.315581     20.48269      67.0374         6     0.687     0.492   7.31   0
       308    836.4408    277.2599 300.3899738 +22.7105724     2150.768     72.60011      1.156     2.06     4.323138     20.48269     315.6977        17     0.919     0.823  78.14   0
       309    254.9474    274.8278 300.2097373 +22.5356531     2110.385     72.61859      1.302     2.28     4.359997     20.48269     321.4542        20     1.032     0.879  89.08   0
       310    332.6446    269.8483 300.2355150 +22.5575136     1085.586     72.63708      1.474     2.91     4.383681     20.48269     136.8397        16     1.019     0.938 -78.39   0
       311     84.1818    270.1545 300.1581797 +22.4831109     327.1483     72.63708      1.474     2.52     4.653539     20.48269     43.17368         6     0.730     0.556  43.72   0
       312    734.7194    268.9492 300.3609711 +22.6777218     625.7649     72.61859      1.137     2.26     4.369774     20.48269      100.724         7     0.727     0.610  76.10   0
       313    841.4819    265.6750 300.3953054 +22.7087514     339.4109     72.71098      1.014     3.69      4.34392     20.48269     54.67276         6     0.922     0.425 -71.29   0
       314    149.7172    262.0653 300.1811689 +22.5004403     704.7729     72.71097      1.236     2.96     4.620292     20.48269     87.16183        10     0.948     0.678  76.07   0
       315    267.4141    261.2882 300.2180078 +22.5355028     410.4234     72.54461      1.082     2.28     4.426312     20.48269     54.27334         5     0.700     0.442  66.43   0
       316      1.9947    260.0426 300.1359316 +22.4555610     262.2067     60.20658      1.503     4.50     4.899399     20.48269     32.88942         6     1.386     0.415  44.19  24
       317    687.4632    258.6981 300.3495762 +22.6606222     1675.245      72.6925      1.132     2.21     4.438815     20.48269     243.6424        17     0.933     0.841  79.27   0
       318    752.4297    258.2538 300.3699607 +22.6799515     593.1041     72.60011      1.119     3.02     4.376238     20.48269      95.7375         9     0.927     0.687  77.65   0
       319    171.1792    255.3397 300.1900217 +22.5049445     509.4262     72.54461      1.350     2.53     4.640581     20.48269     72.32922         8     0.818     0.657  19.68   0
       320    959.1146    251.1108 300.4367095 +22.7397808     864.2388     72.74789      1.236     2.26     4.525119     20.48269     144.0486        11     0.830     0.807  68.45   0
       321    460.7611    251.1333 300.2814473 +22.5905335     389.6217     72.56311      1.300     2.13     4.578592     20.48269     65.29744         6     0.708     0.594  18.86   0
       322    691.5931    250.1710 300.3536302 +22.6594085     792.4409     72.60011      1.182     2.09     4.459637     20.48269     109.5877        11     0.838     0.704  -8.56   0
       323    612.0857    249.6460 300.3290374 +22.6354428     1189.659     72.58161      1.188     1.85     4.508398     20.48269     214.7601        14     0.868     0.820  13.84   0
       324    433.3690    245.6613 300.2746992 +22.5807535     335.6553     72.63708      1.096     3.27     4.593907     20.48269     50.10922         6     0.874     0.478 -84.60   0
       325    538.2624    241.2852 300.3087656 +22.6109250     891.0706     72.72943      1.125     2.34     4.470696     20.48269     149.7283        12     0.966     0.712 -89.03   0
       326    807.5125    240.8913 300.3927612 +22.6914550      1441.63     72.76634      1.193     1.96      4.39115     20.48269     222.9649        14     0.841     0.808  84.23   0
       327    819.6546    239.8875 300.3968713 +22.6948021     859.2216     72.61859      1.290     3.17     4.393039     20.48269     115.9102        12     0.942     0.844 -51.67   0
       328    865.9969    238.9765 300.4116126 +22.7084153      227.889     72.54461      1.217     2.53     4.397151     20.48269     39.32051         5     0.625     0.579 -89.92   0
       329    980.3800    230.7930 300.4499360 +22.7403030     1515.052     72.56311      1.264     2.29     4.888753     20.48269     233.6105        17     1.083     0.803 -81.55   0
       330    936.2105    230.0366 300.4364062 +22.7268643      1097.62     72.60011      1.238     2.24     4.663453     20.48269     184.8303        14     0.984     0.768  84.71   0
       331    170.2299    223.6030 300.2000253 +22.4955487     596.2186     72.56311      1.248     2.50     4.888458     20.48269      109.617        11     0.953     0.681  82.17   0
       332     32.2679    218.4586 300.1588281 +22.4527058     2193.814     72.63708      1.452     2.55     4.915568     20.48269     238.5051        23     1.115     1.009  86.85   0
       333    855.2054    215.1866 300.4159688 +22.6983442     799.4206     72.47054      1.262     2.46     4.463754     20.48269     106.3133        12     0.984     0.673  74.27   0
       334    189.5941    211.6646 300.2099177 +22.4979263     5444.197     72.56311      1.340     2.39      4.81686     20.48269     782.3507        34     1.239     1.007  67.92   0
       335    171.4111    212.2919 300.2040625 +22.4926554     288.8209     72.54461      1.349     4.30     4.899042     20.48269     30.25342         6     1.115     0.473  36.09   0
       336    172.8079    202.4277 300.2076972 +22.4902421     612.0327     72.60011      1.331     2.90     4.905017     20.48269     86.15016        12     0.971     0.819 -89.56   0
       337    988.4213    198.8839 300.4627990 +22.7335323     18063.11     72.54461      1.297     2.26     5.087742     20.48269     2659.949        49     1.205     1.066 -82.51   0
       338    833.6715    192.9800 300.4164621 +22.6855122     3591.569     72.63708      1.249     2.14     4.576262     20.48269     543.5133        26     1.053     0.963 -88.49   0
       339    937.2942    191.7143 300.4491798 +22.7161677     2752.487     72.78479      1.242     2.15     4.896206     20.48269     445.8625        22     1.124     0.883  79.46   0
       340    382.8666    188.4239 300.2775591 +22.5491789     778.8859     72.58161      1.485     2.48     4.721071     20.48269     92.33746        11     0.910     0.746  45.94   0
       341    136.2087    188.8060 300.2007421 +22.4753592     365.7117     72.45202      1.440     2.52     4.936537     20.48269     53.84125         6     0.747     0.529 -52.05   0
       342    497.4875    186.1512 300.3139635 +22.5828682     289.1212     72.60011      1.297     3.13     4.813929     20.48269     41.40761         6     0.773     0.500 -88.48   0
       343    307.0920    179.9743 300.2567312 +22.5240444     793.7723     72.54461      1.296     3.12     4.638577     20.48269     82.29582        10     0.969     0.671  73.70   0
       344     73.1341    177.3359 300.1848648 +22.4531559     648.2619     72.65556      1.435     3.01     5.128354     20.48269     75.23767        12     0.956     0.827 -49.08   0
       345    434.4358    175.6627 300.2977442 +22.5609647     1732.187     72.60011      1.248     2.08     4.878742     20.48269     230.6777        19     1.063     0.853 -73.87   0
       346    362.3570    176.1233 300.2751697 +22.5394998      575.481     72.58161      1.346     2.47     4.675303     20.48269     70.45031         9     0.812     0.700 -19.36   0
       347    496.0664    174.6425 300.3172551 +22.5791358      417.004     72.58161      1.474     2.81     4.867133     20.48269     60.17529         7     0.929     0.585 -89.04   0
       348    258.2366    171.2670 300.2443639 +22.5069016     239.3423     72.60011      1.195     3.83     4.760758     20.48269     35.34359         5     0.871     0.483  45.82   0
       349    177.8094    171.0081 300.2194453 +22.4827202     378.1165     72.47054      1.256     3.99     4.943779     20.48269     55.31998         7     0.925     0.644  77.79   0
       350    722.9226    165.0656 300.3910061 +22.6443276     365.8864      72.6925      1.209     3.09     4.770775     20.48269     60.61773         7     0.880     0.586  71.80   0
       351    307.6982    160.8280 300.2631311 +22.5187269     279.0586     72.54461      1.153     1.84       4.6562     20.48269     59.52613         5     0.703     0.422  71.19   0
       352    613.4671    159.5296 300.3587085 +22.6099584     261.3109     72.63708      1.480     3.80     4.815631     20.48269     31.50234         6     1.009     0.411  72.13   0
       353    998.6998    156.2346 300.4798430 +22.7243406     3597.796     72.58161      1.313     2.26     5.215227     20.48269     474.5679        30     1.379     1.013 -29.17   0
       354    208.5274    155.6366 300.2339802 +22.4875139      5888.31     72.54461      1.351     2.32     4.943837     20.48269     770.9252        36     1.208     1.059  58.10   0
       355    715.1807    155.7643 300.3916116 +22.6393355     238.9384     72.61859      1.065     2.71     4.792417     20.48269      63.6506         6     1.005     0.419   4.25   0
       356     59.7976    155.1459 300.1879199 +22.4427872     720.4516     72.56311      1.364     2.46     5.371002     20.48269     85.69185         8     0.738     0.692  44.85   0
       357    837.6202    152.7918 300.4307318 +22.6751384     443.2881     72.56311      1.271     2.62     4.733515     20.48269     62.31717         6     0.823     0.476 -49.37   0
       358    180.1081    149.2908 300.2272047 +22.4771733     444.3317     72.76634      1.380     3.77     4.959914     20.48269     48.15738         7     0.939     0.627   7.70   0
       359    224.0952    146.8839 300.2416590 +22.4896665     352.3302     72.78479      1.245     2.37     4.935051     20.48269     64.02652         6     0.865     0.429  51.18   0
       360    454.6013    140.8834 300.3153019 +22.5570138     6059.581     72.48907      1.260     2.11     4.936815     20.48269     891.3616        33     1.167     0.970  58.89   0
       361    340.0728    140.6256 300.2797537 +22.5226255     710.7229     72.61859      1.347     2.94     4.680527     20.48269      93.3042        11     0.930     0.789 -66.76   0
       362    511.6288    135.4154 300.3348246 +22.5725257      214.126     72.61859      1.178     3.84     4.910792     20.48269     52.05798         8     1.011     0.654  36.57   0
       363    475.0778    135.1174 300.3235448 +22.5614911     286.1302      72.6925      1.370     3.50     4.929081     20.48269     37.29217         6     0.762     0.565  45.75   0
       364    706.8307    131.1411 300.3969980 +22.6297565     947.7424     72.61859      1.784     4.71      4.79729     20.48269      105.032        17     1.694     0.701 -71.36   0
       365    648.6108    131.8154 300.3786439 +22.6125170     297.4538     72.54461      1.034     1.70     4.810445     20.48269     63.36601         5     0.664     0.443  65.73   0
       366    799.7776    129.2133 300.4265856 +22.6570297     492.9153     72.58161      1.302     4.11     4.791738     20.48269     65.31329        10     1.182     0.664  28.90   0
       367    108.2799    126.3861 300.2123117 +22.4490653     258.8869     72.58161      1.404     3.12     4.971298     20.48269      44.9226         5     0.821     0.606 -51.91   0
       368    147.4679    124.8001 300.2250040 +22.4603570     521.1084     72.54461      1.339     2.62     4.968847     20.48269     69.71918         9     0.921     0.658 -63.13   0
       369    582.9293    120.9007 300.3617302 +22.5897098      6198.14     72.74789      1.281     2.05     4.852427     20.48269     1039.482        31     1.112     0.957  71.17   0
       370    506.0067    123.2334 300.3370261 +22.5673409     449.8976     72.60011      1.330     2.32     4.909181     20.48269     70.77075         8     0.808     0.599  47.08   0
       371    357.6861    119.9286 300.2919457 +22.5219575     1478.118     72.71097      1.327     2.44     4.694666     20.48269     226.1477        19     1.078     0.888  69.27   0
       372    624.1521    118.2177 300.3754371 +22.6012839     913.9943     72.63708      1.227     2.32     4.821345     20.48269     126.0101        12     0.869     0.762  47.88   0
       373    693.9199    116.4340 300.3977465 +22.6216625     464.4848     72.54461      2.004     4.43     4.803675     20.48269     55.18719         7     1.224     0.565 -86.57   0
       374    639.9957    114.3578 300.3816234 +22.6049188     808.1822     72.61859      1.614     3.09     4.818379     20.48269     106.6336        11     1.028     0.665  86.34   0
       375    106.6939    112.4197 300.2163487 +22.4445799      692.406      72.5261      1.387     2.61     4.971116     20.48269     93.04847        12     0.916     0.808 -81.36   0
       376    910.1528    111.5718 300.4667162 +22.6849940     522.1109     72.61859      1.253     2.94     4.974327     20.48269     77.55326        11     0.949     0.779  50.40   0
       377    949.1589    111.0842 300.4790380 +22.6965272     285.6109     72.56311      1.049     2.45     5.119782     20.48269     51.98803         6     0.838     0.470  56.53   0
       378    678.2576    109.6321 300.3950738 +22.6150173      572.415     72.61859      1.187     2.37     4.810301     20.48269     82.45528         7     0.777     0.565  21.78   0
       379    627.1179    105.6654 300.3804321 +22.5985638     2637.089     72.71097      1.210     2.09      4.82355     20.48269     479.2172        23     1.026     0.891  75.15   0
       380    642.3907    104.4959 300.3855680 +22.6028011     897.7516      72.5261      1.820     5.33      4.82085     20.48269     91.71535        15     1.487     0.818  53.88   0
       381    268.0206    106.4916 300.2684174 +22.4912298     433.8203      72.5261      1.334     1.90     4.907462     20.48269     70.73503         7     0.700     0.651  29.60   0
       382    713.6335     97.1938 300.4101285 +22.6220332     1531.764     72.60011      1.303     2.60     4.800819     20.48269     213.4577        18     1.051     0.885  87.98   0
       383    651.5348     90.3582 300.3930014 +22.6014748     725.5608     72.58161      1.192     2.45     4.824534     20.48269     90.60358        12     0.959     0.685  77.58   0
       384    457.0768     89.9288 300.3325994 +22.5431138       1133.2     72.71097      1.359     1.97     4.922202     20.48269     180.6418        15     1.029     0.820 -83.88   0
       385     30.1705     90.0789 300.1998201 +22.4152253     443.6454     72.60011      1.372     4.30     5.710557     20.48269     55.45831        11     1.298     0.703 -35.10   0
       386    360.9938     88.0647 300.3033090 +22.5137943     779.3229     72.56311      1.246     2.67     4.761747     20.48269     113.9743        11     0.934     0.718  77.69   0
       387   1003.9570     84.7308 300.5046773 +22.7053432     2282.356     72.56311      1.267     2.27     5.305308     20.48269     367.7643        20     0.968     0.956  71.12   0
       388    743.3642     86.2454 300.4229425 +22.6277860     437.1958     72.63708      1.230     3.04     4.789371     20.48269     67.05966         7     0.893     0.595 -42.75   0
       389    263.5686     79.0325 300.2759383 +22.4820084      313.265     72.61859      1.574     5.54     4.953532     20.48269     36.60765         7     0.987     0.875  82.75   0
       390    132.4452     78.1555 300.2354628 +22.4424599     3756.148     72.63708      1.412     2.44     4.940817     20.48269     404.9231        29     1.208     1.028  49.38   0
       391    700.4771     78.3892 300.4121285 +22.6126875     649.5677     72.60011      1.228     2.95     4.806718     20.48269     85.99907         9     0.966     0.656  63.70   0
       392    554.8447     75.0581 300.3678541 +22.5681226     462.3245     72.63708      1.404     2.39     4.868484     20.48269     55.57409         6     0.851     0.448  57.48   0
       393    693.9355     70.2286 300.4127372 +22.6083827     873.1027     72.60011      1.315     2.80      4.81027     20.48269      117.257        15     1.086     0.819 -89.52   0
       394    248.4164     70.2038 300.2740900 +22.4749319     1334.754      72.5261      1.307     2.59     4.951235     20.48269     147.6845        16     1.022     0.838  63.34   0
       395    731.7388     65.3803 300.4260870 +22.6183060     833.8963     72.54461      1.646     3.79     4.787842     20.48269     94.23367        13     1.361     0.669  54.46   0
       396    474.7736     67.3916 300.3454157 +22.5419380     238.9708     72.60011      1.292     4.29     4.910576     20.48269     30.24759         5     0.930     0.565  50.49   0
       397    654.9563     65.0439 300.4022767 +22.5952216     424.5782     72.67403      1.188     1.82      4.83511     20.48269      85.1452         5     0.598     0.542  88.27   0
       398    751.5184     61.4699 300.4335182 +22.6231027     2178.615     72.71098      1.242     2.37     4.783992     20.48269     295.3948        21     1.078     0.904  67.99   0
       399    457.2278     60.2503 300.3422710 +22.5346303     405.7754     72.61859      1.172     2.24      4.93934     20.48269     88.97153         7     0.853     0.524  71.06   0
       400    134.7355     56.9488 300.2430511 +22.4370565     1138.556     72.65556      1.599     3.35     4.910554     20.48269       111.52        18     1.145     0.986  75.25   0
       401    926.4884     54.7880 300.4902265 +22.6735484     621.1782     72.54461      1.292     2.72     5.127168     20.48269     106.0647        13     0.963     0.831 -41.09   0
       402    700.0653     54.0922 300.4198796 +22.6055781     838.8829     72.71097      1.245     2.45     4.807187     20.48269     129.6316        12     0.900     0.778 -77.83   0
       403    407.1794     52.3205 300.3292688 +22.5173600     423.1885     72.60011      1.308     1.53     5.001096     20.48269     66.46623         5     0.661     0.425  22.29   0
       404    122.2340     52.1674 300.2407165 +22.4319364     165.2554     72.67403      1.286     3.70     4.903832     20.48269     36.49934         5     0.934     0.421  43.36   0
       405    457.4523     46.7376 300.3467225 +22.5308142      327.938     72.65556      1.265     3.74     4.946766     20.48269     55.90445         6     0.901     0.504  45.03   0
       406    150.6338     47.1849 300.2511579 +22.4390172     289.6159     72.58161      1.448     3.10     4.895866     20.48269     32.44851         5     0.741     0.443 -71.32   0
       407    284.8871     44.1665 300.2938733 +22.4783804     271.3389     72.56311      1.302     3.49     5.023813     20.48269     55.16173         8     0.999     0.634  32.46   0
       408    552.3657     39.0865 300.3787470 +22.5570404     793.6914     72.56311      1.156     2.96     4.841793     20.48269      115.171         9     0.881     0.678  23.91   0
       409    161.7088     36.4627 300.2580764 +22.4392569     527.7569      72.6925      1.567     4.19     4.881221     20.48269     76.88432        10     1.143     0.674  74.80   0
       410    715.6181     33.5235 300.4313946 +22.6043196     717.3322     72.60011      1.314     3.38     4.794866     20.48269     90.50478        11     1.087     0.651  83.28   0
       411    346.2557     34.3544 300.3161411 +22.4939472      235.396     72.63708      1.263     4.34     5.037809     20.48269     47.09751         5     0.772     0.693  36.37   0
       412    524.1055     32.0717 300.3722237 +22.5465612     1914.197     72.71097      1.311     2.38     4.852535     20.48269     255.4788        20     1.050     0.890  63.23   0
       413    247.0885     29.4688 300.2868854 +22.4628327      617.244     72.76634      1.300     3.06     4.976052     20.48269     92.49258        12     0.967     0.828 -69.69   0
       414    481.4881     26.0415 300.3609135 +22.5320648     1274.298     72.60011      1.251     2.30     4.902321     20.48269     177.0351        16     1.012     0.829  85.47   0
       415    587.0462     22.7459 300.3948432 +22.5627277     1401.587     72.63708      1.276     2.39      4.88126     20.48269     217.8286        18     1.055     0.932 -83.68   0
       416    182.2303     21.2609 300.2693836 +22.4410404     576.9843     72.63708      1.563     3.51     4.883899     20.48269     70.45042        11     1.007     0.870 -24.73   0
       417    231.1142     19.4385 300.2851708 +22.4551649     396.8538     72.58161      1.305     2.99     4.946896     20.48269     67.54682         9     0.949     0.720 -51.36   0
       418    927.3450     18.8050 300.5021615 +22.6634527     256.8961     72.60011      1.358     2.54     5.199354     20.48269     39.33134         5     0.730     0.438 -71.49   0
       419    493.3612   1021.9705 300.0410243 +22.8215541     412.2348     65.29837      1.760     3.21     2.991878     20.48269     41.24124         6     0.797     0.646  53.33  16
       420    521.9330   1018.7880 300.0509524 +22.8292158     1458.355     72.60011      1.554     3.49     2.972853     20.48269     122.5635        18     1.083     1.011  16.44  16
       421    699.3155   1015.6302 300.1072096 +22.8815308      309.959     72.61859      1.264     4.55     3.499958     20.48269     34.54683         7     1.039     0.567  63.68   0
       422    415.8279   1015.2296 300.0190951 +22.7963511     972.7269     72.58161      1.628     4.23     3.356351     20.48269     78.37218        17     1.145     1.020  73.09   0
       423    346.4361   1013.3381 299.9981272 +22.7749794     6487.364     72.61859      1.704     3.22       3.4356     20.48269     619.0914        43     1.350     1.340 -85.94   0
       424     40.1055    983.3489 299.9126868 +22.6744017     2735.755     72.67403      6.688    28.78     25.73957     20.48269     62.58074       210     8.762     2.625 -18.23  19
