#   1 NUMBER                 Running object number                                     
#   2 X_IMAGE                Object position along x                                    [pixel]
#   3 Y_IMAGE                Object position along y                                    [pixel]
#   4 ALPHA_J2000            Right ascension of barycenter (J2000)                      [deg]
#   5 DELTA_J2000            Declination of barycenter (J2000)                          [deg]
#   6 FLUX_APER              Flux vector within fixed circular aperture(s)              [count]
#   7 FLUXERR_APER           RMS error vector for aperture flux(es)                     [count]
#   8 FLUX_RADIUS            Fraction-of-light radii                                    [pixel]
#   9 FWHM_IMAGE             FWHM assuming a gaussian core                              [pixel]
#  10 BACKGROUND             Background at centroid position                            [count]
#  11 THRESHOLD              Detection threshold above background                       [count]
#  12 FLUX_MAX               Peak flux above background                                 [count]
#  13 ISOAREA_IMAGE          Isophotal area above Analysis threshold                    [pixel**2]
#  14 A_IMAGE                Profile RMS along major axis                               [pixel]
#  15 B_IMAGE                Profile RMS along minor axis                               [pixel]
#  16 THETA_IMAGE            Position angle (CCW/x)                                     [deg]
#  17 FLAGS                  Extraction flags                                          
         1    839.6675     20.1408 300.4259701 +22.6182471     702.3706     72.69127      1.621     4.24     5.063993     20.49797     73.11226        13     1.247     0.735  74.17   0
         2    859.7911     16.2926 300.4334896 +22.6231613      2273.12     72.58021      1.389     2.60     4.828272     20.49797     305.7248        24     1.197     1.025  70.71   0
         3    565.4418     14.9255 300.3422423 +22.5346703     622.0714     72.63576      1.348     2.79     5.176684     20.49797     74.63862        10     0.956     0.686  71.60   0
         4    242.9219     11.5892 300.2429922 +22.4371230     1007.826     72.63576      1.510     3.59     5.638311     20.49797     116.8912        15     1.211     0.806  42.12   8
         5    808.2576      8.9416 300.4198109 +22.6056267     821.3577     72.72826      1.296     2.90      5.48038     20.49797     112.2103        12     0.968     0.780 -56.39   0
         6    566.2570      1.4309 300.3468695 +22.5310345     271.1077     57.18311      1.110     3.09     5.258053     20.49797      39.0941         5     0.712     0.481  13.07  24
         7    803.2385   1016.3055 300.0910675 +22.8935703     778.8526     72.63576      1.964     6.92     2.732317     20.49797     41.79325        17     1.284     1.047 -47.10  16
         8    616.4299   1020.4044 300.0315530 +22.8387175     2236.753     71.00707      1.865     4.28     2.699877     20.49797     142.8282        33     1.440     1.341  25.11  24
         9    269.1873   1015.4893 299.9251331 +22.7331046     5284.953     72.59872      8.501    22.67     49.94473     20.49797      99.2098       345     5.714     5.086  67.39  19
        10    288.3228   1014.9555 299.9312551 +22.7386958     6182.761     72.63576      9.208    29.95     45.29168     20.49797      121.754       566     6.957     6.204 -18.08  27
        11    307.7646   1003.3921 299.9410622 +22.7412166     8535.361     72.65427      9.562    31.92     29.99802     20.49797     177.4125       794    10.909     4.936  63.11  19
        12    235.7170   1004.9296 299.9181663 +22.7200300     2144.094     72.78369      6.421    19.81     52.87215     20.49797     55.41872       106     4.920     2.217  79.58  19
        13    144.3817   1017.5947 299.8856640 +22.6962380     4459.915     72.61725     10.775    37.19     49.50235     20.49797     92.43671       476     8.418     4.683   3.08  27
        14    144.7344    982.6612 299.8971412 +22.6863321     4517.173     72.69127     26.605    85.59     32.74054     20.49797     101.7642      3358    20.050    14.590 -40.18  27
        15    601.6087    976.0488 300.0413740 +22.8215465     516.6279     72.67277      2.170     5.14     3.048497     20.49797     48.43324         7     1.239     0.602  11.83   2
        16    312.9545    977.5442 299.9510868 +22.7353636     260.2577     72.69127      1.359     6.42     20.11262     20.49797     89.92151        12     1.434     0.807  -2.15   0
        17    629.5764    973.4152 300.0509378 +22.8291800     1583.119     72.65427      1.797     4.32     3.024869     20.49797     105.9736        24     1.258     1.204  52.41   0
        18    146.9246    944.5935 299.9102072 +22.6760787     3752.054     72.58021     20.720    48.80     13.87545     20.49797     148.3578       823    10.322     6.403 -38.21   3
        19    523.4012    969.8684 300.0190434 +22.7963122     1002.947     72.61725      1.802     5.50     3.065562     20.49797     75.53874        18     1.265     1.146  -3.97   0
        20    454.1266    967.9399 299.9981165 +22.7749745     6350.681     72.69127      1.779     3.78     3.349002     20.49797     505.3398        41     1.415     1.323 -43.78   0
        21    487.0802    954.4301 300.0127648 +22.7809869     612.8915     72.65427      2.073     5.97     3.242309     20.49797     40.13178        11     1.364     0.736  48.47   0
        22    928.3758    952.0456 300.1509801 +22.9126414     365.8254     72.67277      2.451     4.53     3.403241     20.49797     39.44708         6     0.926     0.630  52.19   0
        23      1.4840    951.4376 299.8628100 +22.6343697     914.2894     57.39433      1.223     3.59     3.327889     20.49797     135.5974        10     1.123     0.574 -84.09  24
        24   1000.4785    946.6155 300.1752283 +22.9326932     2197.194     72.67277      2.067     4.96     3.019547     20.49797     110.0575        33     1.511     1.389  55.18   0
        25    214.1328    985.3372 299.9178339 +22.7079342     1560.808     72.70976      5.072    13.63     44.62555     20.49797     47.78797        39     2.446     2.113  54.02   0
        26    788.9168    935.2706 300.1129756 +22.8660174     799.9106     72.78369      2.679     7.49     3.142218     20.49797     51.82231        15     1.701     1.033  53.31   0
        27    823.7684    929.7513 300.1256305 +22.8748821     943.0948     72.69127      1.832     4.56     3.315161     20.49797      64.7215        19     1.211     1.088   2.74   0
        28    601.4590    930.4246 300.0561724 +22.8084114     361.8294     72.65427      1.645     6.03     3.426034     20.49797     29.42745         9     1.120     0.913  26.75   0
        29    194.5216    981.4647 299.9129997 +22.7009367     1542.464     72.74673      8.092    12.28     41.88153     20.49797     36.80585        32     2.375     1.767 -38.56   3
        30     34.0557    927.0603 299.8808538 +22.6371652     592.8074     72.72825      1.635     5.70     3.415684     20.49797     51.81673         9     1.143     0.801 -87.30   0
        31    199.0802    985.5534 299.9130858 +22.7034772     1283.936     72.65427      5.398     9.95      44.9393     20.49797     42.10841        19     2.129     1.297 -89.68   3
        32    891.5345    922.6024 300.1490759 +22.8931445     463.7811     72.67277      1.863     3.49     3.643978     20.49797     46.17024         8     1.065     0.700  41.78   2
        33    846.3721    923.3904 300.1347438 +22.8798325     11096.95     72.65427      1.805     4.02     3.532977     20.49797     725.3189        54     1.500     1.386 -61.12   0
        34    158.6548    915.3675 299.9233592 +22.6712226     1370.504     72.67277      5.480     6.97     5.539409     20.49797     57.98919        14     1.844     0.739  61.98   2
        35    551.3762    911.1557 300.0468520 +22.7878607     364.0388     72.69127      1.543     4.89     3.370669     20.49797     37.62345         9     0.962     0.704 -29.88   0
        36    566.6913   1004.7410 300.0211680 +22.8193029     512.7239     72.72826      2.080     5.58     2.829479     20.49797     30.72208         8     1.066     0.823  37.61   0
        37    854.7943    905.4812 300.1431951 +22.8772156     1319.598     72.58021      1.744     3.93     3.778851     20.49797     106.1987        23     1.228     1.187  18.09   0
        38    148.9417    906.4022 299.9232577 +22.6657368     827.8893     72.61725      4.474     5.40     5.247315     20.49797      53.7046         8     1.390     0.592  35.41   2
        39    707.2385    902.8284 300.0980873 +22.8322151     456.1292     72.69127      1.820     5.59     3.219809     20.49797     42.76069        11     1.056     0.834  63.64   0
        40    893.0338    899.0267 300.1572132 +22.8868248     832.0449     72.67277      1.956     7.14     3.877066     20.49797     57.97139        20     1.699     0.932  70.49   0
        41     51.2144   1001.3871 299.8620000 +22.6636166     738.2564     72.58021      5.619     7.51     4.076811     20.49797     48.84956        14     1.576     1.001  41.54   0
        42   1001.5125    895.9304 300.1920415 +22.9184472      355.321     72.80216      1.534     6.62     3.453595     20.49797     32.12401        10     1.455     0.845  23.06   0
        43    274.0599    895.6869 299.9656261 +22.7002193      429.177     72.74673      3.314     3.87     6.586241     20.49797     30.09841         5     1.508     0.284 -40.44   0
        44    941.5824    890.3140 300.1751819 +22.8988740      412.052     72.59872      1.686     5.70     3.884317     20.49797      43.9666         9     0.991     0.925  -4.92   0
        45    792.9279    889.3373 300.1291689 +22.8540345     779.4797     72.69127      1.780     4.37      3.76375     20.49797     59.14039        14     1.074     1.000  85.08   0
        46     52.9609    888.1945 299.8993667 +22.6317028     252.2843     72.67277      1.418     3.83     3.674178     20.49797     27.79026         5     0.838     0.502 -56.57   0
        47    505.3655    885.5773 300.0408539 +22.7667206       4158.3     72.67277      1.676     3.60     3.488238     20.49797     366.7829        35     1.294     1.253  20.56   0
        48    804.1348    886.1521 300.1336968 +22.8564798     598.6669     72.69127      1.525     4.11     3.873054     20.49797     56.56815         9     0.912     0.734  17.01   0
        49    284.3235    874.5609 299.9756882 +22.6972414     447.9598     72.63576      1.885     3.35     4.961149     20.49797     35.40818         5     1.002     0.325  69.21   0
        50    995.7220    999.3228 300.1565927 +22.9464023     844.4476     72.76522      2.155     8.38     2.792433     20.49797     45.32721        20     1.540     1.275  46.14   0
        51    549.1169    873.9884 300.0582390 +22.7765189     284.9579     72.61725      1.355     3.68     3.567596     20.49797     38.61158         5     0.982     0.397 -27.91   0
        52    230.5499    871.0597 299.9601122 +22.6800995     728.7404     72.70976      2.017     6.28     6.034189     20.49797     55.65648        12     1.153     0.961  26.57   0
        53    207.7689    868.2898 299.9539331 +22.6724681     1748.448     72.59872      1.914     4.17     5.524649     20.49797     121.7608        27     1.338     1.274  48.09   0
        54    139.1827    869.7794 299.9321376 +22.6523086     444.6898     72.63576      1.742     4.80     4.771131     20.49797     37.36124         7     0.871     0.750  41.32   0
        55     83.6370    858.4717 299.9185606 +22.6323929     304.3473     72.63576      1.701     3.88     4.076708     20.49797     30.57692         6     0.900     0.480 -88.38   0
        56    737.8312    855.7946 300.1229154 +22.8278874     408.9174     72.65427      1.624     3.66     3.528606     20.49797     29.61969         5     1.180     0.327 -80.77   0
        57    510.1193    855.0127 300.0522745 +22.7593773     261.7748     72.63576      1.459     5.94     3.596858     20.49797     26.37061         6     1.405     0.708 -20.54   0
        58    817.2812    849.8658 300.1495961 +22.8500029     524.5756     72.76522      1.436     4.66     4.212447     20.49797      65.1462        14     1.192     0.989  57.26   0
        59    240.0397    849.9707 299.9699203 +22.6769003       453.08     72.65427      1.583     3.97     4.881398     20.49797     48.01986        11     1.099     0.703 -25.98   0
        60    685.4120    843.7083 300.1105200 +22.8087016     4703.403     72.59872      1.571     3.12      3.48766     20.49797     473.0844        35     1.262     1.192  34.71   0
        61    175.2738    844.8268 299.9514660 +22.6559877     351.0674     72.65427      1.547     3.99     4.793859     20.49797     42.09054         6     0.952     0.478 -54.01   0
        62    487.3463    840.6951 300.0498448 +22.7484386     557.3904     72.72826      1.549     5.99     3.634056     20.49797     56.86881        12     1.048     0.964  54.00   0
        63    705.8063    836.4622 300.1192281 +22.8127363     665.9076     72.63576      1.364     4.02     3.521886     20.49797     63.41081        13     1.081     0.836 -79.42   0
        64    235.6014    837.3618 299.9726414 +22.6719527     1369.111     72.67277      1.675     3.75      4.74939     20.49797     139.9062        22     1.234     1.159  83.71   0
        65    255.0961    834.8877 299.9795052 +22.6770934     479.6182     72.83909      1.648     4.84     4.614193     20.49797     57.48531         9     1.395     0.681  -7.55   0
        66    622.0328    826.7399 300.0963035 +22.7848272     279.4621     72.69127      1.465     3.75     3.632712     20.49797     51.33394         5     0.904     0.712  60.66   0
        67    861.4136    823.4634 300.1719361 +22.8556498     4167.758     72.61725      1.692     3.53     4.274107     20.49797     310.7272        34     1.288     1.252  43.76   0
        68    269.9322    817.8997 299.9896411 +22.6766735     504.4375     72.74673      1.957     6.11     4.433076     20.49797      38.3399        10     1.182     0.889  -7.28   0
        69    578.4807    815.8705 300.0862801 +22.7686477      517.911     72.76522      1.326     3.11     3.728673     20.49797     76.95694        11     0.981     0.802 -65.23   0
        70    224.8242    813.8461 299.9769385 +22.6619750      1120.01     72.67277      1.700     3.97      4.46556     20.49797     93.89362        20     1.291     1.038  29.74   0
        71    374.4332    806.0118 300.0259989 +22.7046172     53002.95     72.63576      1.580     2.97     4.214373     20.49797     5729.803        97     1.422     1.403  41.86   0
        72    640.0365    809.0587 300.1076588 +22.7851507     602.3915     72.67277      1.511     2.61     3.635714     20.49797      60.2604         9     0.764     0.757  33.85   0
        73    632.4197    805.1723 300.1065510 +22.7817514     1613.372     72.65427      1.495     2.93     3.654055     20.49797      162.937        21     1.101     1.031 -34.31   0
        74    302.6645    804.4623 300.0041863 +22.6826409     350.4115     72.69127      1.343     3.53     4.333391     20.49797      52.3855         8     1.019     0.638 -38.86   0
        75    348.2601    804.0045 300.0185123 +22.6961894     296.4997     72.61725      1.674     2.87     4.206273     20.49797     35.21671         5     0.787     0.483  28.14   0
        76    661.2715    801.1113 300.1168552 +22.7892364     908.9622     72.82063      1.467     3.20     3.629752     20.49797     87.55408        13     0.944     0.878 -31.99   0
        77     27.7309    800.7949 299.9199531 +22.5990767     796.2576     72.61725      1.813     5.19     3.960258     20.49797     63.72832        14     1.345     0.915  33.79   0
        78     60.8408    800.8080 299.9302311 +22.6090196     769.0683     72.67277      2.026     5.36     3.960258     20.49797     68.93269        14     1.246     0.920  -7.41   0
        79    672.2701    799.2499 300.1208854 +22.7919997     468.1728     72.65427      1.593     4.10     3.625207     20.49797     56.16347        11     1.089     0.894  33.83   0
        80    777.7636    795.6829 300.1549042 +22.8226004     489.7247     72.63576      1.614     4.37     3.987247     20.49797     45.19312         8     0.963     0.801  24.73   0
        81    572.2481    793.1401 300.0917314 +22.7602552     269.7293     72.70976      1.359     2.94     3.827139     20.49797     44.55887         6     0.729     0.597  43.75   0
        82    424.1479    783.2755 300.0488545 +22.7130075     31092.01     72.67277      1.528     2.90     4.287906     20.49797     2960.344        76     1.361     1.340  63.92   0
        83    815.3054    786.0353 300.1697385 +22.8310826      792.358     72.65427      1.518     3.85     4.235662     20.49797     68.48772        12     1.075     0.774  27.67   0
        84    438.4713    783.8026 300.0531389 +22.7174551      1922.88     72.59872      1.573     2.84      4.20666     20.49797     218.4519        22     1.144     1.050 -42.40   0
        85    947.2953    779.0906 300.2131369 +22.8686420     2681.985     72.83909      1.658     3.51     4.316579     20.49797     223.1501        30     1.265     1.241  81.94   0
        86    435.2692    777.6225 300.0541521 +22.7147214     692.3771     72.67277      1.813     3.60     4.239306     20.49797     76.21223        14     1.121     0.985  77.78   0
        87    705.3179    775.1806 300.1390037 +22.7949975     1021.799     72.63576      1.527     3.50     3.701501     20.49797      116.888        17     1.051     1.049 -35.56   0
        88    541.4329    775.4643 300.0878873 +22.7459416     483.0543     72.65427      1.587     4.26     4.024232     20.49797     49.29468        11     1.072     0.850  29.49   0
        89    306.7474    775.0231 300.0150273 +22.6754217     756.1428     72.67277      1.410     3.34     4.346198     20.49797     90.56264        14     1.033     0.925  -3.14   0
        90    111.7725    770.9052 299.9557726 +22.6157338     535.1849     72.56168      1.686     3.59     4.026651     20.49797     48.89619         9     0.979     0.773 -60.92   0
        91    552.2248    769.9932 300.0930250 +22.7476076      832.006     72.65427      1.529     3.45       4.0356     20.49797     75.84672        11     0.884     0.828  54.18   0
        92    473.3983    770.1243 300.0684523 +22.7240058     146.7113     72.56168      1.309     4.24     4.093849     20.49797     32.06124         5     0.982     0.523 -41.76   0
        93    953.6178    767.1810 300.2189805 +22.8671154        590.8     72.65427      1.649     4.29     4.374245     20.49797     45.35541        13     1.080     0.910  23.82   0
        94    453.8094    766.5676 300.0635140 +22.7171102     316.9624     72.63576      1.475     6.44     4.190108     20.49797     45.28683         9     1.392     0.837 -65.07   0
        95    410.1069    765.4305 300.0502887 +22.7036759      393.985     72.58021      1.374     3.18     4.337979     20.49797     42.36458         7     0.866     0.577  81.85   0
        96    497.6353    765.1266 300.0776185 +22.7298405     420.7097     72.61725      1.316     4.36     4.093479     20.49797     53.95472         7     0.936     0.579   2.96   0
        97    140.0012    764.3852 299.9666618 +22.6223362     628.7802     72.50607      1.729     4.85     4.146962     20.49797     44.75755         9     0.983     0.678  76.35   0
        98    706.5747    764.2371 300.1429533 +22.7922323     331.8842     72.67277      1.525     3.27     3.745432     20.49797      35.9591         5     0.725     0.461 -71.50   0
        99    931.3184    762.0886 300.2136839 +22.8589711       283.22     72.76522      1.503     5.80     4.398272     20.49797     34.37218         9     1.355     0.699 -55.87   0
       100    304.3574    759.7390 300.0192532 +22.6703203     448.2946     72.63576      1.394     5.12     4.364179     20.49797     47.01197        10     0.992     0.748  34.85   0
       101    337.0314    752.7968 300.0316693 +22.6781309     208.3999     72.63576      1.490     5.04     4.340628     20.49797     25.03804         5     1.155     0.622  87.72   0
       102    627.5668    750.2729 300.1228900 +22.7645376     397.2367     72.65427      1.378     3.81     3.906857     20.49797     53.75888         6     0.936     0.445  -0.47   0
       103    597.3107    748.1611 300.1141570 +22.7548601     635.1497     72.63576      1.694     3.85     4.006658     20.49797     58.21331        12     1.113     0.725  -9.43   0
       104    619.1235    745.4993 300.1218131 +22.7606359      1318.96     72.80216      1.461     2.93      3.95152     20.49797      137.946        20     1.121     0.983  47.57   0
       105   1013.6566    744.4907 300.2450799 +22.8785841     4434.607     72.70976      1.726     3.73      4.48477     20.49797     335.3655        35     1.315     1.295  62.48   0
       106    700.7935    740.5492 300.1488538 +22.7836983     314.4367     72.65427      1.187     4.60     3.839094     20.49797     40.70523         8     0.860     0.763 -59.26   0
       107   1002.1485    735.9615 300.2442638 +22.8726861     1732.307     72.65427      1.675     3.65     4.519666     20.49797     140.2794        26     1.350     1.103  37.66   0
       108    365.1030    729.7966 300.0478755 +22.6799529     893.1156     72.56168      1.444     2.85     4.364954     20.49797     96.86884        15     1.045     0.874  29.65   0
       109    231.8063    730.1938 300.0063044 +22.6400786     150.8876     72.50607      1.220     3.78     4.292192     20.49797     32.62904         5     0.892     0.461 -45.00   0
       110    828.5336    727.1457 300.1930068 +22.8181350     2500.494     72.70976      1.629     3.18     4.321244     20.49797     212.7595        29     1.453     1.099  -3.62   0
       111     51.3358    717.4342 299.9543819 +22.5822633     776.8693     72.65427      1.572     3.47     3.903609     20.49797     67.51835        16     1.114     0.919 -22.30   0
       112    911.0541    713.0949 300.2232944 +22.8388258     615.3342     72.72826      1.759     3.68     4.513872     20.49797       56.092        12     1.018     0.883 -36.27   0
       113    213.5801    713.3835 300.0061037 +22.6297884     641.0825     72.63576      1.547     4.58     4.308263     20.49797     79.91423        11     1.246     0.888  -5.30   0
       114    946.9496    704.0969 300.2374102 +22.8469950     146911.4     72.72826      1.578     3.08     4.559902     20.49797      12487.6       157     1.515     1.476 -82.26   0
       115    709.4672    707.9433 300.1621546 +22.7769360     368.6462     72.69127      1.421     4.39     4.107108     20.49797     42.31292         7     0.991     0.777 -46.76   0
       116    799.4048    704.3520 300.1913396 +22.8028594     894.1816     72.63576      1.662     3.59     4.307828     20.49797      80.3571        14     1.073     0.942  -3.86   0
       117    979.7288    697.4897 300.2497786 +22.8549165     507.8944     72.82063      1.683     4.95     4.568704     20.49797     47.58169        11     1.111     0.920 -79.20   0
       118    633.3092    692.8837 300.1433330 +22.7497836     1684.743     72.80216      1.407     2.78     4.261711     20.49797     196.3058        20     1.119     0.980 -72.41   0
       119    814.4448    690.2286 300.2006167 +22.8033100      9475.32     72.69127      1.462     2.71      4.37122     20.49797      961.359        43     1.238     1.206 -85.83   0
       120    295.8199    691.4977 300.0387805 +22.6481824     333.2403     72.58021      1.664     4.50      4.38647     20.49797     30.18293         5     0.823     0.698  40.44   0
       121    315.8260    685.2516 300.0470307 +22.6523915     4957.351     72.67277      1.479     2.74     4.380175     20.49797     505.9656        35     1.228     1.180  64.31   0
       122     29.6100    683.5860 299.9586355 +22.5660375     1666.309     72.56168      1.812     3.63     3.741605     20.49797     145.3467        25     1.279     1.188  62.86   0
       123    397.8745    683.4393 300.0731354 +22.6764804     1062.824     72.61725      1.348     3.06      4.26513     20.49797      123.845        16     1.066     0.900  54.22   0
       124    273.6263    681.1294 300.0352505 +22.6385503     533.5303     72.65427      1.631     4.68     4.385725     20.49797     66.32127        11     1.245     0.715 -32.79   0
       125    606.4482    678.9177 300.1395092 +22.7377217     844.8059     72.67277      1.744     4.48     4.356823     20.49797     78.56311        13     1.251     0.705 -13.83   0
       126    597.8906    671.0026 300.1394175 +22.7328839     3234.514     72.56168      1.365     2.76     4.395571     20.49797     418.3047        27     1.124     1.049  70.67   0
       127    588.1068    664.7994 300.1383877 +22.7281700       1458.8     72.52461      1.368     2.49       4.4229     20.49797     210.8409        20     1.084     0.931 -35.68   0
       128    783.2161    663.5244 300.1995655 +22.7862821     301.9448     72.65427      1.485     3.56     4.448061     20.49797     48.10909         6     0.991     0.831 -27.24   0
       129    516.6215    664.0020 300.1163969 +22.7065097     355.9796     72.59872      1.610     5.41     4.290705     20.49797     46.40396         8     1.358     0.638   8.79   0
       130    982.1802    662.5270 300.2619069 +22.8456049     418.9562     72.65427      1.523     4.90     4.598881     20.49797     45.99225        11     1.045     0.813  59.04   0
       131    251.3361    660.9589 300.0348763 +22.6260770     524.7529     72.61725      1.299     2.51     4.395061     20.49797      86.2223        10     0.880     0.714  -5.08   0
       132    265.7516    659.4979 300.0398321 +22.6299822     548.3981     72.69127      1.321     2.60     4.396145     20.49797      80.2402        10     1.015     0.603 -48.72   0
       133    611.9706    655.5207 300.1488323 +22.7326597     394.6702     72.65427      1.226     3.66     4.532763     20.49797     54.64018         6     0.780     0.647   3.91   0
       134    322.6443    656.0257 300.0586484 +22.6460510     349.9707     72.67277      1.281     2.60     4.390486     20.49797     50.37087         6     0.793     0.478  88.29   0
       135    291.6678    656.0260 300.0490171 +22.6367599     422.4299     72.63576      1.324     3.15     4.397652     20.49797     63.71074         8     0.862     0.735 -40.78   0
       136    512.8349    654.3831 300.1183444 +22.7026132     1803.677     72.65427      1.333     2.52     4.312716     20.49797     239.8385        22     1.081     0.992  42.55   0
       137    546.4664    653.7668 300.1290115 +22.7125193     259.7786     72.65427      1.569     3.43     4.398046     20.49797     29.79049         5     0.761     0.446 -68.74   0
       138    166.8047    649.3512 300.0123772 +22.5973878     19584.37     72.63576      1.584     3.01     4.397796     20.49797     1915.337        62     1.377     1.316  29.34   0
       139     87.8963    651.2457 299.9872469 +22.5742550     743.2104     72.67277      1.808     3.54     4.053019     20.49797     79.55419        13     1.087     0.913 -68.73   0
       140    597.8482    649.8211 300.1462878 +22.7267898     974.4543     72.67277      1.372     2.69     4.551912     20.49797     133.0596        15     0.976     0.898  18.26   0
       141    632.9823    648.7959 300.1575595 +22.7370270     408.7384     72.59872      1.207     2.47     4.592784     20.49797     62.47724         8     0.786     0.660 -32.93   0
       142   1015.9243    635.9783 300.2810582 +22.8480828     1057.045     72.63576      1.548     3.28     4.598881     20.49797     101.2629        16     1.035     1.008  80.49   0
       143    112.7950    633.7902 300.0006531 +22.5767197     1608.621     72.50607      2.000     4.85     4.268974     20.49797     105.0768        30     1.688     1.175 -87.40   0
       144    882.8835    634.0909 300.2401904 +22.8076894     591.0908     72.80216      1.646     4.06     4.622373     20.49797     58.76326         8     1.015     0.716 -14.55   0
       145    179.1527    633.9728 300.0212109 +22.5966810     376.6835     72.67277      1.218     3.08      4.40159     20.49797      65.3159         9     0.901     0.790  64.32   0
       146    561.0964    630.6625 300.1410729 +22.7102722     519.0203     72.74673      1.483     2.31     4.554605     20.49797      64.2581         7     0.700     0.650  22.13   0
       147    955.1748    628.7532 300.2644619 +22.8278111     985.4715     72.67277      1.975     7.92     4.598881     20.49797     88.96855        19     1.818     0.965   4.52   0
       148    353.8230    629.6488 300.0769146 +22.6478330     414.6933     72.65427      1.303     2.92     4.403211     20.49797     50.85368         7     0.821     0.609 -32.22   0
       149    420.5655    627.7358 300.0982949 +22.6672986     171.6391     72.65427      1.292     4.59       4.1995     20.49797     33.58533         7     0.889     0.674 -14.55   0
       150    700.4886    627.3391 300.1855540 +22.7510982     317.4651     72.72826      1.233     3.44     4.756239     20.49797     40.29002         6     0.871     0.473  -0.03   0
       151    518.0262    622.7276 300.1302462 +22.6950823     744.6571     72.65427      1.288     2.15     4.427229     20.49797     123.2682        11     0.881     0.711  71.55   0
       152    683.7600    619.7346 300.1828149 +22.7439008      453.754     72.61725      1.227     3.28     4.819297     20.49797     59.94588        10     1.004     0.665 -69.63   0
       153    665.9349    620.9830 300.1768582 +22.7389172     384.4052     72.63576      1.275     3.46     4.818377     20.49797     67.06435        10     0.916     0.743 -77.11   0
       154    713.5613    619.9268 300.1920342 +22.7528870     452.8745     72.61725      1.372     2.85     4.799499     20.49797     72.19048         8     0.917     0.739  66.39   0
       155    562.1321    618.5708 300.1453242 +22.7071110     1067.421     72.63576      1.549     3.39     4.622074     20.49797     108.1863        19     1.203     0.950   7.65   0
       156    996.0054    614.1306 300.2819456 +22.8358384     3338.276     72.61725      1.546     2.93     4.598881     20.49797      320.117        31     1.247     1.180 -18.57   0
       157    527.6332    614.0499 300.1360555 +22.6954712     1742.203     72.69127      1.408     2.50     4.497831     20.49797     232.9137        21     1.165     0.927  57.20   0
       158    878.0058    609.2863 300.2467301 +22.7991016     236.9749     72.58021      1.397     4.65     4.730362     20.49797     31.93177         7     0.862     0.713 -56.51   0
       159     89.6347    607.4676 300.0020106 +22.5622208     5015.325     72.65427      1.648     3.06     4.322732     20.49797     565.5315        37     1.318     1.265  37.46   0
       160    556.5007    604.7708 300.1480551 +22.7014608     267.2983     72.58021      1.071     2.48     4.646108     20.49797     50.35057         5     0.709     0.465 -69.90   0
       161    391.0620    600.6556 300.0979162 +22.6506793     8859.646     72.72826      1.381     2.50     4.281033     20.49797     1142.993        39     1.156     1.148 -27.19   0
       162    513.5009    597.7940 300.1369390 +22.6865676      9125.52     72.54314      1.353     2.28     4.468071     20.49797     1293.662        41     1.170     1.133 -75.73   0
       163    279.0089    595.2274 300.0648358 +22.6155179     324.8516     72.65427      1.406     4.31     4.418769     20.49797     36.33584         7     0.746     0.710 -16.46   0
       164    760.1782    593.9964 300.2149807 +22.7594080     161.5146     72.61725      1.161     3.68     4.797225     20.49797      34.2911         5     0.804     0.498  29.99   0
       165    925.2228    591.8098 300.2671274 +22.8082238     1933.208     72.65427      1.439     2.81     4.546361     20.49797     216.5362        21     1.101     1.013 -75.43   0
       166   1009.9163    589.2040 300.2943831 +22.8328407     12544.34     72.58021      1.550     2.94     4.596459     20.49797     1202.731        49     1.323     1.267 -63.22   0
       167    574.0872    587.3410 300.1591921 +22.7017278     11492.92     72.72826      1.345     2.39     4.685441     20.49797     1484.976        45     1.181     1.147  49.27   0
       168    301.4298    582.5602 300.0759215 +22.6186072     1451.675     72.63576      1.510     2.40     4.404719     20.49797      209.841        20     1.189     0.940  65.65   0
       169    743.7061    583.1190 300.2133832 +22.7513479     368.5551     72.80216      1.159     2.73     4.863307     20.49797     77.94346         9     0.916     0.639 -37.25   0
       170      2.7257    579.8857 299.9839797 +22.5282326     2363.469      63.9747      1.571     3.22     3.859361     20.49797      259.399        26     1.327     1.126  89.64  24
       171    459.7401    582.3331 300.1252332 +22.6660118     279.4632     72.69127      1.246     2.15     4.321386     20.49797     47.89989         5     0.693     0.452 -14.86   0
       172    548.5089    580.6768 300.1533953 +22.6921473     561.2991     72.80216      1.601     2.83     4.600614     20.49797     51.31654         9     0.912     0.657 -57.00   0
       173    505.7656    575.5703 300.1417516 +22.6778683     4430.583     72.67277      1.327     2.31     4.467463     20.49797     636.8609        29     1.115     1.008  80.71   0
       174    848.5255    575.7751 300.2484295 +22.7806420     704.7616     72.67277      1.393     3.02     4.607076     20.49797     98.35468        14     1.007     0.902  59.23   0
       175    483.9577    573.8772 300.1355155 +22.6708447     1273.146     72.61725      1.329     2.65     4.403129     20.49797     175.4249        17     0.995     0.918  45.23   0
       176    925.6456    571.1070 300.2739853 +22.8024012     1639.371     72.67277      1.535     3.59      4.46765     20.49797     150.5962        23     1.323     1.028 -29.26   0
       177    172.3837    570.8383 300.0396183 +22.5765384     276.9767     72.67277      1.291     2.82     4.406528     20.49797     44.58427         5     0.730     0.446 -70.35   0
       178    622.3962    563.0815 300.1821126 +22.7092405     199056.2     72.58021      1.351     2.39     4.727522     20.49797     24538.22       194     1.426     1.402 -24.22   0
       179    446.1625    569.1401 300.1252948 +22.6581539     387.1149     72.67277      1.384     3.85     4.302871     20.49797     50.74598         7     0.948     0.595 -17.44   0
       180    806.0305    567.9168 300.2377397 +22.7656537     724.1278     72.67277      1.304     2.81     4.747767     20.49797     96.09341        11     0.921     0.758 -79.81   0
       181    308.4550    562.9536 300.0844748 +22.6150873     3678.508     72.69127      1.466     2.65     4.375231     20.49797     445.8553        32     1.176     1.139 -66.65   0
       182    238.2621    573.3575 300.0592739 +22.5970214     733.2741     72.65427      1.377     3.58      4.40335     20.49797     103.6237        15     1.045     0.956  60.98   0
       183    874.4932    559.2040 300.2619064 +22.7836593      553.393     72.54314      1.479     2.77     4.456285     20.49797      66.9947         8     0.828     0.663 -30.09   0
       184    653.8122    549.5347 300.1962952 +22.7147646     305.9101     72.59872      1.407     3.58     4.824492     20.49797     48.30252         5     0.971     0.641 -76.16   0
       185    513.0016    543.5563 300.1544027 +22.6708456     2808.311     72.63576      1.415     2.48     4.530626     20.49797     342.6022        26     1.422     0.982  89.81   0
       186    357.5054    545.7415 300.1053183 +22.6248557     501.2493     72.72826      1.307     2.85     4.234845     20.49797     65.71956         7     0.902     0.524 -30.37   0
       187    668.9329    540.6641 300.2038853 +22.7167479     360.5478     72.70976      1.969     4.99      4.89262     20.49797     34.01356         6     1.031     0.683  54.66   0
       188    924.0051    540.1344 300.2835354 +22.7930090     343.9694     72.65427      1.267     3.34     4.384581     20.49797     41.60252         8     0.819     0.677  46.14   0
       189    829.8757    531.8922 300.2568725 +22.7624466     321.7474     72.82063      1.355     3.83     4.618305     20.49797     43.67324         8     0.954     0.703 -14.30   0
       190    910.0615    529.5374 300.2826305 +22.7857874     1625.949     72.69127      1.404     2.66     4.409125     20.49797     219.8935        24     1.233     1.032 -66.74   0
       191    796.9722    530.0121 300.2472300 +22.7520498     212.1157     72.65427      1.047     3.67     4.787684     20.49797     28.35421         5     0.638     0.608   0.51   0
       192    781.2027    527.3052 300.2431957 +22.7465480     2505.792     72.56168      1.274     2.26     4.793747     20.49797     333.4784        23     1.045     0.972  67.83   0
       193     39.9483    528.2792 300.0123002 +22.5245996     760.3893     72.65427      1.552     3.51     4.487587     20.49797     100.7864        14     1.255     0.831   3.79   0
       194    990.8610    524.4005 300.3094924 +22.8085082     186.3207     72.61725      1.299     3.49     4.541368     20.49797     29.53825         5     0.781     0.450 -17.68   0
       195    686.0244    524.0369 300.2146087 +22.7170932     417.2979     72.67277      1.170     2.06     4.894329     20.49797     69.95727         7     0.793     0.527  41.76   0
       196    568.3620    523.0417 300.1782965 +22.6815477     811.9486     72.74673      1.398     3.31      4.67915     20.49797     94.31995        12     1.046     0.752  38.42   0
       197    910.3298    519.5724 300.2859509 +22.7830040     2419.862     72.63576      1.782     3.75     4.432657     20.49797     211.1402        31     1.671     1.020  87.52   0
       198   1023.6156    520.2674 300.3210502 +22.8171280     410.6263     56.80566      1.136     3.25     4.600161     20.49797     77.67296         9     1.125     0.482 -86.19  24
       199    663.4718    516.3627 300.2100778 +22.7081313     864.3026     72.61725      2.148     6.67     4.868731     20.49797     78.82837        18     1.970     0.761  82.35   0
       200    501.8547    516.4713 300.1597309 +22.6597273     390.3915     72.67277      1.284     3.85     4.683026     20.49797     63.11272         7     0.923     0.786 -28.65   0
       201    449.3864    517.6314 300.1430283 +22.6443328      342.851     72.65427      1.276     2.84      4.58121     20.49797      45.2552         5     0.725     0.455 -16.48   0
       202    948.4642    514.7858 300.2993948 +22.7930487     4430.896     72.61725      1.458     2.61     4.473803     20.49797     532.8511        29     1.124     1.094 -50.62   0
       203    589.2606    514.4310 300.1875988 +22.6853381     210.4583     72.69127      1.187     3.20     4.696075     20.49797     33.33021         5     0.726     0.453  20.60   0
       204    609.0571    510.7881 300.1949450 +22.6902244     267.3291     72.63576      1.239     3.30     4.685675     20.49797     51.38134         8     0.909     0.658  54.08   0
       205    180.3773    505.0148 300.0634807 +22.5600499     891.7817     72.65427      1.452     3.05     4.420235     20.49797     122.9926        13     0.957     0.938 -20.76   0
       206    809.8842    502.2701 300.2602638 +22.7479466     123.5286     72.76522      1.216     4.50     4.612688     20.49797     31.09162         5     0.822     0.701  36.70   0
       207    841.7870    498.5677 300.2714082 +22.7564386     288.6769     72.63576      1.067     3.95     4.531947     20.49797     49.93337         6     0.826     0.774  79.13   0
       208    228.2233    497.5698 300.0807683 +22.5722628     97.54462     72.65427      0.952     2.75     4.405066     20.49797     35.95761         5     0.708     0.468 -17.83   0
       209    172.8453    495.2420 300.0643138 +22.5549866     415.6681     72.72826      1.376     4.79     4.427339     20.49797     48.02404         7     1.036     0.629 -65.40   0
       210    780.6673    489.3279 300.2553633 +22.7354760     333.2137     72.69127      1.125     3.51     4.616255     20.49797      48.1786         6     0.854     0.503  45.44   0
       211    389.3732    487.6309 300.1341022 +22.6177290     233.4656     72.65427      1.164     3.50     4.672676     20.49797     50.46555         5     0.779     0.454 -14.95   0
       212    721.7446    485.2814 300.2383211 +22.7166619      914.139     72.69127      1.402     2.90     4.755562     20.49797     111.1469        13     0.982     0.873 -38.87   0
       213    782.6863    477.5818 300.2598069 +22.7327057     817.1094     72.59872      1.237     3.66     4.565238     20.49797     106.2842        14     1.121     0.824 -53.03   0
       214    940.0103    473.6942 300.3101043 +22.7787061      1001.15     72.59872      1.376     2.47     4.516432     20.49797     139.0628        15     0.950     0.882  -7.65   0
       215    924.0497    469.8311 300.3063826 +22.7728163     600.5787     72.69127      1.392     3.83     4.501675     20.49797     75.84795        10     1.006     0.752  62.63   0
       216    904.2113    470.3117 300.3000419 +22.7670137     252.4389     72.59872      1.188     3.78     4.498588     20.49797     43.85882         5     0.879     0.467  47.47   0
       217    668.4501    468.0471 300.2273187 +22.6957438      3209.46     72.69127      1.269     2.23     4.823235     20.49797     431.3302        25     1.081     0.935  77.90   0
       218    144.9495    459.2896 300.0673196 +22.5363036     408.2621     72.65427      1.415     3.56     4.548771     20.49797     46.24858         7     0.812     0.692 -50.91   0
       219    508.3727    454.8563 300.1817679 +22.6439874     386.5845     72.65427      1.256     2.82     4.801272     20.49797     58.80511         7     0.776     0.682  18.68   0
       220    951.7835    447.0326 300.3224328 +22.7745674     593.8963     72.63576      1.400     3.43       4.4883     20.49797     68.76381        12     1.079     0.802  74.92   0
       221    687.6889    443.8237 300.2411758 +22.6945485     208.6063     72.58021      1.432     3.83     4.670749     20.49797     41.41431         5     0.885     0.475  41.43   0
       222    779.0224    442.0211 300.2702124 +22.7213897     1064.765     72.65427      1.378     2.79     4.474055     20.49797     145.7943        13     0.919     0.873  58.39   0
       223    574.8513    442.0992 300.2066013 +22.6602453     321.5384     72.74673      1.183     3.05     4.776172     20.49797     59.71309         7     0.798     0.694 -48.04   0
       224    283.0593    440.2071 300.1164401 +22.5722416     650.5289     72.63576      1.315     2.33     4.433673     20.49797     97.17532        12     0.870     0.805  12.70   0
       225    345.3937    435.9347 300.1372095 +22.5897031      3727.13     72.63576      1.293     2.27     4.537263     20.49797     524.9368        23     1.017     0.985 -72.05   0
       226    292.5590    430.5792 300.1225194 +22.5723260     7505.706     72.69127      1.365     2.34     4.443849     20.49797     1063.576        34     1.183     1.077  63.61   0
       227    671.0342    430.4445 300.2403329 +22.6857151     266.9972     72.70976      1.173     4.21     4.636234     20.49797     44.36308         6     0.946     0.542  71.82   0
       228    433.4287    424.7811 300.1682133 +22.6128893      4850.61     72.65427      1.309     2.24     4.614974     20.49797     660.8596        30     1.114     1.049 -89.25   0
       229    677.5375    421.5212 300.2452552 +22.6850997      18551.8     72.74673      1.256     2.16      4.58324     20.49797     2774.335        63     1.268     1.190  46.94   0
       230    525.2615    423.4612 300.1972170 +22.6400320     197.7481     72.69127      1.251     2.71     4.726913     20.49797     40.48508         5     0.729     0.453 -21.44   0
       231    694.9330    421.6853 300.2506197 +22.6903579     911.6602     72.74673      1.936     6.31     4.551244     20.49797     61.06168        15     1.391     0.804 -36.06   0
       232    304.1595    420.1180 300.1295223 +22.5728007     276.3204     72.61725      1.402     4.66     4.469567     20.49797     29.99544         6     1.118     0.550 -62.09   0
       233    874.2956    411.7455 300.3097326 +22.7412214     322.6329     72.72826      1.302     4.12     4.351424     20.49797     65.44112         9     1.242     0.608  45.26   0
       234    297.7967    408.5806 300.1312893 +22.5675811     458.0667     72.61725      1.385     3.00     4.466116     20.49797     52.99385         5     0.901     0.388 -82.53   0
       235   1011.3595    404.1702 300.3549279 +22.7800809     750.3619     72.67277      1.666     4.05     4.548297     20.49797      71.4016        14     1.129     0.973  89.85   0
       236    232.2640    401.6184 300.1131768 +22.5459351     2154.382     72.61725      1.480     3.08     4.442014     20.49797     249.1005        25     1.133     1.126 -46.79   0
       237    721.1384    402.6360 300.2649664 +22.6927342     163.8162     72.67277      1.152     2.09     4.468877     20.49797     53.15543         5     0.704     0.439 -21.03   0
       238    618.2277    390.9380 300.2367148 +22.6585449     6609.398     72.65427      1.305     2.27     4.674826     20.49797     948.0492        35     1.132     1.037  82.99   0
       239    332.9623    390.3980 300.1481261 +22.5729027     633.6727     72.67277      1.250     2.37     4.642531     20.49797     98.64836         8     0.832     0.594  11.91   0
       240    190.8597    383.5878 300.1061607 +22.5283452     475.2366     72.63576      1.467     2.79     4.549229     20.49797      69.5507         9     0.892     0.647 -65.54   0
       241    878.0870    382.8330 300.3203004 +22.7340458      360.628     72.61725      1.492     3.40     4.375486     20.49797     44.10545         7     0.897     0.707  83.27   0
       242    822.2843    380.0979 300.3037962 +22.7165498     854.0511     72.82063      1.091     2.81     4.361187     20.49797     133.6345        16     1.040     0.961 -69.73   0
       243    732.0641    381.3541 300.2752783 +22.6898911     428.3514     72.67277      1.104     2.45     4.434599     20.49797     73.80975         9     0.831     0.673 -71.09   0
       244    269.9134    381.4624 300.1314229 +22.5514367     943.0494     72.76522      0.579     0.45     4.445683     20.49797     516.6108         5     0.565     0.266 -79.49   0
       245     38.0421    381.2205 300.0594529 +22.4818383     1371.938     72.69127      1.500     3.09       4.7974     20.49797     133.1924        20     1.120     1.010  47.36   0
       246      6.6809    378.9173 300.0504612 +22.4717711     1351.716     72.80216      2.063     5.66     4.864845     20.49797     89.24464        26     1.686     1.183 -55.46  16
       247    911.9478    379.2031 300.3320342 +22.7431407     170.0693     72.65427      0.889     3.68     4.390589     20.49797     32.47581         5     1.410     0.276 -12.22   0
       248    524.8520    377.2903 300.2120776 +22.6266476     6013.871     72.67277      1.292     2.22     4.747681     20.49797     818.1461        31     1.085     1.037  70.90   0
       249    916.9538    371.7881 300.3360018 +22.7425077     1500.569     72.65427      1.426     2.60     4.393629     20.49797     189.1552        18     1.071     0.914  55.94   0
       250   1014.2148    372.0859 300.3662338 +22.7717100     587.6646     72.59872      1.385     4.12     4.454835     20.49797     60.97204         9     0.916     0.775  -7.43   0
       251     15.7891    366.7660 300.0572334 +22.4710165       349.51     72.63576      1.278     4.99     4.887247     20.49797     45.11047         9     0.923     0.762   5.07   0
       252    509.5852    365.9322 300.2110129 +22.6188105     480.5743     72.65427      1.244     2.30     4.748883     20.49797     66.47715         7     0.712     0.622  72.12   0
       253    592.3552    363.8688 300.2374461 +22.6430169     507.4017     72.61725      1.249     1.72     4.718019     20.49797     75.00129         5     0.657     0.451 -70.55   0
       254     36.3727    362.5852 300.0649825 +22.4759904     1171.176     72.67277      1.637     3.51     4.843653     20.49797     115.3479        20     1.185     1.077  27.05   0
       255    870.5556    362.7846 300.3244606 +22.7260274     309.5422     72.67277      1.253     2.74     4.388859     20.49797     41.39595         5     0.709     0.475  73.89   0
       256    572.7533    361.4028 300.2321443 +22.6364358     250.9609     72.63576      1.237     3.13     4.739341     20.49797     43.35182         5     0.724     0.677 -56.73   0
       257    889.6034    359.2796 300.3315357 +22.7307230     389.8491     72.56168      1.116     2.48     4.393692     20.49797     72.51669         8     0.822     0.644  46.66   0
       258    412.3957    356.4413 300.1838533 +22.5869602     2551.779     72.67277      1.260     2.26     4.906675     20.49797     334.5311        20     1.001     0.961  85.26   0
       259    130.7943    353.8018 300.0971634 +22.5017855       909.97     72.46897      1.464     3.20     4.650947     20.49797     140.6564        14     1.088     0.847  49.17   0
       260    760.4335    350.8849 300.2940061 +22.6896310     260.3423     72.61725      1.436     4.98     4.384577     20.49797     41.83358         6     1.160     0.605 -61.04   0
       261    381.7343    345.9133 300.1777326 +22.5747476     29157.78     72.74673      1.350     2.32     4.921256     20.49797     4361.601        64     1.235     1.162  72.48   0
       262    916.4784    343.4733 300.3450441 +22.7342248     1297.003     72.76522      1.326     2.45     4.397521     20.49797     177.2758        17     0.980     0.931  69.52   0
       263     78.0876    333.7412 300.0872995 +22.4802231     4894.178     72.72826      1.520     2.76     4.770558     20.49797     564.2226        35     1.301     1.119  45.33   0
       264    955.2465    332.5743 300.3606689 +22.7426968     489.1391     72.67277      2.199     3.60      4.39002     20.49797     26.55237         5     1.489     0.251 -41.00   0
       265    255.8919    332.1348 300.1430730 +22.5330717      484.046     72.76522      1.229     3.38     4.503664     20.49797     66.40983        10     0.976     0.712  76.36   0
       266    831.7563    332.2839 300.3222673 +22.7056421     561.5146     72.61725      1.330     2.64     4.381691     20.49797     75.91689         6     0.741     0.527 -40.25   0
       267    480.4464    330.9399 300.2133018 +22.6000281     484.2769     72.69127      1.395     3.54      4.77925     20.49797     56.96119         9     0.959     0.679  57.21   0
       268    659.5413    328.1946 300.2699439 +22.6528927     212.5786     72.61725      1.217     3.69     4.523414     20.49797     31.90916         5     1.019     0.384   5.78   0
       269    792.2653    325.5755 300.3121382 +22.6918888     2003.696     72.63576      1.309     2.41     4.374316     20.49797     292.4964        18     0.999     0.961  37.87   0
       270    600.3853    320.1815 300.2541246 +22.6328705     382.8864     72.63576      1.421     5.39     4.750337     20.49797     40.65462         9     1.425     0.574 -44.27   0
       271   1007.2300    318.7899 300.3813536 +22.7542929     521.0404     72.65427      1.326     2.63     4.362021     20.49797      80.3334         8     0.871     0.605  53.94   0
       272    860.5497    311.7483 300.3379057 +22.7083594     185.5988     72.69127      1.117     4.45     4.406064     20.49797     32.47169         6     0.934     0.603 -22.44   0
       273    454.0000    310.3314 300.2117605 +22.5861841     2070.868     72.59872      1.439     2.87     4.839695     20.49797     259.4551        19     1.121     0.900  63.29   0
       274    666.0499    308.9333 300.2782214 +22.6493070     351.2064     72.63576      1.424     3.39      4.50155     20.49797     46.82472         8     0.854     0.643  50.84   0
       275    893.0817    302.9501 300.3509013 +22.7155693     648.6772     72.67277      1.355     3.23     4.404235     20.49797     74.50996        12     0.955     0.850   7.72   0
       276     25.9625    301.6204 300.0815324 +22.4553736     737.3814     72.67277      2.136     7.03     4.882131     20.49797     58.92735        13     1.991     0.696 -32.36   0
       277    775.4744    301.0150 300.3148766 +22.6798010     417.8408     72.65427      1.256     2.31     4.400921     20.49797     61.11731         8     0.767     0.660   2.71   0
       278    530.1979    290.3908 300.2419429 +22.6032852     1597.935     72.46897      1.610     5.69     4.789426     20.49797     416.9333        14     1.422     0.642  65.90   0
       279    244.3071    291.3746 300.1526978 +22.5178961     291.3561     72.59872      1.626     3.49     4.579556     20.49797     36.79538         5     0.771     0.457  14.94   0
       280    102.4235    290.0526 300.1090352 +22.4749811     240.6416     72.67277      1.293     4.55     4.870656     20.49797     40.43305         5     0.859     0.685 -28.46   0
       281    913.5709    282.8327 300.3638168 +22.7159183     263.0977     72.67277      1.151     3.12     4.422696     20.49797     41.32766         6     0.725     0.641 -20.39   0
       282    774.6283    281.5926 300.3209153 +22.6739645     2203.784     72.65427      1.257     2.20     4.460034     20.49797     350.4283        21     1.115     0.886  83.45   0
       283      7.8251    266.8946 300.0871661 +22.4399688     72995.62     72.58021      1.617     3.03       5.0958     20.49797     7331.318       119     1.614     1.414  50.52  16
       284    483.0613    265.2848 300.2354192 +22.5819508     693.2918     72.78369      1.234     2.21     4.835056     20.49797      101.792        10     0.796     0.730 -81.55   0
       285    188.5778    259.7873 300.1456241 +22.4921217     487.9264     72.63576      1.217     2.77     4.827321     20.49797     71.47008        10     0.906     0.733 -10.38   0
       286    157.9001    259.4351 300.1362049 +22.4828242     1388.339     72.63576      1.677     3.66     4.897434     20.49797     151.3049        23     1.290     1.172 -21.39   0
       287    905.2451    256.7855 300.3696724 +22.7059361     248.4425     72.67277      1.344     3.45     4.540985     20.49797     29.20308         5     0.979     0.352  45.83   0
       288    895.0234    253.3493 300.3676007 +22.7018883     387.9959     72.65427      1.412     2.37     4.587466     20.49797     44.11113         7     0.704     0.651  -9.06   0
       289    241.8472    251.4759 300.1648774 +22.5057024     674.7968     72.65427      1.571     3.63     4.823073     20.49797     76.92142        11     0.975     0.926   2.01   0
       290    918.0681    245.2556 300.3774108 +22.7064586     364.5734     72.69127      1.490     4.10     4.546925     20.49797     37.98725         6     1.138     0.422 -30.69   0
       291    846.3046    243.0168 300.3557670 +22.6843334     632.0692     72.58021      1.273     2.42     4.747537     20.49797     92.52577         9     0.839     0.666  31.76   0
       292    436.9876    242.3281 300.2285309 +22.5615521     466.7144     72.67277      1.293     2.60     4.919572     20.49797     69.19688         8     0.803     0.699 -24.91   0
       293    937.1063    236.4252 300.3862114 +22.7096174      368.475     72.59872      1.303     2.91     4.505771     20.49797     53.63291         8     0.848     0.665  55.23   0
       294    944.4779    232.0627 300.3899251 +22.7105691     2131.402     72.72826      1.392     2.38      4.49121     20.49797     246.0143        24     1.094     1.046 -79.46   0
       295    363.0520    229.3003 300.2097579 +22.5356569     2135.426     72.74673      1.322     2.28     4.951579     20.49797     288.5103        22     1.057     0.955  48.58   0
       296    440.7314    224.3808 300.2355176 +22.5575178     1118.609     72.65427      1.527     3.01     4.932501     20.49797     117.8963        16     1.044     0.923  30.74   0
       297    842.8085    223.6279 300.3609673 +22.6777117     501.8857     72.65427      1.372     2.62     4.881189     20.49797     92.80646        11     0.955     0.780   9.02   0
       298    599.4903    223.9690 300.2850621 +22.6049548     271.7496     72.59872      1.210     3.95     4.772029     20.49797     37.36292         5     0.748     0.630  -5.60   0
       299    192.8507    224.4453 300.1584165 +22.4832550     128.6069     72.67277      1.164     4.13     4.978704     20.49797     39.51728         5     0.933     0.523  50.01   0
       300     39.4508    217.8268 300.1129042 +22.4353685     405.7521     72.67277      1.532     2.90      5.43677     20.49797     49.17707         5     0.726     0.464 -71.12   0
       301    257.8445    216.6945 300.1811328 +22.5005091     784.4732     72.67277      1.311     2.75     4.982059     20.49797     115.5839        12     0.939     0.821  45.65   0
       302    376.0305    215.9913 300.2181116 +22.5357228     281.9477     72.65427      1.227     2.45     4.957369     20.49797     43.81583         5     0.605     0.597   1.63   0
       303    795.6054    213.4648 300.3495538 +22.6606588       1640.5     72.63576      1.220     2.10     4.917345     20.49797     241.1352        20     1.124     0.876  64.25   0
       304    860.4385    213.1775 300.3698522 +22.6799841     489.4004     72.67277      1.335     3.19     4.902863     20.49797      73.3884        12     0.947     0.891 -58.50   0
       305    279.0730    209.9683 300.1899142 +22.5049393      551.975     72.65427      1.333     2.35     4.963343     20.49797     78.45992         9     0.785     0.683  12.62   0
       306    568.8783    206.0194 300.2813543 +22.5906280     254.4389     72.65427      1.186     2.47     4.783846     20.49797     54.18503         7     0.713     0.662  82.76   0
       307    799.6846    204.8617 300.3536156 +22.6594064     871.7175     72.78369      1.486     2.69     4.943757     20.49797     106.4386        14     1.105     0.748  33.37   0
       308    720.1607    204.1858 300.3290586 +22.6354036     1259.933     72.67277      1.268     2.25     4.911161     20.49797     181.1179        15     0.955     0.859  74.81   0
       309    541.4263    200.7442 300.2745200 +22.5808899      413.592     72.65427      1.369     2.61     4.793999     20.49797     46.33838         5     0.699     0.468 -71.94   0
       310    646.2816    196.0346 300.3086925 +22.6109388     926.8173     72.61725      1.254     2.78     4.833977     20.49797     133.9852        14     1.056     0.747 -88.49   0
       311    915.6600    195.6014 300.3927676 +22.6914577     1363.635     72.61725      1.294     2.57     4.794363     20.49797     193.8664        18     0.990     0.978 -50.85   0
       312    927.8295    194.8961 300.3967905 +22.6948970     740.2154     72.59872      1.349     2.58     4.768365     20.49797     94.50368        11     0.889     0.760 -33.53   0
       313    973.9006    193.6800 300.4115506 +22.7083346     214.4958     72.78369      1.326     3.11     4.464731     20.49797     53.09708         5     1.038     0.457   5.67   0
       314     17.4063    184.2231 300.1169563 +22.4191133     287.8457     72.63576      1.074     2.45      5.61943     20.49797     50.58793         6     0.693     0.614 -15.81   0
       315     67.9410    182.1825 300.1333135 +22.4336778     497.6701     72.59872      1.428     3.38      5.38434     20.49797     60.03646        10     1.047     0.650 -19.42   0
       316    278.4682    178.2319 300.2000191 +22.4956431     692.3401     72.63576      1.252     2.71     4.971207     20.49797     85.41573         9     0.847     0.712  70.13   0
       317    947.2199    177.6720 300.4084230 +22.6957458     141.1721     72.69127      1.245     5.95     4.729989     20.49797     29.71593         9     1.204     0.826  69.56   0
       318    140.2580    172.8470 300.1588077 +22.4526753     2169.264     72.70976      1.464     2.67      5.04908     20.49797     271.5541        25     1.214     1.051  55.59   0
       319    963.2242    170.0248 300.4158937 +22.6983353     762.0433     72.61725      1.360     2.70     4.621016     20.49797     98.31376        12     0.974     0.746  -3.64   0
       320     90.4285    169.8365 300.1443026 +22.4368745     488.8228     72.67277      1.395     4.25     5.283538     20.49797     69.77134        10     1.198     0.647 -12.13   0
       321    297.7024    166.1731 300.2099100 +22.4979429     5642.901     72.59872      1.417     2.48     4.951571     20.49797     651.6178        37     1.255     1.115  47.32   0
       322    279.5584    167.7628 300.2037532 +22.4929628     411.5596     72.74673      1.441     3.97     4.969527     20.49797     42.54646         6     1.055     0.428 -29.88   0
       323     81.7233    160.6525 300.1445765 +22.4316283     1324.593     72.67277      1.560     2.98     5.330834     20.49797     157.8982        17     1.127     0.930  44.99   0
       324    281.1144    156.8105 300.2077885 +22.4902832     660.0696     72.59872      1.378     3.03     5.003941     20.49797      79.0836        11     0.960     0.777 -86.61   0
       325    941.8710    147.7575 300.4164569 +22.6855403     3666.894     72.61725      1.442     2.51     4.859274     20.49797     481.0155        30     1.187     1.102 -55.97   0
       326    491.4006    142.8894 300.2777133 +22.5492806     626.7161     72.56168      1.282     3.37     4.802385     20.49797      107.779        12     1.112     0.704 -24.86   0
       327    244.2839    143.5898 300.2006254 +22.4754496     361.7914     72.61725      1.621     3.35     5.171782     20.49797     36.10965         5     0.722     0.466 -16.71   0
       328    605.2729    140.8250 300.3138283 +22.5827893     318.7078     72.69127      1.370     3.35     4.801467     20.49797     42.31095         5     0.923     0.351  44.05   0
       329    415.1231    134.6695 300.2566453 +22.5240712     746.2235     72.76522      1.605     4.07     4.906113     20.49797     65.64124         9     1.017     0.660  40.03   0
       330    950.2585    133.3541 300.4237430 +22.6839068     254.9805     72.69127      1.060     3.25     4.802395     20.49797     36.61795         5     0.728     0.460  13.57   0
       331    181.7940    131.9006 300.1849924 +22.4533659     530.9688     72.54314      1.414     3.31     5.051551     20.49797     74.52273         8     0.932     0.603 -53.77   0
       332    542.5517    130.1984 300.2977484 +22.5609526     1657.467     72.63576      1.267     2.72     4.790827     20.49797     210.8706        18     1.070     0.834  64.72   0
       333    470.5947    130.7334 300.2751806 +22.5395557     499.0773     72.65427      1.167     2.57     4.826366     20.49797     71.32606         8     0.857     0.667  64.06   0
       334     79.6273    131.1195 300.1535015 +22.4225206     255.5816     72.67277      1.054     3.48     5.439321     20.49797     37.26778         5     0.760     0.460 -75.62   0
       335     21.0311    129.8199 300.1357228 +22.4045826     307.6796     72.65427      1.411     5.06     5.659826     20.49797     31.93779         6     0.937     0.772  53.51   0
       336    604.1754    129.0426 300.3173072 +22.5790738     368.3529     72.70976      1.542     4.20     4.807418     20.49797     48.30906         6     1.140     0.442  64.01   0
       337    366.5374    126.7734 300.2440924 +22.5072480     223.8543     72.65427      1.162     3.46     5.177448     20.49797     34.23768         5     0.740     0.467  72.30   0
       338    285.9162    125.8762 300.2193121 +22.4828363     305.1982     72.76522      1.289     2.54     5.272937     20.49797     47.89284         6     0.802     0.569  -1.03   0
       339    830.9031    119.4981 300.3910285 +22.6442032     460.0445     72.83909      1.371     2.16      5.03128     20.49797     73.87848         7     0.730     0.641 -10.99   0
       340    977.0203    114.2843 300.4382719 +22.6864282     293.8588     72.59872      1.414     2.80     4.729638     20.49797     37.48428         5     0.785     0.478  55.64   0
       341    316.6988    110.0536 300.2340138 +22.4875136     5755.153     72.74673      1.401     2.59     5.415154     20.49797     691.2896        35     1.216     1.112  62.57   0
       342    823.0074    110.6393 300.3914402 +22.6392923     348.1092     72.69127      1.295     2.49     5.057338     20.49797      78.4406         8     0.899     0.768 -89.66   0
       343    167.6507    109.5675 300.1878380 +22.4427136     802.3594     72.69127      1.487     3.27     4.984291     20.49797     94.16736        14     1.123     0.802  32.58   0
       344    945.8035    107.6353 300.4306934 +22.6751751     292.4428     72.65427      1.244     2.96      4.82704     20.49797     50.91352         5     0.759     0.419  21.99   0
       345     11.7215    106.1610 300.1405021 +22.3949996     744.3193     72.63576      1.815     3.84     5.670299     20.49797     68.98373        14     1.156     0.970  20.12   0
       346    331.9507    101.3208 300.2415880 +22.4895740     437.8514     72.65427      1.351     3.34     5.497326     20.49797      49.9079         9     0.857     0.771  65.21   0
       347     78.3869    100.3910 300.1630786 +22.4133257     306.1523     72.54314      1.204     3.75     5.543538     20.49797     50.61837         7     0.927     0.661  79.32   0
       348    562.6738     95.4096 300.3152916 +22.5569788     6373.839     72.65427      1.363     2.33     4.809576     20.49797     870.2534        38     1.205     1.120  64.40   0
       349    448.2060     95.1868 300.2797393 +22.5226349     785.7029     72.52461      1.360     2.35     4.854681     20.49797     94.84415        10     0.837     0.726  26.30   0
       350    619.7020     89.7815 300.3348711 +22.5724362     395.5999     72.58021      1.345     3.56     4.919905     20.49797     48.75843         7     0.939     0.669 -78.17   0
       351    316.6032     89.8034 300.2405492 +22.4816673     176.6417     72.43185      1.306     3.46     5.561202     20.49797      23.2511         5     0.778     0.446  71.57   0
       352    815.0526     85.6686 300.3970572 +22.6297297      883.767     72.67277      1.615     5.94     5.128905     20.49797     95.99693        13     1.665     0.707 -65.06   0
       353    756.5049     86.7501 300.3784633 +22.6125176     344.8302     72.70976      1.174     3.33     5.186335     20.49797     47.75192         5     0.751     0.428 -65.21   0
       354    907.9905     84.1830 300.4265076 +22.6571141     451.4525     72.59872      1.283     2.79     4.839891     20.49797     51.72778         8     0.812     0.649 -41.18   0
       355    216.7779     81.2779 300.2122776 +22.4493097     149.7472     72.63576      0.858     3.84     5.451457     20.49797     29.43432         5     0.936     0.451 -46.19   0
       356    126.2137     81.4278 300.1840846 +22.4222142     379.7391     72.65427      1.707     3.48     5.168708     20.49797     31.23774         5     0.754     0.463  17.02   0
       357    255.8586     79.4890 300.2250060 +22.4605053     343.8371     72.72826      1.094     2.14     5.564548     20.49797     59.79168         6     0.728     0.498  -4.55   0
       358    691.1028     75.5302 300.3617270 +22.5897143     6156.118     72.78369      1.353     2.24     5.188441     20.49797     947.7994        36     1.209     1.050  77.27   0
       359    614.1500     78.0431 300.3369479 +22.5673993      396.007     72.69127      1.223     2.20     5.065025     20.49797     71.63474         7     0.809     0.522  42.86   0
       360    465.9212     74.3738 300.2919987 +22.5219590     1551.386     72.65427      1.374     2.62     4.843985     20.49797     224.9174        18     1.110     0.861  77.18   0
       361    732.1008     73.0028 300.3753172 +22.6012597     924.3299     72.54314      1.360     2.42     5.314642     20.49797     125.7305        13     0.896     0.832  45.97   0
       362    801.9601     70.6934 300.3978321 +22.6215043     399.3953     72.67277      1.322     2.42     5.267667     20.49797     60.92493         6     0.777     0.614  32.92   0
       363    748.1265     69.2334 300.3815317 +22.6049724     579.1832     72.63576      1.205     2.97     5.352419     20.49797     112.9555        10     1.059     0.648 -33.69   0
       364   1017.9575     66.6896 300.4664706 +22.6849810     503.1372     72.67277      1.454     3.01      4.79345     20.49797      62.3946         8     0.886     0.603 -14.42  16
       365    214.7722     66.9569 300.2162965 +22.4445951       753.64     72.67277      1.523     2.88     5.436546     20.49797     108.5424        12     1.062     0.755  25.74   0
       366     61.8449     67.1979 300.1687002 +22.3988364     184.8071     72.63576      1.305     4.47      5.45224     20.49797     32.51162         5     0.807     0.704  47.14   0
       367    786.5878     64.7206 300.3949782 +22.6151858     487.0788     72.63576      1.226     2.86     5.325883     20.49797     68.89446         7     0.862     0.603 -36.97   0
       368    735.2848     60.3910 300.3803975 +22.5985858      2667.52     72.59872      1.318     2.23     5.456635     20.49797     400.0832        25     1.092     1.028  80.10   0
       369    750.2520     59.0670 300.3854896 +22.6026848     933.4828     72.67277      1.665     4.64     5.441731     20.49797     117.3371        17     1.646     0.694  52.35   0
       370    375.8284     60.8777 300.2683453 +22.4910973     435.0247     72.65427      1.411     3.36     5.378749     20.49797     55.19931         9     0.886     0.734  11.99   0
       371     28.9760     54.4746 300.1626152 +22.3853315     928.6805     72.69127      1.885     3.90     5.658867     20.49797     83.78223        16     1.119     1.021  54.06   0
       372    821.7604     51.8667 300.4101056 +22.6220148     1657.365     72.61725      1.483     2.64     5.185115     20.49797     203.1235        21     1.191     0.975  65.86   0
       373    981.8786     50.5289 300.4604569 +22.6695379     270.6193     72.76522      1.209     3.32     4.802644     20.49797     44.34845         6     0.779     0.494  -6.58   0
       374    759.7901     45.1564 300.3929705 +22.6015389     750.1623     72.67277      1.401     2.92     5.536574     20.49797      90.3395        14     0.978     0.898  -7.87   0
       375    565.3777     44.4179 300.3326634 +22.5431300     1031.269     72.65427      1.390     2.47     5.044263     20.49797      138.851        14     1.038     0.785  61.10   0
       376    138.1488     44.0829 300.1998979 +22.4150654     627.8203     72.67277      1.602     5.73     4.960304     20.49797     61.22159        12     1.234     0.915 -85.70   0
       377    469.0872     42.7607 300.3032314 +22.5138211     940.2784     72.63576      1.417     2.62     4.840285     20.49797       119.14        13     0.966     0.819 -67.13   0
       378    851.6900     41.0909 300.4229267 +22.6278712     410.9113     72.82063      1.333     4.21      4.92725     20.49797     49.76746         8     0.908     0.745 -51.07   0
       379    808.6105     33.2113 300.4120546 +22.6127135     555.6617     72.54314      1.317     2.89      5.37203     20.49797      74.2975        10     0.908     0.742 -49.47   0
       380    240.6063     32.6166 300.2354575 +22.4424704      3678.37     72.59872      1.505     2.44     5.602844     20.49797     485.6478        35     1.340     1.102  42.69   0
       381     32.6422     33.1994 300.1706493 +22.3803212     332.9286     72.67277      1.267     3.11     5.627148     20.49797     37.60962         5     0.732     0.453 -74.03   0
       382    663.0461     29.6439 300.3678629 +22.5681212     255.3925     72.69127      1.376     3.91     5.759397     20.49797     42.94026         7     0.953     0.697  84.94   0
       383    566.6707     29.8892 300.3377750 +22.5393403      393.501     72.82063      1.322     3.16      5.13287     20.49797     47.73586         5     0.785     0.397  68.25   0
       384    801.7735     25.0307 300.4125756 +22.6083145     891.4827     72.65427      1.472     2.96     5.481843     20.49797     113.9988        14     1.017     0.907  90.00   0
       385    356.5895     24.7861 300.2740595 +22.4749635      1229.54     72.56168      1.325     2.56     5.752459     20.49797     177.5195        15     1.062     0.788  59.43   0
       386    288.9715     24.6734 300.2530685 +22.4546771     267.9884     72.67277      1.350     4.10     5.813585     20.49797     40.68584         5     0.952     0.572  72.30   0
       387    583.2211     22.3197 300.3453808 +22.5421190     327.4041     72.61725      1.320     3.38     5.392172     20.49797     35.09148         5     0.747     0.444  13.85   0
       388     62.9306   1021.4003 299.8591258 +22.6728695     728.2714     67.69176      4.001     4.88     4.122878     20.49797     44.22881         8     1.203     0.953  -2.02  24
       389    763.2179     20.1683 300.4021378 +22.5953778     501.4951     72.63576      1.191     2.45     5.727891     20.49797     72.73122         9     0.863     0.644 -18.39   0
       390    721.2095    982.6995 300.0764511 +22.8593269     6877.653     72.56168      1.908     4.00     2.899538     20.49797     412.5464        50     1.553     1.430  13.66   0
       391    242.1205   1019.9992 299.9152524 +22.7262720     3276.424     71.91022      7.437    24.33     59.09497     20.49797     96.09544       178     5.737     3.393 -31.88  27
       392    702.9393   1015.6287 300.0600442 +22.8632964     8819.953     72.67277      2.000     4.94     2.820928     20.49797     500.2327        54     1.646     1.458 -21.27  19
       393    708.5125   1013.4603 300.0624857 +22.8643458     9138.573     72.74673      1.910     4.29     2.813242     20.49797     502.7293        45     1.537     1.367  81.79   3
