#   1 NUMBER                 Running object number                                     
#   2 X_IMAGE                Object position along x                                    [pixel]
#   3 Y_IMAGE                Object position along y                                    [pixel]
#   4 ALPHA_J2000            Right ascension of barycenter (J2000)                      [deg]
#   5 DELTA_J2000            Declination of barycenter (J2000)                          [deg]
#   6 FLUX_APER              Flux vector within fixed circular aperture(s)              [count]
#   7 FLUXERR_APER           RMS error vector for aperture flux(es)                     [count]
#   8 FLUX_RADIUS            Fraction-of-light radii                                    [pixel]
#   9 FWHM_IMAGE             FWHM assuming a gaussian core                              [pixel]
#  10 BACKGROUND             Background at centroid position                            [count]
#  11 THRESHOLD              Detection threshold above background                       [count]
#  12 FLUX_MAX               Peak flux above background                                 [count]
#  13 ISOAREA_IMAGE          Isophotal area above Analysis threshold                    [pixel**2]
#  14 A_IMAGE                Profile RMS along major axis                               [pixel]
#  15 B_IMAGE                Profile RMS along minor axis                               [pixel]
#  16 THETA_IMAGE            Position angle (CCW/x)                                     [deg]
#  17 FLAGS                  Extraction flags                                          
         1    858.4139     14.6441 300.4334747 +22.6231861     2227.388     72.82586      1.395     2.47      6.02853     20.54115     301.1642        23     1.186     0.944  72.27   0
         2    563.8893     12.9414 300.3422798 +22.5345353     472.4562     72.88145      1.285     2.65     5.531816     20.54115     93.09827         9     0.946     0.605  59.24   0
         3    241.6604     10.0308 300.2429802 +22.4371857     1021.912     72.84439      1.442     2.67     6.242969     20.54115     122.4269        15     0.950     0.920  50.94   0
         4    806.8637      7.3007 300.4197878 +22.6056468     724.6354     72.89998      1.204     2.79     6.022418     20.54115     129.6501        11     0.944     0.744  70.03   0
         5    513.8912      5.7803 300.3290372 +22.5175055     468.1125     72.73309      1.890     6.04     5.350374     20.54115     44.79027         7     1.400     0.732 -59.13  16
         6    426.7507      1.7186 300.3032367 +22.4902419     281.5303     58.88401      1.194     3.43     5.390893     20.54115     41.60486         5     0.839     0.460  45.88  24
         7    707.0805   1011.6639 300.0625315 +22.8642896     9414.002      72.9185      1.933     4.13     4.145375     20.54115     540.5123        51     1.503     1.453  84.51   3
         8    268.0383   1013.7391 299.9252493 +22.7331305     4795.191     72.82585      8.393    23.99     56.15385     20.54115     91.55119       364     5.702     5.238  68.15  19
         9    287.5830   1012.3649 299.9317722 +22.7386043     5692.609     72.80731      8.916    30.25     52.13676     20.54115     108.8376       471     6.439     5.752 -58.96  19
        10    306.8465   1001.9419 299.9411526 +22.7413994     8431.307     72.86292      9.314    31.32     35.10486     20.54115     180.8547       813    10.992     5.161  64.76  19
        11    232.1418    995.0662 299.9201679 +22.7170008     1116.833     72.84439      3.690     8.89     51.05603     20.54115     43.95127        23     1.929     1.304  44.23   3
        12    239.9524   1020.5479 299.9143038 +22.7266497     3358.217     70.81427      7.231    22.84     64.05036     20.54115     85.60359       147     5.102     2.840 -19.15  27
        13    192.3907    980.3662 299.9125973 +22.7008524     1337.691     72.80731      9.765    12.68     42.88999     20.54115     40.52079        29     2.618     1.708  56.95   3
        14    212.3891    982.9734 299.9179637 +22.7076041     1790.733     72.80731      4.921    12.69     45.25401     20.54115     57.14737        45     2.433     1.843  44.33   2
        15    719.8477    980.9989 300.0764868 +22.8593202     6903.432     72.80731      1.926     3.97     4.115106     20.54115     400.8879        49     1.513     1.473 -10.45   0
        16     49.5152   1001.7636 299.8612516 +22.6640788     668.7625     72.78876      4.845     6.71     4.372656     20.54115     33.35287         9     1.627     0.776  36.30   2
        17    599.5914    975.8880 300.0407037 +22.8217806     373.1521     72.73309      1.839     5.87      4.02872     20.54115      30.4106         7     1.146     0.848  -0.13   0
        18    235.2552   1004.9020 299.9179352 +22.7207548     2354.723     72.89998      6.923    19.52     56.05853     20.54115     65.92934       108     4.217     2.608  77.51  19
        19    628.3729    971.7025 300.0510259 +22.8292141     1470.908     72.77021      1.790     4.19     4.129215     20.54115     105.8505        25     1.297     1.236 -17.07   0
        20    521.9958    968.1403 300.0190729 +22.7962775      1119.93     72.77021      1.765     4.23     3.510132     20.54115     75.38255        23     1.304     1.167  -9.75   0
        21    452.4267    966.3860 299.9979972 +22.7748989     7060.123     72.80731      1.976     9.40     3.741556     20.54115     688.5558        48     1.849     1.333 -26.88   0
        22     51.2510    999.7157 299.8624570 +22.6640134     641.7765     72.78876      5.015     6.30      4.37491     20.54115     53.99995        10     1.835     0.607  49.73   2
        23    994.4847    997.8643 300.1565906 +22.9465122     754.3759     72.89998      2.102     7.46     4.482766     20.54115     47.55723        18     1.664     1.226  44.82   0
        24    485.2410    953.0255 300.0125534 +22.7809137     532.8677     72.86292      1.632     5.99     3.677137     20.54115     49.69707        10     1.128     0.895  33.20   0
        25    187.2810    945.5427 299.9223386 +22.6893367     1311.097     72.84439     10.209    11.81     21.08447     20.54115     42.71017        27     2.408     1.612  -5.71   3
        26    999.0512    945.0526 300.1751994 +22.9327173     2147.297     72.84439      1.957     4.69     4.226154     20.54115      124.854        30     1.458     1.295  64.45   0
        27    648.9346    941.9565 300.0671060 +22.8268473     236.6555     72.78876      1.472     5.07     4.129215     20.54115     34.43647         8     1.067     0.681  61.28   0
        28    498.0365    940.9431 300.0204656 +22.7812874     367.1562     72.80731      1.629     4.57     3.833766     20.54115     30.81908         6     1.079     0.549  76.55   0
        29    843.2900    938.2988 300.1288389 +22.8840833     309.0282     72.97403      1.662     5.31     3.921313     20.54115     30.04355         7     1.298     0.613  15.29   0
        30    788.5266    934.3323 300.1130650 +22.8665241     860.6072     72.88145      2.159     6.63      3.97055     20.54115      51.0885        14     1.344     1.055  58.02   0
        31    801.9156   1014.6083 300.0911157 +22.8935786      700.479     72.75166      1.951     5.48     4.044305     20.54115     47.47398        18     1.264     1.118  -7.40   0
        32    566.0005   1003.0575 300.0214067 +22.8194964      360.135     72.75166      1.747     5.58     3.411214     20.54115     40.86412         7     1.149     0.763 -24.98   0
        33    600.1534    928.4426 300.0563148 +22.8083373     346.0318     72.84439      1.805     6.00     4.113636     20.54115     28.20325         8     1.489     0.681 -72.18   0
        34     32.5580    924.8450 299.8810089 +22.6369459     694.0931     72.88145      1.931     5.64     4.400948     20.54115     57.19113        14     1.326     1.043  -8.92   0
        35    845.0167    921.7052 300.1347754 +22.8798376     11299.37     72.73309      1.801     3.84     3.952981     20.54115     687.5178        52     1.427     1.411 -73.73   0
        36    145.2403    943.4922 299.9099431 +22.6761265     3896.646     72.80731     24.262    51.93     13.15089     20.54115     89.24979       928    11.605     6.591 -35.17   3
        37    890.7018    921.3553 300.1491281 +22.8934338     525.6552     72.80731      1.831     4.64     3.978087     20.54115     47.63865         7     1.219     0.501  53.04   0
        38    156.0706    913.0973 299.9231949 +22.6706661     1392.932     72.93701      7.747     6.82     6.008436     20.54115      67.4846        23     1.728     1.271  49.61   1
        39    550.0004    910.3487 300.0465894 +22.7881011     397.6832     72.77021      1.576     4.53     4.017543     20.54115     44.05959         8     1.111     0.636 -33.70   0
        40    144.0018   1017.9240 299.8853418 +22.6970861      4585.21     72.71453      9.764    30.90     51.44762     20.54115     109.8588       444     7.545     4.962   0.66  27
        41    895.8939    908.6339 300.1548850 +22.8913380     398.5108     72.77021      1.998     6.10     3.998379     20.54115     31.53392         6     1.514     0.690 -85.71   0
        42    147.8808    904.7889 299.9233528 +22.6658257     943.9028     72.78876      6.994     8.16     5.810772     20.54115     32.47854        12     1.950     0.955 -82.29   2
        43    853.4308    903.8370 300.1432104 +22.8772307     1244.109     72.84439      1.694     4.19     3.963847     20.54115     89.34901        22     1.292     1.108  65.40   0
        44    822.4418    928.2308 300.1256176 +22.8749422     1012.111     72.84439      1.794     5.18     3.949898     20.54115     69.98349        20     1.360     1.202  86.33   0
        45    891.2921    897.1207 300.1571958 +22.8866529     823.3543      72.9185      1.953     4.61     4.007575     20.54115      58.9979        17     1.287     0.946 -26.56   0
        46    939.6515    889.1301 300.1748705 +22.8988547     516.3485     72.78876      1.753     4.44     4.081778     20.54115      47.5701         9     0.951     0.852  38.82   0
        47    791.3693    887.3888 300.1292215 +22.8539018     748.0449     72.80731      1.632     4.33     3.950671     20.54115     67.11898        11     1.138     0.799  64.96   0
        48    504.0330    883.8352 300.0409079 +22.7667045     4119.299     72.84439      1.631     3.31     3.971353     20.54115       383.23        37     1.311     1.284  88.78   0
        49     51.3493    886.2177 299.8994077 +22.6315191     237.0647     72.80731      1.282     3.39      4.60151     20.54115     32.60174         5     0.750     0.444  73.29   0
        50    802.4142    884.1256 300.1337243 +22.8562766     472.9954     72.82585      1.493     4.27     3.946861     20.54115     49.15467         9     0.874     0.749 -14.33   0
        51    282.7526    872.6059 299.9757356 +22.6970847     383.4422     72.78876      1.685     5.09      5.35166     20.54115     33.90016         7     1.008     0.727 -52.03   0
        52    166.0347    872.6352 299.9394505 +22.6620586     500.1985     72.88145      1.855     3.83     6.065066     20.54115     40.42879         7     0.751     0.673   0.49   0
        53    547.3625    872.2467 300.0581615 +22.7763781     341.4889     72.84439      1.259     4.66     3.973144     20.54115     33.66237         8     1.025     0.602 -20.33   0
        54    229.1814    869.6728 299.9600374 +22.6801646     788.5823     72.80731      2.026     4.53     6.642086     20.54115     63.02181        15     1.289     0.837 -34.71   0
        55    138.3373    868.7697 299.9321021 +22.6526355     359.7905     72.82585      1.708     2.81      5.51164     20.54115     34.69091         5     0.735     0.442 -73.38   0
        56    206.3027    866.4358 299.9539797 +22.6723691      1597.03     72.80731      1.781     3.85     6.053675     20.54115     140.3612        24     1.252     1.212 -88.81   0
        57    738.0704    854.4379 300.1233341 +22.8284621     447.3478     72.77021      1.893     4.84     3.945701     20.54115     29.82523         7     0.904     0.734 -60.03   0
        58    508.5590    853.1993 300.0522799 +22.7592731     243.4856     72.82585      1.883     4.99     3.940303     20.54115     37.99131         5     1.106     0.638  20.58   0
        59    815.8694    847.9907 300.1496694 +22.8499368     540.5645     72.78876      1.317     4.67     3.957688     20.54115     58.55487         9     0.861     0.718 -44.64   0
        60    683.9733    842.0263 300.1105212 +22.8086781     4708.758     72.77021      1.544     3.13     3.919789     20.54115     371.4266        31     1.215     1.176 -54.45   0
        61    486.1916    839.0023 300.0499366 +22.7484900     577.2911     72.62163      1.409     3.92     3.914158     20.54115     59.13201        11     0.974     0.859 -11.44   0
        62    234.3416    835.5492 299.9727378 +22.6719291       1330.4     72.86292      1.686     3.27     5.360627     20.54115     138.7027        19     1.184     0.988  57.53   0
        63    704.4687    834.3216 300.1194099 +22.8126124     863.0054      72.9185      1.667     3.47     3.913011     20.54115     87.90002        16     1.131     0.981 -78.39   0
        64    502.4467    833.4605 300.0567968 +22.7517762     263.9554     72.84439      1.741     4.08     3.901067     20.54115     41.78908         5     0.976     0.486  82.94   0
        65    253.3029    832.9197 299.9794864 +22.6768659     427.5419     72.93701      1.570     4.45     5.149134     20.54115     42.40563         9     0.996     0.978 -34.60   0
        66    621.3344    825.0948 300.0965223 +22.7850343     363.1776     72.93701      1.556     4.04     3.816259     20.54115     39.20533         5     1.012     0.462 -27.64   0
        67    860.0581    821.7949 300.1719593 +22.8556619     4083.767     72.77021      1.576     3.27     3.991671     20.54115     325.6289        31     1.222     1.161  19.57   0
        68    591.6533    818.2803 300.0894977 +22.7741772     396.9536     72.82586      1.725     4.85     3.799004     20.54115     34.84102         6     0.896     0.744 -11.69   0
        69    268.8473    815.9358 299.9898407 +22.6766605     461.7862     72.84439      1.472     2.66     4.855043     20.54115     60.24929         8     0.797     0.653 -53.72   0
        70    577.1621    814.0281 300.0863693 +22.7686108     717.7385     72.82585      1.465     3.30     3.805985     20.54115     70.62416        12     0.966     0.866  85.16   0
        71    223.6341    812.1977 299.9770025 +22.6620194     995.9745     72.77021      1.718     3.77     5.031004     20.54115     104.2605        19     1.312     1.002   0.32   0
        72    373.0799    804.2734 300.0260420 +22.7045924     53078.09      72.9185      1.576     3.03     4.450237     20.54115     4915.246       101     1.461     1.403  56.75   0
        73    638.9476    807.5015 300.1077270 +22.7852669     549.9191     72.89998      1.606     3.80     3.747255     20.54115     58.37066        11     0.936     0.878  63.37   0
        74    630.8842    803.4739 300.1065258 +22.7816929     1640.804     72.89998      1.490     2.96     3.717736     20.54115     173.6621        20     1.110     1.018  50.36   0
        75    301.3756    802.6677 300.0042672 +22.6826167     376.3004     72.78876      1.412     5.90     4.645276     20.54115     52.80177        10     1.076     0.910  86.50   0
        76    659.9871    799.3854 300.1169172 +22.7892464     965.6213     72.73309      1.602     3.60     3.739138     20.54115      85.3921        16     1.165     0.918  77.18   0
        77     59.1702    798.6628 299.9303059 +22.6087716     725.7833     72.82585      2.423     6.01     4.676698     20.54115     60.99501        16     1.495     1.198  57.60   0
        78     26.2485    799.2232 299.9198997 +22.5990483     748.4757     72.80731      1.841     5.33     4.632215     20.54115     64.34834        13     1.189     1.035 -36.07   0
        79    670.8042    797.9526 300.1207516 +22.7920787     559.1675     72.78876      1.433     3.16     3.753784     20.54115     80.83535        11     0.968     0.873  -7.97   0
        80    990.7450    795.2117 300.2213461 +22.8871942     362.4998     72.80731      1.768     3.33     4.472633     20.54115     36.94865         6     0.770     0.534 -40.53   0
        81    776.1975    794.2379 300.1547878 +22.8226109     524.5419     72.82585      1.561     3.84     4.003484     20.54115     61.49671         9     1.038     0.682 -68.95   0
        82    813.6270    784.2241 300.1697059 +22.8309559     824.4296     72.78876      1.608     3.86      4.14307     20.54115     71.59451        15     1.175     0.935  77.50   0
        83    422.7988    781.5582 300.0488917 +22.7129923        31360     72.80731      1.553     2.97     4.254027     20.54115     3224.432        69     1.376     1.283  53.27   0
        84    437.1492    782.0591 300.0531930 +22.7174408     2011.788     72.86292      1.481     3.06     4.180929     20.54115     189.7281        22     1.133     1.040   4.87   0
        85    945.8934    777.4125 300.2131478 +22.8686414     2904.465     72.75166      1.726     3.56     4.580274     20.54115     211.2572        34     1.357     1.287 -42.90   0
        86    433.6160    775.8444 300.0541143 +22.7145979     693.6065     72.82585      1.941     5.32     4.209022     20.54115      53.2422        13     1.080     1.005 -27.11   0
        87    703.6671    773.4326 300.1389583 +22.7948933      1022.09     72.80731      1.682     3.35     3.958982     20.54115     96.68311        16     1.036     0.988 -66.41   0
        88    540.2078    773.6943 300.0879806 +22.7459528     458.6191     72.69596      1.359     4.04      3.84274     20.54115     48.03152         8     0.949     0.657  57.80   0
        89    305.1529    773.1689 300.0150317 +22.6752893     852.2645     72.84439      1.427     4.11     4.619648     20.54115     112.6178        16     1.205     0.939  55.41   0
        90    598.0308    771.5170 300.1066873 +22.7626688     173.7055     72.80731      1.225     3.70     3.713964     20.54115     31.83193         6     0.796     0.495   6.19   0
        91    551.1272    768.4374 300.0930882 +22.7477190     805.2264     72.75166      1.461     2.82     3.816553     20.54115     89.81966        13     0.966     0.822 -67.36   0
        92    109.9378    769.0635 299.9556971 +22.6155259     563.2188     72.84439      1.787     5.68     4.736606     20.54115      47.4319         9     1.071     0.850 -24.13   0
        93    952.0083    765.4090 300.2189570 +22.8670260     539.4805      72.6588      1.682     4.29     4.633196     20.54115      48.8816        10     0.974     0.820 -23.50   0
        94    452.8079    764.5536 300.0637554 +22.7171154     415.2357     72.82585      1.535     3.60     4.157896     20.54115     50.46811         8     0.837     0.744  34.59   0
        95    408.5666    764.0258 300.0501641 +22.7036927     463.1922     72.82585      1.883     4.89     4.333129     20.54115     31.81874         6     1.030     0.657  33.15   0
        96    496.6916    762.8204 300.0779731 +22.7297808     452.1035     72.73309      1.686     3.24      4.00277     20.54115     50.83624         9     0.904     0.728  16.85   0
        97    138.7564    762.8416 299.9666726 +22.6223920      528.796     72.88145      1.626     4.00     4.740547     20.54115     61.50698         9     1.129     0.715  23.06   0
        98    705.5621    762.0956 300.1432342 +22.7922068     437.7346     72.78876      1.353     3.17     4.010785     20.54115      51.7221         7     0.750     0.633 -79.16   0
        99    302.9128    757.7574 300.0193451 +22.6701966     593.3807     72.80731      1.634     4.72     4.617059     20.54115     65.20636        11     1.105     0.772  49.71   0
       100    625.8339    747.6758 300.1230939 +22.7641627     409.3316     72.80731      1.552     6.00      3.76281     20.54115     43.76993        10     1.355     0.747  59.67   0
       101    595.9334    746.4489 300.1141837 +22.7548447      652.803     72.80731      1.449     3.55     3.718329     20.54115     68.08772        10     1.050     0.657 -74.68   0
       102    617.6713    743.9363 300.1217680 +22.7606418     1438.665     72.84439      1.464     2.76     3.730869     20.54115     184.9133        21     1.226     0.954 -74.17   0
       103    505.3764    745.8542 300.0861909 +22.7275169     384.6494     72.82585      1.439     3.41      4.03503     20.54115     59.30007         6     0.861     0.626   9.15   0
       104   1012.2876    742.7766 300.2451122 +22.8785860     4511.778     72.75166      1.694     3.58     4.577224     20.54115       325.89        40     1.422     1.295  52.41   0
       105    537.4379    743.1826 300.0970373 +22.7363657     468.5357     72.80731      1.820     3.96     3.872882     20.54115     54.32043         6     0.837     0.608  61.46   0
       106    745.9509    739.7750 300.1630709 +22.7979064      389.017     72.82585      2.395     4.74     4.249882     20.54115     35.38565         5     0.903     0.705 -15.52   0
       107    699.0306    739.0079 300.1487053 +22.7836203     421.4475     72.80731      1.664     3.87     4.083692     20.54115     58.83129         7     1.017     0.649  70.24   0
       108   1000.7968    734.2358 300.2443049 +22.8726896       1652.6     72.82585      1.626     3.53     4.641596     20.54115     138.1437        23     1.209     1.131 -49.28   0
       109    363.7588    727.8469 300.0479877 +22.6798711      819.001     72.86292      1.379     2.78     4.565626     20.54115     116.7278        14     0.966     0.897  30.28   0
       110    827.2081    725.4444 300.1930468 +22.8181471     2672.531     72.82585      1.579     2.91     4.742801     20.54115     251.3891        31     1.414     1.120   0.00   0
       111     49.7351    715.7712 299.9543190 +22.5821755     737.5924     72.82585      1.526     3.22     4.595099     20.54115      93.0363        12     1.019     0.800 -48.55   0
       112    212.4086    711.9790 300.0060910 +22.6299096     585.7726     72.78876      1.464     4.97     4.666373     20.54115     62.37588        13     1.069     0.906  60.80   0
       113    909.3862    711.1819 300.2232965 +22.8386777     554.3815     72.77021      1.442     3.59     4.999106     20.54115     52.90094        11     1.011     0.775  10.78   0
       114    945.5822    702.4058 300.2374338 +22.8470022     147601.9     72.77021      1.633     3.10     5.013108     20.54115     13421.27       165     1.544     1.459 -85.90   0
       115    707.9207    706.0943 300.1621724 +22.7768354     384.9246     72.93701      1.341     4.41     4.347116     20.54115     47.42204         9     0.910     0.783  33.09   0
       116    797.9319    702.9095 300.1912487 +22.8029010     783.1559     72.93701      1.404     3.30     4.641744     20.54115     76.60082        10     0.878     0.768  79.55   0
       117    978.4329    695.4501 300.2499379 +22.8548463     501.8429     72.84439      1.708     4.12     4.952591     20.54115     63.46596         9     1.115     0.751 -39.41   0
       118    631.8339    691.2359 300.1433068 +22.7497595     1712.899     72.88145      1.406     2.54      4.50791     20.54115      195.856        20     1.026     1.010  42.49   0
       119    813.0718    688.5460 300.2006346 +22.8033133     9372.711     72.82585      1.455     2.70     4.746632     20.54115     1059.019        42     1.208     1.185 -74.86   0
       120    314.5246    683.5792 300.0470644 +22.6524010     4897.853     72.80731      1.516     2.75     4.610093     20.54115      592.203        35     1.232     1.155  56.30   0
       121     28.3497    682.1008 299.9586193 +22.5661027      1623.13     72.89998      1.734     3.69      4.35159     20.54115     170.9276        24     1.315     1.105 -44.23   0
       122    396.6585    681.5950 300.0732519 +22.6764692     1127.348     72.77021      1.411     2.80     4.547177     20.54115     145.7463        17     1.050     0.982 -81.54   0
       123    272.3014    679.2246 300.0353520 +22.6384846     545.4455     72.73309      1.567     4.00     4.611362     20.54115     56.29988         8     0.921     0.690 -66.86   0
       124    604.7812    677.3566 300.1393945 +22.7376643     616.7191     72.82585      1.160     2.47     4.817435     20.54115     94.97658        10     0.851     0.720  46.21   0
       125    596.5306    669.2925 300.1394465 +22.7328756     3226.699     72.93701      1.344     2.42     4.918334     20.54115      401.886        25     1.139     0.965  61.00   0
       126    586.7336    663.1771 300.1383838 +22.7281827     1472.836     72.78876      1.419     2.82     4.957809     20.54115     167.3656        16     1.029     0.885  85.59   0
       127    514.8096    662.6396 300.1161716 +22.7064628      269.382     72.80731      1.369     5.33     4.801528     20.54115     32.85734         8     1.141     0.702   7.96   0
       128    980.1731    661.1384 300.2616317 +22.8455094     461.1834     72.80731      1.448     3.91     5.081499     20.54115     48.33583         9     0.960     0.673  10.69   0
       129    250.0705    659.3428 300.0349017 +22.6261115     634.5297     72.82585      1.439     3.93     4.641459     20.54115      63.5774        10     1.061     0.655 -42.09   0
       130    264.2318    658.0227 300.0397328 +22.6299814     585.0323     72.80731      1.326     2.64       4.6437     20.54115     90.97195        11     0.979     0.735 -78.17   0
       131    150.4273    657.1727 300.0046398 +22.5955916     304.9006     72.77021      1.300     4.25     4.851261     20.54115     33.19608         5     1.131     0.454  31.85   0
       132    321.0527    654.6286 300.0585015 +22.6460532     374.7082     72.82585      1.321     5.17     4.650421     20.54115     42.14103         9     1.099     0.781 -14.35   0
       133    289.7043    654.4677 300.0488068 +22.6366031     613.4766     72.95552      1.600     4.52     4.652662     20.54115     59.57249        11     1.121     0.803  50.66   0
       134    610.7309    653.5720 300.1489758 +22.7326197     534.7067     72.78876      1.410     2.73     5.009054     20.54115     65.74205         9     0.862     0.713   7.20   0
       135    511.4633    652.8006 300.1183273 +22.7026352     1890.183     72.80731      1.481     2.59     4.850372     20.54115     231.8776        22     1.208     0.970 -85.59   0
       136    165.4611    647.7484 300.0123732 +22.5973997     19718.47     72.86292      1.602     2.89     4.877275     20.54115     2374.191        62     1.400     1.300  53.34   0
       137    596.3259    648.0866 300.1462735 +22.7267262      997.249     72.95552      1.287     2.93     5.056496     20.54115     123.3989        13     0.947     0.821  66.67   0
       138     86.6157    649.1073 299.9874361 +22.5741294     634.5231     72.73309      1.536     3.38     4.771042     20.54115     62.52596        10     0.931     0.765  31.68   0
       139    631.6353    647.0480 300.1576044 +22.7370135     297.5587     72.84439      1.324     3.08      4.97788     20.54115      68.5005         7     1.007     0.546  60.04   0
       140    514.0043    644.9913 300.1216555 +22.7011556     240.6034     72.64021      1.006     2.68     4.921128     20.54115      40.4355         5     0.651     0.552   0.02   0
       141    349.6379    639.3054 300.0723692 +22.6502308     281.8692     72.78876      1.280     3.27     4.686268     20.54115     46.24986         8     0.832     0.768  21.98   0
       142   1014.7299    634.5125 300.2810609 +22.8482101      1080.98     72.97403      1.562     3.09     4.962399     20.54115     99.29736        17     1.087     0.913   7.67   0
       143    111.5144    631.8961 300.0007625 +22.5766653      1582.48     72.99252      1.927     5.10     4.933313     20.54115     107.8672        25     1.549     1.080  84.85   0
       144    880.9270    632.6721 300.2399394 +22.8075971     450.5792     72.86292      1.448     3.78     5.125607     20.54115     62.66802         9     1.091     0.717  31.65   0
       145    177.7846    632.6451 300.0211096 +22.5967653     394.2412     72.82585      1.477     5.38     4.880348     20.54115     39.10782         8     1.134     0.721  16.88   0
       146    559.8737    628.7531 300.1412080 +22.7102472     466.6456     72.80731      1.299     2.44     5.181498     20.54115     72.20847         8     0.843     0.617 -85.67   0
       147    954.9483    626.8152 300.2649192 +22.8280906     748.8452     72.80731      1.961     5.28      5.16657     20.54115     59.53929        11     1.047     0.891 -52.84   0
       148    516.7656    621.1797 300.1302515 +22.6951483     660.6269     72.82585      1.306     2.82     5.101728     20.54115     108.0156        13     1.075     0.791  80.22   0
       149    664.6962    619.6166 300.1768122 +22.7390472     510.7773     72.71453      1.454     4.54     5.093613     20.54115     60.95398        12     1.160     0.802  24.22   0
       150    711.8392    617.9939 300.1920219 +22.7527113      398.853     72.84439      1.432     3.27     4.769655     20.54115     60.12249        10     0.905     0.825 -46.59   0
       151    682.3749    617.5639 300.1829847 +22.7437567     597.6411     72.82586      1.342     3.16     5.016739     20.54115     85.41524        10     0.993     0.726 -44.78   0
       152    561.1157    617.0512 300.1453964 +22.7072600     911.2811     72.78876      1.417     3.13     5.260447     20.54115     120.2795        17     1.217     0.852  17.57   0
       153    994.6238    612.3760 300.2819830 +22.8358264     3329.463     72.77021      1.602     3.00     5.030456     20.54115     324.4405        29     1.300     1.127  87.67   0
       154    526.3113    612.2899 300.1361104 +22.6954583     1830.647     72.97403      1.396     2.74     5.205455     20.54115     207.9065        20     1.072     0.965  34.26   0
       155    863.7740    609.1186 300.2422457 +22.7956912     258.8212     72.78876      1.503     5.11     5.076468     20.54115     30.87961         7     1.130     0.654 -34.20   0
       156    876.3566    608.2686 300.2464437 +22.7992169     263.7116     72.77021      1.180     2.60     5.107105     20.54115     43.66777         5     0.732     0.434  69.94   0
       157     88.2747    605.8269 300.0020120 +22.5622148     5200.999     72.80731      1.612     2.94     4.936949     20.54115     601.3378        39     1.344     1.246  27.65   0
       158    502.0389    607.5518 300.1300959 +22.6868206     204.1638     72.84439      1.046     3.35     5.118844     20.54115     37.65469         6     0.780     0.497  -1.74   0
       159    555.3633    603.1946 300.1481076 +22.7015573     274.4274     72.82585      1.134     2.22     5.318158     20.54115     53.62177         5     0.679     0.468  76.95   0
       160    389.6916    599.0483 300.0979051 +22.6506910     8887.397     72.84439      1.400     2.41     4.860296     20.54115     1187.867        41     1.190     1.131  72.33   0
       161    512.1795    596.1503 300.1369556 +22.6865880     8955.414     72.80731      1.326     2.40     5.195966     20.54115     1063.122        38     1.138     1.093  70.80   0
       162    277.4875    592.9499 300.0649946 +22.6152880     347.5369     72.80731      1.906     4.55     4.784379     20.54115     37.71141         7     1.099     0.535 -62.65   0
       163    923.8441    590.2375 300.2671053 +22.8082628     1881.797     72.88145      1.449     2.85     5.201291     20.54115     193.8324        25     1.157     1.072  56.88   0
       164   1008.5347    587.5031 300.2944023 +22.8328450     12504.28      72.9185      1.571     2.93     5.033976     20.54115     1275.073        51     1.316     1.275 -51.70   0
       165    572.7708    585.6903 300.1592126 +22.7017501      11608.1     72.77021      1.336     2.34     5.332546     20.54115     1723.868        46     1.207     1.111  56.86   0
       166    742.1075    581.6403 300.2132609 +22.7513413     585.1838     72.80731      1.443     2.96     4.629005     20.54115     71.55586        10     0.929     0.753 -19.94   0
       167    300.1268    581.0898 300.0758858 +22.6186754     1296.061     72.97402      1.343     2.75     4.809167     20.54115     155.6267        17     1.039     0.908  42.02   0
       168      1.8416    578.0961 299.9841759 +22.5283241     1839.256      59.5906      1.281     2.53     4.475024     20.54115     279.6379        16     1.180     0.754 -88.31  24
       169    546.9026    578.7119 300.1534274 +22.6919917     420.3681     72.99252      1.235     2.26     5.338471     20.54115     88.82411         7     0.822     0.566  79.80   0
       170    312.1486    577.8250 300.0806842 +22.6213443     1801.502     72.82585      0.784     1.70     4.802547     20.54115     738.5624         8     0.805     0.384 -29.18   0
       171    504.3409    573.8482 300.1417609 +22.6778354     4417.231     72.86292      1.349     2.49     5.232721     20.54115     604.8513        30     1.191     1.009  30.99   0
       172    847.2518    573.9271 300.2485288 +22.7806307     862.0748     72.80731      1.318     2.91     4.831582     20.54115     101.1299        12     0.942     0.818  23.85   0
       173    482.7182    572.3246 300.1355271 +22.6709151     1159.558      72.9185      1.261     2.38     5.184844     20.54115     161.2228        16     1.081     0.828  33.07   0
       174    236.9069    571.7404 300.0592690 +22.5970297     780.1202     72.88145      1.463     3.16     4.771909     20.54115     91.76907        12     0.974     0.836 -75.90   0
       175    924.2012    569.3907 300.2739888 +22.8023795     1620.865     72.62163      1.596     3.33     5.156782     20.54115     156.1138        22     1.208     1.066 -36.09   0
       176    444.8203    567.5062 300.1253005 +22.6581689     412.0227     72.73309      1.478     2.69     5.106872     20.54115     66.09402         7     0.946     0.514 -48.04   0
       177    804.7934    566.3024 300.2377740 +22.7657191      877.226     72.71453      1.379     2.82     4.707557     20.54115     100.3022        13     1.004     0.784  63.87   0
       178    621.0726    561.4532 300.1821231 +22.7092692     199495.2     72.80731      1.348     2.41     5.346045     20.54115     27055.12       193     1.406     1.396  33.54   0
       179    307.0457    561.3580 300.0844462 +22.6150883     3480.366     72.88145      1.391     2.57     4.837574     20.54115      367.321        29     1.199     1.074  69.12   0
       180    873.0944    557.8657 300.2618008 +22.7837581     621.4291     72.93701      1.810     4.66     4.838795     20.54115     64.04198        11     1.229     0.780  36.19   0
       181    891.3921    555.8918 300.2681456 +22.7886724     173.3638     72.71453      1.130     3.46      4.93457     20.54115     35.05445         5     0.794     0.436 -70.61   0
       182    652.4105    547.7318 300.1963380 +22.7147212     305.2897     72.80731      1.290     3.91     5.355302     20.54115     38.69674         6     0.847     0.541  47.84   0
       183    511.6866    542.0273 300.1543825 +22.6709018     2662.069     72.80731      1.403     2.44     5.341222     20.54115     385.4517        27     1.485     0.958  86.93   0
       184    355.9899    544.1704 300.1052484 +22.6248340     370.1608     72.80731      1.224     3.30     4.788163     20.54115     66.19862         9     1.058     0.640  19.32   0
       185    961.4168    541.8558 300.2945366 +22.8056139     265.4413     72.78876      0.980     3.45     5.124238     20.54115     47.19827         5     0.756     0.454 -71.57   0
       186    922.9811    538.5860 300.2836145 +22.7931619     260.6776     72.77021      1.238     4.43     5.076513     20.54115      45.1662         7     1.310     0.426  81.37   0
       187    829.1904    530.3367 300.2570587 +22.7626956     429.0184     72.77021      1.349     3.61     4.711944     20.54115     62.07683         9     0.929     0.752  42.65   0
       188    908.7057    528.0380 300.2825899 +22.7858548     1700.984     72.78876      1.395     2.77     4.961136     20.54115     194.9572        21     1.065     1.011 -63.02   0
       189    795.3625    527.3476 300.2474881 +22.7517021      359.143     72.82586      2.535     5.56     4.701263     20.54115     37.56379         7     1.012     0.862 -75.45   0
       190    779.9198    525.7009 300.2432111 +22.7466023     2521.721     72.93701      1.313     2.35     4.707543     20.54115     375.4366        22     1.017     0.999  -2.89   0
       191     38.2783    526.5967 300.0122162 +22.5244882     1019.934     72.71453      1.922     3.93     4.980826     20.54115     88.33662        17     1.263     0.932   1.79   0
       192    139.4158    526.0168 300.0438215 +22.5546658     329.7475     72.77021      1.522     3.84     4.993114     20.54115     41.29448         6     0.821     0.660  56.98   0
       193    684.8912    522.3747 300.2146888 +22.7171723      462.466     72.75166      1.236     2.92      5.35404     20.54115     60.70057         8     0.809     0.655  87.58   0
       194    567.2693    521.3649 300.1783931 +22.6816305     607.5919     72.80731      1.238     2.39     5.515403     20.54115     93.20644        11     0.882     0.742  41.79   0
       195   1022.6907    518.7799 300.3211406 +22.8173320     689.8712       61.924      1.544     4.69     4.984831     20.54115     66.79054        14     1.160     0.947  20.67  24
       196    909.0578    518.1573 300.2859088 +22.7831207     2223.023     72.77021      1.601     3.58     4.933885     20.54115     240.3007        25     1.399     1.016  74.77   0
       197    662.3215    516.0755 300.2097056 +22.7085994     627.2105      72.9185      1.283     2.90     5.539047     20.54115     79.67136         9     0.941     0.609  38.54   0
       198    500.8477    515.2551 300.1597041 +22.6599657     339.9913     72.84439      1.277     2.60     5.397003     20.54115     61.40789         7     0.826     0.596 -74.52   0
       199    947.1054    513.0640 300.2994253 +22.7930528     4337.632     72.89998      1.431     2.76     4.991993     20.54115     468.5294        33     1.251     1.114 -79.40   0
       200    661.7184    511.9854 300.2108461 +22.7072439     431.4442     72.78876      1.676     3.20     5.563635     20.54115     59.75843         7     0.981     0.635  79.14   1
       201    607.8890    509.0898 300.1950250 +22.6902801     298.2653     72.97402      1.172     2.39     5.606549     20.54115     62.14732         6     0.763     0.620 -77.98   0
       202    178.9211    503.4856 300.0634135 +22.5600521     941.0449     72.95552      1.368     3.59     4.973979     20.54115     107.0213        16     1.173     0.974  -7.07   0
       203    839.7428    496.6639 300.2712830 +22.7561815     352.5949     72.86292      1.682     3.47     4.730613     20.54115     41.02815         6     0.904     0.657 -80.38   0
       204    445.5950    496.9900 300.1484428 +22.6381576     347.7051      72.6588      1.198     2.13     5.295317     20.54115     51.18436         6     0.758     0.489 -85.70   0
       205    225.5784    495.1921 300.0806072 +22.5716668     258.7583     72.78876      1.574     4.70     4.944972     20.54115     92.98189         7     1.515     0.413  15.79   0
       206    171.8031    493.4966 300.0644450 +22.5550509     471.7085     72.71453      1.536     2.34     4.989429     20.54115      67.5302         7     0.800     0.604 -75.71   0
       207    779.1937    487.3042 300.2554542 +22.7353532        510.3     72.69596      1.468     3.50     4.718802     20.54115     53.44764         9     0.999     0.623  35.12   0
       208    388.3013    485.8631 300.1342326 +22.6177859     348.7765      72.9185      1.537     2.86      5.21283     20.54115     42.17852         5     0.757     0.421 -73.23   0
       209    668.1035    485.1840 300.2215379 +22.7014590     385.0308     72.71453      1.297     4.08     5.725394     20.54115     48.10067         7     0.903     0.527  46.63   0
       210    720.4318    483.4848 300.2383879 +22.7166505     925.0969     72.78876      1.372     2.77     5.018794     20.54115     118.5951        14     1.048     0.822  53.40   0
       211    781.2349    475.6612 300.2598709 +22.7326195     837.2306     72.82585      1.358     2.57     4.719843     20.54115     109.3004        15     0.957     0.906  -9.63   0
       212    938.4903    472.2221 300.3100021 +22.7787341      1096.93     72.73309      1.489     3.32     4.860167     20.54115     119.8599        17     1.131     0.982  67.74   0
       213    897.4064    470.0187 300.2979090 +22.7657964     227.0424     72.77021      1.108     2.93     4.811358     20.54115     47.62743         6     0.861     0.540  -0.97   0
       214    923.1826    468.2122 300.3065315 +22.7729971     860.0719     72.77021      1.561     3.09     4.855249     20.54115     92.69151        11     1.000     0.709  13.63   0
       215    667.1045    466.3712 300.2273353 +22.6957556     3217.135     72.73309      1.265     2.27      5.65901     20.54115     472.8399        26     1.107     0.950  84.81   0
       216    143.5033    458.0087 300.0671732 +22.5363795     251.9744     72.69596      1.363     2.75      4.99695     20.54115     32.73075         6     0.766     0.500 -88.67   0
       217    507.1093    453.2388 300.1817896 +22.6440350      321.803     72.80731      1.175     2.34     5.422496     20.54115     59.71725         7     0.717     0.652  20.11   0
       218    950.3333    445.4100 300.3224005 +22.7745739     634.8737     72.80731      1.518     2.88     4.886715     20.54115     72.50268         9     0.925     0.693  49.12   0
       219    686.8372    442.2656 300.2413073 +22.6947432      327.244     72.78876      1.463     3.89     5.343197     20.54115      40.6233         6     0.772     0.561 -49.76   0
       220    777.5793    440.3782 300.2701877 +22.7213863     1093.218     72.80731      1.201     2.65     4.730529     20.54115     163.5549        14     1.000     0.832 -54.10   0
       221    573.1915    440.7562 300.2064107 +22.6602555       462.34     72.82585      1.260     3.10     5.517068     20.54115     70.77162         9     0.976     0.588  49.95   0
       222    281.6594    438.5676 300.1164248 +22.5722339     638.7481     72.84439      1.223     2.61     5.237237     20.54115     92.00879         9     0.835     0.743  13.83   0
       223    122.1850    436.6506 300.0674831 +22.5238567     298.4795     72.80731      1.512     4.06     4.996778     20.54115     41.84503         5     1.008     0.467  -6.02   0
       224    344.0359    434.1701 300.1372481 +22.5896745     3654.275     72.82585      1.326     2.51      5.26581     20.54115      465.848        26     1.125     0.980  38.89   0
       225    291.2065    428.9383 300.1225190 +22.5723326     7520.673     72.77021      1.348     2.40     5.329086     20.54115      942.196        38     1.192     1.072  56.56   0
       226    676.2527    419.8995 300.2452717 +22.6851464     18386.84     72.89998      1.309     2.33     5.347533     20.54115     2644.096        58     1.266     1.092  70.03   0
       227    693.7519    419.9995 300.2506894 +22.6904179      840.559     72.80731      2.244     5.96      5.16733     20.54115     61.01492        16     1.492     0.843 -33.03   0
       228    523.5259    421.2847 300.1972725 +22.6397786     333.7518     72.89998      1.204     3.39     5.346072     20.54115      41.1578         5     0.767     0.432  66.78   0
       229    431.9896    423.1723 300.1681762 +22.6128844     4860.439     72.80731      1.324     2.43     5.252946     20.54115     602.7224        30     1.157     0.999  66.20   0
       230    919.8497    416.3003 300.3223466 +22.7570777     291.5417     72.89998      1.281     3.89     4.846308     20.54115      40.0509         6     0.784     0.552 -44.49   0
       231    873.0891    409.9193 300.3098409 +22.7412402     318.4031     72.93701      1.301     3.80     4.753373     20.54115     50.96852         8     0.953     0.704  67.71   0
       232    296.1639    406.9070 300.1312118 +22.5674948     384.8387     72.75166      1.360     4.55     5.397328     20.54115     43.90697         8     0.878     0.670  43.91   0
       233   1009.7438    402.6472 300.3548106 +22.7800694     799.9241     72.84439      1.513     3.66     5.067608     20.54115     75.84642        17     1.114     1.018  16.76   0
       234    546.5249    401.7463 300.2107732 +22.6410595     290.5887     72.82586      1.145     2.33     5.339826     20.54115     49.13051         5     0.702     0.462 -68.94   0
       235    230.9589    400.0625 300.1131623 +22.5459786     1979.702     72.78876      1.378     2.80     5.035212     20.54115      254.239        21     1.047     0.985  44.46   0
       236    616.8658    389.3431 300.2366973 +22.6585745     6717.416     72.86292      1.282     2.17      5.32824     20.54115     997.2985        38     1.165     1.064  54.01   0
       237    331.7664    388.6248 300.1482164 +22.5729204     676.0458     72.82586      1.239     2.26     5.364874     20.54115     109.2327        10     0.854     0.705  77.17   0
       238    189.3035    381.8810 300.1061164 +22.5282689     595.6597     72.93701      1.558     3.82     5.019401     20.54115     72.86286        12     1.083     0.842 -72.36   0
       239    876.8474    380.9906 300.3204027 +22.7340505     338.5214     72.82585      1.241     2.83     4.764358     20.54115     44.56042         8     0.820     0.701  87.95   0
       240    821.0146    378.4401 300.3038287 +22.7165967     969.1021     72.82585      1.417     2.82     4.731152     20.54115     161.1086        17     1.116     0.905  73.12   0
       241    730.7858    379.5640 300.2753506 +22.6898940      437.329     72.80731      1.175     3.44     4.759072     20.54115     52.60561        10     0.932     0.787 -20.17   0
       242     36.5475    379.6008 300.0593984 +22.4817999     1338.922     72.77021      1.570     3.07       5.1949     20.54115     163.3829        19     1.202     0.975  13.12   0
       243      5.6734    377.2470 300.0505743 +22.4718631     1740.397     72.80731      2.221     5.99     5.209252     20.54115     99.02148        29     1.742     1.214 -55.42  16
       244    523.4757    375.6349 300.2120743 +22.6266523     6284.638     72.77021      1.258     2.08     5.259735     20.54115     932.4274        36     1.171     1.028  63.40   0
       245   1012.9481    370.3930 300.3662797 +22.7717547     617.3498     72.80731      1.388     4.37     5.042112     20.54115     65.00271        12     1.084     0.911  58.67   0
       246    915.4242    370.0177 300.3359902 +22.7424479     1539.378     72.80731      1.425     2.61     4.800223     20.54115     173.7474        17     0.986     0.907  60.30   0
       247     14.5557    364.5874 300.0574409 +22.4708955     383.4189     72.80731      1.583     4.45     5.280372     20.54115     44.37327         7     1.018     0.696  52.88   0
       248    508.1624    364.4794 300.2109289 +22.6188591     461.0303     72.77021      1.108     2.09      5.22197     20.54115     79.00598         6     0.721     0.499  -1.12   0
       249    868.3920    361.5960 300.3240620 +22.7259435     245.7159     72.64022      1.839     3.01     4.760214     20.54115     47.85979         5     0.742     0.470 -76.69   0
       250    590.7052    362.2917 300.2373322 +22.6429648     424.3745     72.97403      1.149     2.70     5.333781     20.54115     64.87232         8     0.915     0.576  23.17   0
       251     34.9658    360.9947 300.0649453 +22.4759869     1050.106     72.78876      1.444     3.50     5.304428     20.54115     124.1145        15     1.046     0.935  18.90   0
       252    571.2833    360.2236 300.2319571 +22.6365513     206.2298     72.77021      1.152     2.88     5.300965     20.54115     53.17862         6     0.839     0.648  73.17   0
       253    888.3377    357.8795 300.3314856 +22.7308478     517.7869     72.89998      1.133     2.30     4.774009     20.54115     84.46466         9     0.840     0.636  39.82   0
       254    411.0438    354.9095 300.1838161 +22.5870039     2478.336     72.80731      1.286     2.19     5.261271     20.54115     403.7987        22     1.037     0.944  56.13   0
       255    129.5294    352.3201 300.0971353 +22.5018594     1023.485      72.9185      1.471     2.52     5.210341     20.54115     146.2084        15     1.148     0.763  43.80   0
       256    759.0848    350.0013 300.2937615 +22.6898749     270.7182     72.69596      1.185     3.77     4.748185     20.54115     31.14283         5     0.816     0.501 -27.01   0
       257    380.3835    344.2326 300.1777436 +22.5747480     29245.12     72.78876      1.301     2.33     5.338968     20.54115     3452.429        62     1.289     1.112  63.18   0
       258    915.0814    341.8214 300.3450345 +22.7342392     1465.133     72.77021      1.389     2.63     4.811728     20.54115     209.4092        14     0.973     0.837  50.17   0
       259    870.3172    339.4836 300.3318385 +22.7201635      381.875     72.93701      1.176     2.91      4.77375     20.54115     49.93539         5     0.713     0.450  23.21   0
       260     76.7118    332.0629 300.0872998 +22.4802058     4888.478     72.89998      1.532     2.83     5.446281     20.54115     549.0436        37     1.304     1.179  55.87   0
       261    954.9360    330.1799 300.3612390 +22.7428246      449.867     72.78876      1.913     5.46     4.912667     20.54115     38.80611         6     1.356     0.646 -44.71   0
       262    830.2101    330.6126 300.3222167 +22.7056034     450.7161     72.69596      1.197     2.53     4.744381     20.54115     74.95208         7     0.824     0.549 -80.72   0
       263    254.6297    330.4155 300.1431229 +22.5330831     450.0393     72.80731      1.349     3.44     5.268408     20.54115     64.76978         9     1.048     0.614  59.09   0
       264    478.8365    329.5050 300.2131525 +22.6000253     539.3317     72.80731      1.363     2.91     5.178971     20.54115     73.84898        12     0.944     0.837  19.51   0
       265    790.8354    324.0174 300.3120866 +22.6919161     2007.123     72.80731      1.384     2.54     4.771135     20.54115     271.2925        20     1.081     0.867  57.93   0
       266    599.2918    318.7059 300.2541497 +22.6330154     331.7775     72.97403      1.182     1.87     5.310881     20.54115     82.00339         6     0.749     0.492  46.37   0
       267   1005.7229    316.7805 300.3814254 +22.7541753      578.699     72.80731      1.259     2.86     5.030571     20.54115     83.81767         9     0.881     0.687  81.50   0
       268    452.6110    308.5873 300.2117795 +22.5861580     2238.172     72.71453      1.500     2.73     5.207374     20.54115     308.9781        24     1.342     0.927  63.70   0
       269    665.0090    307.4591 300.2782625 +22.6494706     360.1546     72.77021      1.103     3.51     5.158031     20.54115     59.26141         6     1.072     0.332  51.59   0
       270    891.7347    301.4201 300.3508665 +22.7156336     600.5601     72.78876      1.274     3.10     4.850747     20.54115     87.83306        12     1.020     0.761  82.61   0
       271    791.2037    298.8426 300.3203702 +22.6847902     296.0945     72.82585      1.235     4.43     4.818143     20.54115     50.45389         6     0.950     0.589 -80.40   0
       272    774.0489    299.0459 300.3149589 +22.6797113      430.055     72.82585      1.506     3.18     4.964417     20.54115     41.21658         9     0.808     0.750  67.46   0
       273     25.5571    298.7200 300.0822293 +22.4552953     798.5267     72.78876      1.976     4.16     5.840566     20.54115     69.83907        12     1.242     0.709  51.92   0
       274    528.4518    287.9337 300.2420820 +22.6029505     1076.346     72.84439      1.234     2.40     5.185417     20.54115      153.459        15     1.035     0.801  33.16   0
       275    100.8823    288.6574 300.1088910 +22.4749970     196.9047     72.86292      1.320     4.14     5.522009     20.54115     38.27752         5     1.091     0.464   5.87   0
       276    911.8221    281.3741 300.3636329 +22.7158839     301.7767     72.78876      1.155     2.69     4.992163     20.54115     51.79616         5     0.714     0.656  77.59   0
       277    773.3778    279.9652 300.3209406 +22.6740257     2224.841     72.82585      1.273     2.13     5.080013     20.54115     330.4578        20     0.991     0.919 -84.89   0
       278      6.4567    265.2265 300.0871629 +22.4399552      73151.3     72.80731      1.657     3.00     6.045695     20.54115     8190.948       109     1.572     1.388  52.02  24
       279    481.4127    263.5758 300.2353448 +22.5818589     824.6443     72.80731      1.600     4.04     5.181351     20.54115     73.82822        13     1.045     0.946 -29.89   0
       280    156.7193    257.6729 300.1362912 +22.4828454     1374.606     72.93701      1.684     3.95     5.382455     20.54115     139.1671        22     1.276     1.114 -31.35   0
       281    187.3479    257.9956 300.1457049 +22.4921208     615.8196     72.80731      1.429     3.05     5.365241     20.54115     75.85641        11     0.990     0.715  16.24   0
       282    894.2047    251.4134 300.3678606 +22.7019949     348.5426     72.67738      1.424     3.04     5.230958     20.54115      47.3895         6     0.753     0.621 -51.33   0
       283    240.8330    249.7164 300.1650149 +22.5057776     358.6017     72.77021      1.275     2.58       5.3564     20.54115     73.39555         7     0.838     0.547  83.55   0
       284    845.0044    241.6010 300.3557075 +22.6844438     557.5164     72.62163      1.191     2.45     5.289491     20.54115      86.7312         8     0.785     0.668  49.56   0
       285    435.2824    240.7167 300.2284063 +22.5614700     446.6219     72.93701      1.470     3.71     5.315108     20.54115     56.72416        10     1.205     0.569  65.93   0
       286    935.8395    234.2804 300.3863991 +22.7095316     287.4719     72.77021      1.142     3.62     5.416879     20.54115     42.59587         7     0.856     0.591  21.32   0
       287    943.2056    230.3921 300.3899572 +22.7106183     2053.629      72.6588      1.370     2.41     5.461787     20.54115     301.5955        24     1.113     1.060 -80.16   0
       288    361.6305    227.5998 300.2097497 +22.5356317     2130.623     72.77021      1.336     2.24     5.472682     20.54115     327.3344        24     1.085     1.046  48.64   0
       289    191.0437    223.1283 300.1581629 +22.4832181     355.1779     72.77021      1.188     2.77     5.313553     20.54115      55.2593         5     0.733     0.525  24.39   0
       290    841.4068    221.9788 300.3609512 +22.6777249     538.9276     72.78876      1.281     2.66     5.475593     20.54115     83.95454         8     0.861     0.617  81.99   0
       291    948.4637    219.1959 300.3952285 +22.7089723     174.2648     72.77021      1.012     2.99     5.514496     20.54115     44.39149         5     0.735     0.433  65.43   0
       292    256.5278    214.9722 300.1811632 +22.5005053      739.696     72.78876      1.358     2.82     5.368649     20.54115     111.4411        12     0.935     0.881  80.89   0
       293     37.7735    215.6555 300.1129669 +22.4351197     285.0989     72.80731      1.821     4.34     5.790711     20.54115     32.89441         5     1.083     0.496  57.07   0
       294    439.6019    222.7742 300.2355700 +22.5576099     1016.128     72.75166      1.365     2.59      5.33052     20.54115     137.6341        15     1.034     0.818 -41.60   0
       295    794.2469    211.8301 300.3495460 +22.6606875     1757.167     72.82585      1.344     2.45     5.471224     20.54115     236.2551        19     1.162     0.853  78.87   0
       296    859.1644    211.3332 300.3699390 +22.6799801     498.5665     72.80731      1.169     2.43     5.475738     20.54115     77.83169         9     0.819     0.679 -68.63   0
       297    837.8761    210.6369 300.3635296 +22.6734067     1764.982     72.77021      0.679     1.93      5.47681     20.54115     787.5374         7     0.621     0.357 -80.29   0
       298    277.8654    208.1672 300.1900040 +22.5049465     561.5029     72.80731      1.661     2.15     5.418174     20.54115     70.24372         8     0.755     0.651  38.18   0
       299    798.1677    203.2059 300.3535649 +22.6593818     762.2595     72.80731      1.319     3.10     5.477327     20.54115     96.97399        10     0.915     0.723  84.59   0
       300    718.7849    202.5726 300.3290376 +22.6354307     1219.329     72.82585      1.223     2.17     5.400877     20.54115     208.5752        14     0.888     0.874 -66.61   0
       301    540.1037    199.0577 300.2745382 +22.5809053     360.8603     72.88145      1.235     3.76     5.204119     20.54115     46.99705         6     0.740     0.586  50.01   0
       302    914.2552    193.9676 300.3927452 +22.6914774     1419.244     72.82585      1.379     2.77     5.490508     20.54115     182.7339        17     0.988     0.964 -40.19   0
       303    645.0691    194.2300 300.3087837 +22.6109572     979.2274     72.78876      1.210     2.33     5.353581     20.54115     145.4595        12     0.940     0.703  82.78   0
       304    926.5253    193.1239 300.3968444 +22.6949075     706.0145     72.89998      1.258     2.72     5.495123     20.54115     96.23981        12     0.992     0.734 -71.88   0
       305    972.3578    192.2949 300.4114048 +22.7083867     340.7563     72.82586      1.637     2.84     5.564656     20.54115     41.51017         6     0.828     0.497 -42.83   0
       306    485.5793    190.1852 300.2604459 +22.5620222     222.6091     72.78876      0.996     3.46     5.209534     20.54115     29.59351         5     0.790     0.439 -69.83   0
       307     16.2745    182.4036 300.1170732 +22.4191289     117.4616     72.71453      0.740     3.93     5.515496     20.54115     44.05678         7     1.167     0.456 -40.42   0
       308     66.6728    180.3761 300.1333840 +22.4336581     545.3442     72.84439      1.702     3.50     5.514475     20.54115     61.33689        10     0.945     0.788 -34.59   0
       309    276.7732    176.2924 300.2000012 +22.4954650     722.2241     72.75166      1.299     2.72     5.476699     20.54115     103.6704        14     0.990     0.855 -80.20   0
       310    138.9277    171.1513 300.1588232 +22.4526716     2246.028     72.78876      1.467     2.80     5.507114     20.54115     237.5071        27     1.174     1.147  38.26   0
       311     88.3141    168.1759 300.1440628 +22.4366440     569.3576     72.77021      1.443     4.48     5.509489     20.54115      52.6032        10     1.226     0.727 -39.48   0
       312    962.0486    168.2327 300.4159936 +22.6983803     594.5952     72.84439      1.288     2.77     5.556166     20.54115     86.58046         9     0.774     0.755  45.47   0
       313    296.3324    164.5071 300.2099043 +22.4979417     5702.017     72.95552      1.380     2.48     5.518434     20.54115     677.4919        35     1.246     1.066  63.46   0
       314     80.6360    158.8486 300.1447018 +22.4316644     1392.071     72.84439      1.637     2.89     5.480579     20.54115     155.5647        20     1.172     0.974  24.73   0
       315     41.9600    159.7757 300.1323876 +22.4203350     321.9451     72.84439      1.434     3.73     5.361763     20.54115     32.54754         5     1.257     0.318  64.65   0
       316    279.7596    155.2054 300.2077674 +22.4903036      540.407     72.82585      1.288     3.27     5.508808     20.54115     74.01761        10     1.007     0.669 -69.93   0
       317    940.3827    146.1294 300.4164052 +22.6855384     3448.559     72.82585      1.362     2.50     5.515617     20.54115     400.1228        29     1.175     1.041  83.27   0
       318    489.9316    141.4193 300.2776137 +22.5493135     618.5001     72.80731      1.354     2.64     5.226985     20.54115     77.51788        12     0.967     0.757  56.08   0
       319    243.1476    141.7984 300.2007320 +22.4754808     385.1649     72.77021      1.410     2.48     5.429288     20.54115     47.49726         6     0.748     0.531 -53.64   0
       320    604.0217    139.3020 300.3138142 +22.5828764     341.3113     72.73309      1.132     3.63     5.297146     20.54115     52.66337         6     0.915     0.456  41.88   0
       321    414.0378    133.0289 300.2567196 +22.5241673     648.2714     72.82585      1.498     2.89     5.534334     20.54115     75.63531        10     0.880     0.803 -47.86   0
       322    948.9784    131.6324 300.4237862 +22.6839409     314.4632     72.80731      1.418     3.36     5.505619     20.54115     44.68798         6     0.803     0.643  37.24   0
       323    418.5424    131.6970 300.2585528 +22.5251342     445.8024     72.88145      1.607     2.01      5.52473     20.54115     68.07486         5     0.718     0.454   7.23   0
       324    180.1867    130.1430 300.1849409 +22.4532636     619.1731     72.78876      1.338     2.54     5.578822     20.54115     82.16693         8     0.769     0.674 -56.19   0
       325    541.1583    128.5103 300.2977429 +22.5609476     1726.351     72.80731      1.279     2.29     5.226985     20.54115     267.8991        18     0.978     0.913  80.10   0
       326    469.2510    128.9302 300.2752274 +22.5395298     589.2997     72.80731      1.475     2.56     5.284613     20.54115     78.00553        10     0.884     0.751  78.68   0
       327    602.8428    127.4476 300.3172907 +22.5791160     411.4113     72.84439      1.279     3.20     5.295957     20.54115     59.21038         8     0.877     0.639  52.74   0
       328    284.9359    124.2458 300.2194147 +22.4829623     366.0324     72.82585      1.197     2.19     5.516614     20.54115     64.76636         7     0.688     0.653  25.19   0
       329    757.2646    122.3518 300.3670393 +22.6238884     175.9655     72.82586      0.948     4.08      5.47366     20.54115     50.91431         6     0.755     0.630  69.19   0
       330    829.4123    118.1750 300.3908757 +22.6442847     385.7241     72.80731      1.409     3.39     5.546307     20.54115     45.93759         5     0.771     0.430  68.09   0
       331    677.1823    114.5020 300.3446377 +22.5976551     212.2012     72.73309      1.108     4.51     5.439463     20.54115     35.44902         7     0.944     0.613  78.40   0
       332    975.5597    112.4393 300.4382984 +22.6863740     431.4356     72.88145      1.453     4.15     5.475061     20.54115     44.54239         8     1.043     0.818 -45.33   0
       333    315.2904    108.3283 300.2340137 +22.4874854     5938.808     72.97403      1.401     2.50     5.530529     20.54115     706.2213        35     1.273     1.079  81.48   0
       334    821.8256    109.2005 300.3914209 +22.6394329     405.2444     72.75166      1.346     2.08     5.575534     20.54115     54.97772         6     0.687     0.559 -40.54   0
       335    166.5550    108.0789 300.1878574 +22.4428417     737.5731     72.80731      1.418     2.89     5.723251     20.54115     92.87683        14     1.059     0.829 -77.63   0
       336    944.6311    105.8177 300.4308005 +22.6752141     338.1499     72.78876      1.249     2.32     5.474859     20.54115     63.55432         5     0.743     0.407  65.37   0
       337     10.3135    105.0102 300.1403139 +22.3951253     768.3322     72.75166      2.003     3.53     5.185934     20.54115      74.5782        13     1.065     0.921  -5.36   0
       338    330.6797     99.8420 300.2415505 +22.4896585     387.0664     72.78876      1.297     3.03     5.532322     20.54115     46.92186         5     0.733     0.446  76.45   0
       339     76.8558     98.9326 300.1629522 +22.4133288     519.8326     72.84439      1.627     3.81     5.469394     20.54115     68.85442         9     1.093     0.589  44.34   0
       340    561.3571     93.7446 300.3153015 +22.5570047     6188.618     72.80731      1.326     2.37     5.256325     20.54115     838.0679        34     1.187     1.006  72.81   0
       341    446.8504     93.7565 300.2796603 +22.5227124     593.4909     72.84439      1.217     2.27      5.38692     20.54115     91.29723         7     0.694     0.641  36.53   0
       342    813.7472     84.3453 300.3969611 +22.6298667     825.1023     72.84439      1.664     5.76     5.678069     20.54115     110.6395        17     1.910     0.675 -75.38   0
       343    755.2371     84.9554 300.3785314 +22.6125281      321.706     72.84439      1.446     2.42     5.570889     20.54115     42.94408         5     0.757     0.481  33.67   0
       344    906.4283     82.1931 300.4265480 +22.6569858     566.3148     72.80731      1.599     3.35     5.505747     20.54115       54.617        11     0.975     0.869 -87.80   0
       345    125.7250     79.7519 300.1843522 +22.4224694     196.3105     72.80731      1.256     4.47     5.717669     20.54115     31.45518         5     0.783     0.726 -65.13   0
       346    254.0337     77.3901 300.2249962 +22.4602433     447.7039     72.77021      1.386     4.91     5.564519     20.54115      67.8756         9     1.026     0.713  42.38   0
       347    689.7145     73.8123 300.3617320 +22.5897086     6349.014     72.75166      1.338     2.39     5.500291     20.54115     940.2253        36     1.224     1.034  76.72   0
       348    612.8165     75.9999 300.3370750 +22.5673136     490.1256     72.69596      1.502     3.47     5.356543     20.54115     62.82307         8     0.942     0.623 -62.65   0
       349    464.5655     72.7650 300.2919771 +22.5219862     1573.222     72.88145      1.385     2.35     5.274684     20.54115      227.922        17     1.057     0.871 -81.18   0
       350    730.7816     71.2765 300.3753465 +22.6012737     692.4777     72.80731      1.296     2.66     5.594549     20.54115     115.5149        13     1.068     0.768  84.71   0
       351    746.8366     67.3963 300.3816061 +22.6049640     749.2847     72.84439      1.663     3.03     5.655035     20.54115     75.93359        12     1.005     0.791 -78.26   2
       352    800.5955     68.8754 300.3978774 +22.6214811     274.3164     72.71453      1.430     3.47      5.76723     20.54115     32.95201         5     0.781     0.444  71.08   0
       353    213.5478     65.2202 300.2163553 +22.4446158     604.4203     72.78876      1.306     2.81       5.7957     20.54115     98.07082        11     0.970     0.731  86.56   0
       354   1016.7473     65.0281 300.4665145 +22.6850569     520.2965     72.82585      1.301     3.50     5.424751     20.54115     66.23023         9     1.029     0.644 -26.34   0
       355    785.5192     62.8735 300.3951249 +22.6152423     525.3157      72.9185      1.282     2.22     5.760036     20.54115     69.04737         7     0.787     0.574  21.14   0
       356    733.9791     58.6908 300.3804222 +22.5986118     2710.088     72.75166      1.364     2.36      5.67339     20.54115     414.9263        25     1.158     0.963  78.82   0
       357    374.8968     59.4997 300.2683798 +22.4913147     498.0218     73.01102      1.278     3.07     5.400496     20.54115     64.14724         8     0.856     0.658  49.48   0
       358    749.0104     57.4918 300.3854938 +22.6027665     812.1078     72.75166      1.761     5.48     5.718292     20.54115     83.41642        18     1.639     0.894  59.64   0
       359     27.4631     52.6962 300.1625965 +22.3852472     960.6416     72.89998      1.777     3.52     5.249352     20.54115     108.6675        18     1.311     1.075  52.67   0
       360    820.3471     50.5037 300.4099878 +22.6221088     1620.199     72.88145      1.382     2.27     5.824331     20.54115     214.4453        20     1.152     0.966  42.80   0
       361    981.0903     49.3263 300.4604830 +22.6698710     289.7439     72.97403      1.065     2.38     5.434753     20.54115     49.71691         5     0.721     0.436  17.50   0
       362    898.3870     45.2449 300.4360178 +22.6439507     300.0551     72.80731      1.287     2.66     5.629141     20.54115     39.52183         5     0.704     0.466  74.26   0
       363    758.1620     43.6143 300.3928432 +22.6015149     534.9643     72.82585      1.073     2.00     5.807309     20.54115     105.2572         7     0.694     0.582   0.88   0
       364    564.0098     42.6943 300.3326748 +22.5431247     1075.783     72.75166      1.336     2.38     5.431017     20.54115     185.1723        15     0.945     0.864  62.55   0
       365    136.8799     42.9406 300.1997492 +22.4152411     620.4738     72.86292      1.573     2.65     5.913571     20.54115     80.68024        11     0.926     0.783  26.03   0
       366    467.7419     40.9129 300.3032894 +22.5137833     810.5854     72.88145      1.381     2.86       5.2205     20.54115      115.578        12     1.009     0.747  31.35   0
       367    849.9404     39.4735 300.4227864 +22.6277927     406.5409     72.84439      1.374     4.87     5.874503     20.54115     54.16913         9     1.194     0.646  55.34   0
       368    239.1265     30.7848 300.2354669 +22.4423887     3811.936     72.80731      1.535     3.06     6.065387     20.54115     393.3749        36     1.327     1.202  62.30   0
       369    807.3633     31.6222 300.4120612 +22.6127921     539.7936     72.82586      1.180     2.09     5.915699     20.54115     99.47668         9     0.818     0.636 -43.45   0
       370     31.6427     30.8565 300.1709723 +22.3802292     409.8307     72.77021      1.637     3.30      5.27136     20.54115     41.77041         5     0.779     0.405  67.36   0
       371    661.5561     28.1086 300.3677754 +22.5681372     307.7815     72.80731      1.211     3.12     5.475963     20.54115     44.91114         8     0.814     0.672  -6.05   0
       372    800.5555     23.3902 300.4126076 +22.6083869     777.5927     72.82586      1.209     2.76     5.951487     20.54115     114.2368        12     0.993     0.767  60.22   0
       373    355.3348     22.8451 300.2741748 +22.4749223      1206.44     72.80731      1.396     2.70     5.183042     20.54115     151.3176        19     1.196     0.987  72.47   0
       374    838.2877     18.2019 300.4260484 +22.6181867     670.1774     72.73309      1.589     4.56     5.995856     20.54115     71.34252        13     1.222     0.801 -80.91   0
       375    761.8395     18.3322 300.4021829 +22.5953446     490.3474     72.77021      1.230     2.28     5.953602     20.54115      72.2615         9     0.850     0.629  65.16   0
       376    615.0082   1018.7315 300.0315615 +22.8386963      2270.38     72.78876      1.854     4.23     4.129215     20.54115     160.4247        34     1.561     1.314 -71.22  16
       377    198.4835    983.8049 299.9133718 +22.7036674     1161.999     72.73309      5.641     7.61     45.52003     20.54115     45.42632        17     1.501     1.154 -44.74   3
       378    142.2790    980.9733 299.8968295 +22.6859795      4109.78     72.80731     27.790    87.52     31.27499     20.54115      106.424      3579    20.854    14.672 -42.54  19
       379    171.8730   1007.5510 299.8973766 +22.7024829     826.4039     72.80731      4.349     4.93     61.10881     20.54115     32.90595         5     1.451     0.473   6.39   1
       380    701.5295   1013.7959 300.0601089 +22.8632362     8476.522     72.75166      1.935     4.36      4.14445     20.54115     457.7101        45     1.499     1.429 -89.63   3
