#   1 NUMBER                 Running object number                                     
#   2 X_IMAGE                Object position along x                                    [pixel]
#   3 Y_IMAGE                Object position along y                                    [pixel]
#   4 ALPHA_J2000            Right ascension of barycenter (J2000)                      [deg]
#   5 DELTA_J2000            Declination of barycenter (J2000)                          [deg]
#   6 FLUX_APER              Flux vector within fixed circular aperture(s)              [count]
#   7 FLUXERR_APER           RMS error vector for aperture flux(es)                     [count]
#   8 FLUX_RADIUS            Fraction-of-light radii                                    [pixel]
#   9 FWHM_IMAGE             FWHM assuming a gaussian core                              [pixel]
#  10 BACKGROUND             Background at centroid position                            [count]
#  11 THRESHOLD              Detection threshold above background                       [count]
#  12 FLUX_MAX               Peak flux above background                                 [count]
#  13 ISOAREA_IMAGE          Isophotal area above Analysis threshold                    [pixel**2]
#  14 A_IMAGE                Profile RMS along major axis                               [pixel]
#  15 B_IMAGE                Profile RMS along minor axis                               [pixel]
#  16 THETA_IMAGE            Position angle (CCW/x)                                     [deg]
#  17 FLAGS                  Extraction flags                                          
         1    787.0705     17.2257 300.4120448 +22.6128087     678.3184     72.57732      1.392     3.23     4.806287     20.47627     96.25175        11     1.018     0.702  69.09   0
         2    219.0804     16.7012 300.2354447 +22.4425590     3944.892     72.70661      1.516     2.60     4.344366     20.47627     471.2356        32     1.384     1.105  44.97   0
         3    641.5281     13.5521 300.3678977 +22.5681851     418.4463     72.55883      1.642     3.32     4.315423     20.47627     39.95714         7     0.841     0.653  70.57   0
         4    780.4688      9.2971 300.4125564 +22.6085537     849.3882     72.70661      1.337     2.74     4.837141     20.47627     105.9338        13     0.978     0.830  -2.19   0
         5    335.1589      8.9469 300.2740474 +22.4751105     1247.443     72.57732      1.397     2.22     4.533511     20.47627     180.2592        18     1.071     0.971  45.37   0
         6    745.7089      8.5050 300.4019829 +22.5979218      239.126     72.76195      1.119     3.32     4.868964     20.47627     39.98923         6     0.886     0.454 -88.82   0
         7    818.2960      4.4623 300.4259105 +22.6184851     787.3626     70.64758      1.600     4.29     4.704842     20.47627     69.92316        14     1.283     0.765  71.31  16
         8    741.7350      4.2549 300.4021218 +22.5955108      495.337     69.99889      1.366     2.96     4.896671     20.47627     56.74817         8     0.840     0.660  87.50  16
         9    838.3069      1.3863 300.4331437 +22.6235895     1425.118     56.76914      0.984     2.49     4.559335     20.47627     305.7915        12     0.995     0.554   0.69  24
        10    594.8085   1004.6481 300.0315885 +22.8386511     2239.409      72.5958      1.814     4.32     2.775271     20.47627     153.3414        33     1.390     1.338 -26.30   0
        11    342.9402   1023.7314 299.9470201 +22.7685291     190.4944     56.12739      1.173     3.89     12.90506     20.47627     58.34534         6     1.316     0.330  13.44  24
        12    279.4148   1013.3556 299.9306457 +22.7464850     2066.361      72.5958      5.247    23.96     59.54823     20.47627     67.78835        95     6.795     2.346  -1.61  19
        13    248.0972    999.2456 299.9255012 +22.7330400     4144.759      72.5958      8.462    28.80     60.19129     20.47627     82.69143       313     6.181     4.700 -73.62  19
        14    266.2383    998.6154 299.9313449 +22.7383062     5285.516      72.5958     12.706    49.02     54.83485     20.47627     100.9562       691    12.838     5.194 -51.99  19
        15    287.8745    988.4099 299.9413903 +22.7418781     8322.614     72.57732      7.072    30.90     41.80746     20.47627     175.1661       595    10.798     4.062  63.49  19
        16    278.6954    981.8433 299.9406729 +22.7372411     4666.703      72.5958      0.788     6.57     40.54541     20.47627     2370.109        31     1.221     0.993  11.95   3
        17    197.2619   1021.1475 299.9025779 +22.7240496     856.9075     68.64407      2.248     7.60     83.66907     20.47627     34.06367        11     2.032     0.796 -84.70  26
        18    182.6038   1020.5670 299.8982120 +22.7194816      1262.27     70.49548      3.394    10.58     83.66907     20.47627     46.63306        21     2.130     1.465 -50.01  27
        19    180.3137   1018.0253 299.8983273 +22.7180660     1087.653     72.52184      2.337    10.95     81.40087     20.47627     64.49289        25     3.144     1.063 -56.57  18
        20    132.0112   1013.7928 299.8846973 +22.7023481     5067.416      72.4478     13.888    64.31     67.25191     20.47627     108.7084      1153    15.148     7.575  37.40  27
        21      9.5977   1022.2788 299.8439191 +22.6680098     1088.083     63.69666      5.785     8.68    -15.08334     20.47627     43.41695        15     2.143     0.983  30.59  27
        22    545.4061    988.8804 300.0213412 +22.8193078     388.2985     72.50334      1.716     4.30     2.708694     20.47627     43.89476         7     1.003     0.694 -19.20   0
        23      3.9759    988.9383 299.8530187 +22.6567753     955.9982     68.97555      4.654     5.40    -12.02059     20.47627     39.91174         5     1.159     0.710   4.12  17
        24    973.3922    983.7063 300.1563483 +22.9461886     691.5645     72.48483      1.817     5.13     2.544226     20.47627      60.6798        11     1.291     0.759 -83.87   3
        25    976.3350    983.0389 300.1574831 +22.9468793     406.5872     72.55883      1.608     6.91     2.545235     20.47627      33.4947         8     1.931     0.694 -80.92   3
        26    125.2360    929.8258 299.9099026 +22.6762643     3828.468      72.5958     18.633    52.32     10.14958     20.47627     82.20933       881    11.329     6.704 -32.27   3
        27      2.2762    972.8519 299.8577231 +22.6516587     950.2034     61.64139      6.516     7.53    -8.915031     20.47627     51.13498        13     1.617     0.980 -86.37  24
        28    194.7642    970.7618 299.9181915 +22.7088672     1061.633     72.65123      3.951     5.91     45.86578     20.47627     52.02082        18     1.511     1.069 -63.83   3
        29    191.4033    968.3965 299.9179164 +22.7071805     1569.646     72.35515      7.450    14.56     43.59758     20.47627       45.779        42     2.854     2.065 -11.09   3
        30    464.2240    972.7280 300.0013342 +22.7903167     554.9175     72.61429      0.654     0.92      2.69675     20.47627     296.9942         5     0.572     0.457  50.86   0
        31    699.5320    966.8397 300.0764945 +22.8592270     6781.646     72.54034      1.854     4.10     2.975889     20.47627     377.6696        45     1.457     1.400  65.97   0
        32    852.5061    959.9119 300.1264054 +22.9031174     480.1223     72.76195      2.350     6.54     2.860381     20.47627     32.00842         6     1.160     1.034 -81.10   0
        33    579.2833    961.3338 300.0408457 +22.8215752     538.0428     72.68816      1.902     5.65     2.779395     20.47627      41.7945        11     1.256     0.717   1.62   0
        34    686.8046    997.5269 300.0625483 +22.8642091     9044.129     72.52184      1.859     4.27     2.800316     20.47627     595.5571        48     1.521     1.371  45.61   3
        35    608.0031    957.8580 300.0509164 +22.8291949     1533.899     72.54034      1.883     5.08     2.802029     20.47627     93.58801        25     1.472     1.148  36.09   0
        36      2.4727   1002.4752 299.8481489 +22.6601996     1209.384     62.67745     11.533    13.61     -16.5612     20.47627     38.13343        33     2.532     2.035 -14.77  27
        37    501.6143    954.1445 300.0190122 +22.7962101     845.3884     72.55883      1.687     5.19     2.722617     20.47627      61.0668        20     1.353     1.084 -52.80   0
        38      3.3712   1015.8372 299.8440814 +22.6642951     1766.355     66.70111     10.499    20.92    -19.46081     20.47627     60.32574        66     4.998     2.432 -16.64  27
        39    432.4328    951.9938 299.9981882 +22.7748333     6493.665     72.57732      1.789     4.00     3.005886     20.47627     512.7966        42     1.392     1.377 -39.08   0
        40    156.3647    996.9121 299.8977544 +22.7048270       1220.8     72.55883      5.747     8.94     63.86101     20.47627     39.74383        15     1.826     1.221  86.50   3
        41    162.4696    932.1581 299.9207118 +22.6881123     1567.635     72.54034     15.399    18.75     16.37921     20.47627     43.96819        50     4.107     2.378  -0.68   3
        42    629.0853    928.0597 300.0671716 +22.8269750     363.4128     72.68816      1.635     5.64     2.875362     20.47627     36.74245         9     1.367     0.751  34.50   0
        43    978.6772    930.8622 300.1751857 +22.9326093     2309.497     72.65123      2.003     5.15     2.923597     20.47627      126.031        30     1.523     1.279 -43.80   0
        44    464.4381    939.0711 300.0123477 +22.7807338     439.5922     72.55883      1.739     6.76     2.884872     20.47627     40.01141        13     1.417     0.904  63.07   0
        45    767.7164    919.8395 300.1130196 +22.8661966     725.5692     72.54034      1.931     6.55      3.36115     20.47627     47.83655        17     1.509     0.931  71.37   0
        46    163.7368    910.9105 299.9280148 +22.6824060     1310.091     72.66969     14.906    15.31     11.80639     20.47627     40.85635        32     3.087     2.111  85.01   3
        47    824.6662    907.5624 300.1347562 +22.8797516     11381.46     72.55883      1.786     3.97     3.289359     20.47627     695.3945        49     1.405     1.390  66.23   0
        48   1017.1800    907.2053 300.1948866 +22.9373607     351.1709     72.55883      1.592     3.74     3.136454     20.47627     41.47282         5     1.495     0.269 -79.24  16
        49    870.8622    907.6276 300.1491315 +22.8936210     461.1808     72.57732      1.807     6.53     3.193124     20.47627     34.01221        10     1.305     0.917  13.89   0
        50    579.8401    914.7775 300.0561608 +22.8083938      509.462     72.61429      1.685     6.03     2.904418     20.47627     39.68161        10     1.062     0.963  -5.37   0
        51    802.4191    914.0419 300.1257169 +22.8749397     1018.356      72.5958      1.753     4.66     3.298896     20.47627     67.05623        22     1.266     1.182 -72.60   0
        52    215.5990    993.5526 299.9172529 +22.7216516     1477.975     72.57732      3.961    10.20     63.25529     20.47627     54.26352        27     1.929     1.504  15.27   3
        53    136.1536    899.2857 299.9232250 +22.6707941     1178.729     72.55883      4.841     4.90     8.203999     20.47627     64.26782        18     1.512     0.955 -70.85   0
        54    875.6061    895.0682 300.1546944 +22.8914396     380.4905     72.54034      1.496     5.59      3.28823     20.47627     36.23575        10     1.093     0.813 -14.32   0
        55    833.3438    889.6310 300.1432914 +22.8772089     1442.156      72.5958      1.812     4.36     3.409409     20.47627     100.2152        23     1.303     1.196 -25.47   0
        56    211.0000    980.0439 299.9202177 +22.7164010     794.3058     72.55883      2.924     8.55     52.67037     20.47627     43.12408        14     2.280     0.896 -80.16   3
        57    529.6454    895.6921 300.0467445 +22.7878630     469.2938     72.57732      1.668     4.19     2.993811     20.47627     53.10952         9     1.042     0.654   8.09   0
        58   1016.4755    889.0350 300.2005760 +22.9319344     483.2218     72.54034      1.994     5.30     3.296613     20.47627     39.38479         7     1.256     0.631 -20.23  16
        59    685.4197    887.2076 300.0979980 +22.8321562     569.3642     72.54034      1.857     4.79     3.427709     20.47627     57.23763         9     1.044     0.706 -17.61   2
        60    871.1269    882.8658 300.1572664 +22.8865955     767.3776     72.61429      1.795     6.10     3.409674     20.47627     56.91118        17     1.259     1.176  85.19   0
        61    554.0093    882.9295 300.0584771 +22.7915128     675.8525     72.55883      0.452     1.89     3.030395     20.47627     501.6214         5     0.366     0.308  89.04   0
        62    214.5920    989.2234 299.9183482 +22.7201091     1136.207     72.57732      4.402    10.86     59.47496     20.47627     52.57846        20     2.759     1.191  17.37   3
        63    919.4942    874.4924 300.1750657 +22.8986921     499.8648     72.74351      1.580     4.74     3.253087     20.47627     54.57553        11     1.116     0.850 -66.18   0
        64    770.9161    873.3530 300.1291334 +22.8538208     636.5353     72.57732      1.556     5.13     3.604442     20.47627     60.21199        15     1.226     0.973  13.72   0
        65    782.2831    870.5936 300.1335720 +22.8564375     501.1032     72.50334      1.441     4.30     3.595699     20.47627     55.15621        13     1.113     0.897  24.30   0
        66    483.7031    869.6671 300.0409106 +22.7666179     4328.059     72.66969      1.670     3.53     3.435698     20.47627     396.2061        34     1.300     1.248  89.82   0
        67    262.7429    858.9167 299.9756884 +22.6972295     487.8197     72.66969      1.710     4.10     4.518464     20.47627     55.34944         5     1.020     0.471 -25.43   0
        68    781.2756   1000.4151 300.0910344 +22.8933740     644.7614     72.57732      2.137     6.95     2.735214     20.47627     51.67578        12     1.498     1.100  88.94   0
        69    209.2264    855.2672 299.9602416 +22.6801201     832.0445     72.55883      1.613     3.89     5.571452     20.47627     82.13464        18     1.246     1.008 -66.82   0
        70    185.8548    852.3522 299.9539264 +22.6722691     1662.604     72.61429      1.790     4.33     5.468736     20.47627     162.1392        26     1.368     1.243 -15.77   0
        71   1012.0432    840.0983 300.2151060 +22.9165594     2068.704     72.57732      1.931     4.40     3.559575     20.47627     118.4364        29     1.390     1.291 -30.85   0
        72    681.1930    999.7527 300.0600766 +22.8631639     8855.074      72.5958      1.943     4.63     2.786564     20.47627      495.658        47     1.572     1.426   4.22   3
        73    717.2737    840.3687 300.1231481 +22.8282734     520.4585      72.5958      1.789     5.65     3.638283     20.47627     42.41057        10     1.206     0.747 -34.07   0
        74    795.5549    834.3459 300.1494923 +22.8500171     590.0958     72.61429      1.527     4.19     3.602538     20.47627     51.30822        11     1.108     0.752 -19.18   0
        75    218.4064    833.7819 299.9700790 +22.6767190     377.5829     72.54034      1.689     5.80     4.845448     20.47627     52.97701         9     1.282     0.786  62.37   0
        76    663.6445    827.8388 300.1105198 +22.8085971     4748.657     72.65123      1.601     3.41     3.577535     20.47627      446.112        35     1.257     1.230 -15.36   0
        77    153.9778    828.1802 299.9518793 +22.6557740     370.6315     72.57732      1.381     3.06     4.553756     20.47627     60.50768         5     0.951     0.378  61.81   0
        78    465.7281    824.9991 300.0498397 +22.7484183      539.372     72.46632      1.517     3.67     3.514724     20.47627     69.30241        16     1.135     0.991 -73.49   0
        79    213.9143    821.3613 299.9727203 +22.6718113     1313.721     72.55883      1.674     3.62     4.396701     20.47627      122.688        21     1.210     1.112  71.57   0
        80    684.2199    820.3404 300.1193648 +22.8126163     517.7834     72.52184      1.389     4.01     3.595643     20.47627     55.25301        10     0.984     0.784 -48.02   0
        81    233.4155    818.9203 299.9795746 +22.6769651     454.1092      72.5958      1.538     5.80     4.248311     20.47627       42.639        12     1.000     0.946 -25.55   0
        82    839.7933    807.5997 300.1719721 +22.8556046      4274.62     72.39222      1.644     3.48     3.655057     20.47627     346.0893        33     1.256     1.237 -35.55   0
        83    248.3925    801.8403 299.9897814 +22.6765651     406.9936     72.61429      1.518     4.05     3.725835     20.47627     47.95832         7     0.926     0.735  -7.56   0
        84    556.6512    800.2769 300.0861700 +22.7686033     533.7706     72.57732      1.604     4.10     3.426161     20.47627     65.37112        12     1.227     0.822 -30.20   0
        85    203.2506    798.0572 299.9769810 +22.6619324      812.684     72.63276      1.544     5.01     3.696478     20.47627     83.82437        14     1.197     0.885  39.92   0
        86    352.7538    790.0986 300.0260436 +22.7045169     54186.21     72.61429      1.597     3.23     3.671866     20.47627     4980.569        88     1.409     1.373  49.40   0
        87    618.1038    793.5199 300.1074959 +22.7850958     485.1579     72.70661      1.358     4.11     3.559017     20.47627     58.19349        11     1.093     0.734 -88.69   0
        88    610.6604    789.0745 300.1066235 +22.7815884     1539.097     72.61429      1.494     3.23     3.547571     20.47627     159.7467        19     1.122     1.004  66.76   0
        89    280.9818    788.3868 300.0042844 +22.6824894       456.68     72.54034      1.841     6.69     3.660338     20.47627     37.19107        10     1.467     0.855 -78.22   0
        90   1022.8435    788.6180 300.2352103 +22.9050172     597.2242     61.00691      1.424     4.14     3.637952     20.47627     60.99094        13     1.052     0.853 -87.79  24
        91    639.5515    785.3354 300.1168339 +22.7891799     797.0475      72.5958      1.455     3.10     3.560921     20.47627     95.53107        14     1.053     0.856  20.67   0
        92     38.9821    784.5107 299.9303530 +22.6087393     860.2206     72.50334      1.888     4.79     3.715605     20.47627     83.81619        18     1.503     1.120  32.17   0
        93      5.9776    784.7856 299.9200151 +22.5989087     712.5524     72.57732      1.767     5.25     3.719332     20.47627      65.0804        14     1.413     1.031  23.06  16
        94    650.7076    783.6522 300.1208547 +22.7920425     554.4645     72.63276      1.434     3.10     3.567595     20.47627     90.93137        12     1.129     0.765 -13.90   0
        95    756.0521    780.3405 300.1547408 +22.8226783     495.7645     72.63276      1.527     3.78     3.586591     20.47627     50.73747        11     1.022     0.740  71.47   0
        96    793.6794    770.4428 300.1696805 +22.8311183      686.619     72.55883      1.513     3.96     3.584672     20.47627     75.63677        14     1.126     0.897 -13.71   0
        97    416.7164    767.9893 300.0531227 +22.7173685     2090.152     72.54034      1.599     3.25     3.519849     20.47627     205.1795        27     1.223     1.194 -76.08   0
        98    402.5057    767.3578 300.0489076 +22.7129242     31735.96      72.5958      1.563     2.95     3.539425     20.47627     3287.442        78     1.378     1.332   7.33   0
        99    925.5917    763.4072 300.2130796 +22.8686371     2807.332     72.42928      1.692     3.30     3.756647     20.47627     227.8954        29     1.249     1.184  33.50   0
       100    413.6520    761.7113 300.0542097 +22.7146491     690.4996      72.5958      1.774     3.42      3.52164     20.47627     62.02969        10     0.877     0.816  88.46   0
       101    683.4972    759.4586 300.1389287 +22.7949337     991.8099     72.65123      1.526     3.52     3.574193     20.47627     91.63009        16     1.060     0.981 -73.17   0
       102    285.1134    759.1497 300.0150707 +22.6753487     837.2062     72.57732      1.524     3.84     3.564805     20.47627      77.8139        15     1.058     0.983 -23.16   0
       103    520.0429    759.1267 300.0881510 +22.7458214     459.7841     72.55883      1.598     3.95     3.409818     20.47627     46.38337         6     0.939     0.475  29.71   0
       104    530.5842    754.0051 300.0930960 +22.7475142     753.9775     72.50334      1.407     3.59      3.40101     20.47627     80.62059        14     1.038     0.949 -56.23   0
       105     89.3428    754.6411 299.9557006 +22.6153002     434.6658     72.55883      1.568     5.88     3.653102     20.47627     58.32947        13     1.250     1.008  39.48   0
       106    931.5949    750.9769 300.2189911 +22.8668679     405.3015     72.55883      1.475     5.36     3.784447     20.47627      48.5063         9     1.125     0.721 -52.83   0
       107    432.7144    750.5387 300.0637703 +22.7171640     409.9457     72.68816      1.717     5.30     3.490699     20.47627     33.35849         8     1.094     0.725  29.31   0
       108    388.8529    749.8428 300.0503532 +22.7038063     375.0031     72.57732      1.496     3.49     3.536409     20.47627     49.19407         7     1.103     0.698  67.15   0
       109    476.6321    748.9224 300.0779589 +22.7298743     429.0438     72.55883      1.432     2.88     3.422084     20.47627     70.86854         9     0.919     0.741  36.35   0
       110    118.5020    748.1669 299.9668623 +22.6221979      606.899     72.55883      1.767     5.22     3.592756     20.47627     60.02766        13     1.494     0.990  13.81   0
       111    685.3123    748.3075 300.1431180 +22.7922786     278.8352     72.74351      1.230     3.77     3.570071     20.47627     39.75202         5     0.909     0.448  44.92   0
       112    909.5479    745.6537 300.2138481 +22.8587328     359.5024     72.61429      1.422     5.70     3.786627     20.47627     35.01089        10     1.123     0.815 -21.32   0
       113    282.7965    743.5940 300.0194054 +22.6701943     561.1814     72.39222      1.578     4.53     3.514421     20.47627     67.30499        13     1.251     0.903  33.97   0
       114    605.9499    733.9908 300.1230591 +22.7643749      418.277     72.57732      1.436     3.55     3.458636     20.47627     45.17739         8     0.900     0.680   2.01   0
       115    575.7761    732.1291 300.1142710 +22.7547926     643.7432      72.5958      1.735     4.00     3.426991     20.47627     63.44201        14     1.128     0.915  42.06   0
       116    484.9583    731.7009 300.0861459 +22.7274327      451.434     72.55883      1.588     5.51     3.394292     20.47627     35.71482        11     1.106     0.798   1.77   0
       117    597.4214    729.6203 300.1218243 +22.7605638     1403.683     72.57732      1.485     2.93     3.449143     20.47627     153.8206        19     1.058     1.027 -28.63   0
       118    992.0637    728.6722 300.2450944 +22.8785839     4587.772     72.61429      1.673     3.55     3.682026     20.47627     357.1275        34     1.267     1.266 -44.74   0
       119    516.8613    729.6555 300.0967381 +22.7364146     390.7374     72.65123      1.513     4.65     3.394292     20.47627     47.04086         8     0.948     0.647 -16.38   0
       120    679.3817    724.6224 300.1489679 +22.7837049      297.754     72.57732      1.436     4.78     3.564428     20.47627     39.71306         8     1.025     0.632 -20.15   0
       121    980.6699    720.0793 300.2443338 +22.8727029      1801.96     72.68816      1.793     3.75     3.733342     20.47627     130.1304        24     1.303     1.140 -57.35   0
       122    343.3762    713.9352 300.0478781 +22.6798676      829.647     72.55883      1.468     2.83     3.585032     20.47627     124.6086        17     1.221     0.926 -17.50   0
       123    806.9337    711.3338 300.1930196 +22.8181278     2664.645     72.63276      1.601     3.17     3.592091     20.47627     239.9705        29     1.383     1.115   8.18   0
       124   1011.5895    710.1410 300.2572057 +22.8791133     1613.787     72.52184      1.718     3.83      3.71161     20.47627     124.2742        23     1.259     1.195  54.24   0
       125     29.2305    701.3448 299.9543481 +22.5819843     948.6635      72.5958      1.756     4.71     3.646089     20.47627     89.60795        20     1.375     1.101 -52.25   0
       126    889.3174    697.2892 300.2232583 +22.8387866     599.7065     72.68816      1.686     5.66     3.832172     20.47627     48.34914        14     1.307     0.969  32.80   0
       127    192.1406    697.7240 300.0061319 +22.6298421     631.3138     72.63276      1.422     3.04     3.482797     20.47627      85.6955        11     0.955     0.771  71.90   0
       128    925.2995    688.2707 300.2374054 +22.8469797     147957.7     72.72506      1.597     3.13     3.854234     20.47627      13606.6       158     1.485     1.445 -80.06   0
       129    687.5541    692.2335 300.1620372 +22.7768614     364.3174     72.61429      1.408     4.47     3.552211     20.47627     40.83653         8     1.013     0.562  15.51   0
       130    777.5765    688.5436 300.1912777 +22.8027876     778.2769      72.5958      1.442     3.15     3.546762     20.47627      81.7539        12     0.921     0.849  12.53   0
       131    958.3829    681.2794 300.2499918 +22.8548851     421.1071     72.57732      1.425     5.02      3.84901     20.47627     45.20138        12     1.102     0.869  -6.98   0
       132    228.9302    679.9778 300.0233307 +22.6357946     1394.704      72.5958      0.480     2.18     3.501993     20.47627     943.6541         6     0.404     0.359  51.56   0
       133    611.5558    677.0723 300.1432984 +22.7497265     1674.949     72.55883      1.380     2.75      3.46668     20.47627      207.444        18     1.000     0.967  58.40   0
       134    792.7070    674.3899 300.2005904 +22.8032602     9281.338     72.52184      1.454     2.74     3.560105     20.47627     1029.152        37     1.198     1.124  53.98   0
       135    294.2815    669.4244 300.0470738 +22.6523766     4857.398     72.54034      1.484     2.76     3.692893     20.47627     559.5507        35     1.201     1.153  18.81   0
       136    376.2412    667.5656 300.0731635 +22.6764303      1134.74     72.63276      1.402     2.68     3.694202     20.47627     130.6807        20     1.098     1.025  48.27   0
       137      8.2271    667.7835 299.9587286 +22.5660630      1572.52      72.5958      1.671     3.16     3.683022     20.47627     185.9066        24     1.237     1.126  49.01  16
       138    251.9845    665.2555 300.0352792 +22.6384913     473.2391     72.55883      1.481     4.54      3.61245     20.47627     45.52065        10     1.101     0.746 -60.27   0
       139    584.5865    663.2601 300.1393897 +22.7376774     654.2764     72.54034      1.286     2.60     3.559964     20.47627     103.6851        12     0.920     0.783  14.87   0
       140    576.2616    655.1885 300.1394203 +22.7328656     3323.937     72.54034      1.364     2.65     3.659191     20.47627     359.3276        23     1.041     1.022  45.68   0
       141    566.4664    648.9196 300.1384077 +22.7281301     1451.325     72.68816      1.397     2.66     3.740763     20.47627     182.6914        18     1.088     0.933  43.95   0
       142    960.3701    646.8250 300.2618051 +22.8455873     473.3117     72.57732      1.619     4.78     3.976978     20.47627     43.43013        10     1.131     0.904 -52.59   0
       143    229.7355    644.9152 300.0349707 +22.6259845     541.4333     72.66969      1.330     3.38     3.702131     20.47627     71.19936        10     0.918     0.749 -30.94   0
       144    243.9784    643.5652 300.0398362 +22.6298707     577.8214      72.5958      1.307     3.04     3.705657     20.47627     69.89653         9     0.899     0.696  13.77   0
       145   1013.3716    640.3243 300.2804451 +22.8595984     535.1888     72.57732      1.637     5.29     4.233011     20.47627     47.85796        14     1.209     0.947  50.69   0
       146    590.1469    639.5768 300.1488140 +22.7325495      424.609      72.5958      1.385     3.33      3.83912     20.47627     59.51103         8     0.872     0.742 -80.75   0
       147    491.3047    638.5898 300.1183712 +22.7026291     1771.727     72.50334      1.355     2.53     3.897467     20.47627     217.9151        20     1.060     0.951  49.96   0
       148    300.9954    640.2045 300.0586528 +22.6460125     300.7203     72.42928      1.165     2.79     3.695176     20.47627     42.57652         5     0.782     0.465  68.92   0
       149    269.9926    640.3589 300.0489642 +22.6367561     561.9868      72.5958      1.429     4.32     3.708502     20.47627     55.58408         7     0.755     0.705  -7.05   0
       150     66.0937    635.3423 299.9872362 +22.5741351     800.0283     72.63276      1.726     4.63     3.853531     20.47627     66.02006        14     1.208     1.021 -53.41   0
       151    145.1978    633.5071 300.0124055 +22.5973482     19889.96     72.48483      1.599     2.88     3.802524     20.47627      2359.58        57     1.374     1.311  58.74   0
       152    576.2427    633.9136 300.1463253 +22.7267559     1003.358     72.55883      1.372     2.62      3.93009     20.47627     140.6669        15     1.005     0.871 -53.30   0
       153    611.1140    633.0261 300.1574693 +22.7369560     443.2494     72.55883      1.493     3.79     3.898055     20.47627     39.39816         5     0.837     0.493  24.05   0
       154    947.6305    630.3852 300.2631733 +22.8370500     195.0002     72.57732      1.309     4.45     3.984858     20.47627     33.53614         5     1.184     0.476   5.38   0
       155    994.1957    620.3471 300.2809542 +22.8481170     929.8774     72.55883      1.452     3.12     4.327467     20.47627     101.2698        15     1.039     0.897  -7.63   0
       156     91.1121    617.8434 300.0006904 +22.5766280     1673.126     72.57732      2.016     4.43     3.952223     20.47627     125.1686        30     1.550     1.302  85.41   0
       157    860.9736    618.3220 300.2400779 +22.8076227     637.0308     72.57732      1.816     3.34      3.81084     20.47627     50.05576        10     0.873     0.774  85.02   0
       158    157.1779    617.8802 300.0212032 +22.5964635     395.0581     72.54034      1.399     2.88     3.907919     20.47627     67.33018         8     0.898     0.732  14.29   0
       159    539.4439    614.5970 300.1411454 +22.7101806     408.0309      72.5958      1.217     2.85      4.25276     20.47627     65.54304         8     0.820     0.724  54.95   0
       160    332.2454    613.7315 300.0769678 +22.6477953     459.5318     72.55883      1.787     4.35     3.697223     20.47627     40.83123         9     1.006     0.714 -71.39   0
       161    933.4348    612.8716 300.2644362 +22.8277680     963.7033     72.57732      2.315     6.12     3.916889     20.47627     82.00526        19     1.909     0.866   5.79   0
       162    496.3011    606.8420 300.1302377 +22.6950198     716.5441     72.55883      1.376     2.74     4.345645     20.47627     104.0333        12     1.018     0.744  65.76   0
       163    644.0864    605.4819 300.1766821 +22.7389364      487.442     72.70661      1.309     3.85     4.173547     20.47627     62.94933        11     1.074     0.784 -60.55   0
       164    691.8908    604.0195 300.1920439 +22.7528458     429.5702     72.50334      1.194     3.36     4.040236     20.47627     61.90882         9     0.945     0.739  53.70   0
       165    661.9601    603.5947 300.1828607 +22.7437525     558.1676      72.5958      1.239     2.81     4.165987     20.47627     79.99084        10     0.888     0.765 -60.45   0
       166    540.5347    602.5685 300.1453916 +22.7070565     993.4482     72.57732      1.471     2.93     4.354123     20.47627     129.8991        15     1.060     0.868 -75.86   0
       167    974.2474    598.3139 300.2818901 +22.8358137     3247.001     72.55883      1.490     2.80     4.275211     20.47627      350.726        29     1.170     1.151  37.84   0
       168    506.0036    598.1876 300.1360677 +22.6954461     1756.153     72.41075      1.410     2.82     4.364508     20.47627     201.5392        22     1.072     1.016 -77.66   0
       169    871.0390    595.9273 300.2504890 +22.8042087     218.5142     72.55883      1.127     2.91     3.814484     20.47627     38.11979         5     0.612     0.607  51.33   0
       170    481.2015    593.4069 300.1299025 +22.6866378     281.4436     72.39222      1.269     2.86     4.374927     20.47627     55.00657         6     0.790     0.488  -4.89   0
       171     67.9184    591.6384 300.0019963 +22.5621567     5210.855     72.54034      1.683     3.30     4.013061     20.47627     560.5591        38     1.374     1.285   9.41   0
       172    369.4544    584.8528 300.0979177 +22.6506731     8958.688     72.61429      1.418     2.54     3.777153     20.47627     1219.618        39     1.190     1.130  70.34   0
       173    491.9235    581.9113 300.1369721 +22.6865547     8931.049     72.72506      1.338     2.49     4.397979     20.47627      1262.58        35     1.118     1.073  54.81   0
       174    461.6367    581.6900 300.1276200 +22.6774099     162.3832     72.55883      0.962     3.75     4.278204     20.47627     39.81863         5     1.009     0.400  73.29   0
       175    903.7100    575.9248 300.2671692 +22.8082533     1776.717     72.74351      1.459     2.75     3.880717     20.47627     185.9138        24     1.147     1.060 -80.67   0
       176    988.2932    573.4002 300.2943615 +22.8328657     12555.86      72.4478      1.558     3.01     4.430581     20.47627     1302.299        46     1.294     1.263 -76.67   0
       177    552.4844    571.5286 300.1591913 +22.7017328     11762.06     72.68816      1.301     2.27     4.424359     20.47627     1647.928        43     1.180     1.072  77.66   0
       178    722.0018    567.3685 300.2133254 +22.7513504     562.3279     72.54034      1.410     3.41     3.999709     20.47627     57.87944         9     0.897     0.678  57.50   0
       179    280.0869    566.8795 300.0759656 +22.6187140     1426.342     72.74351      1.438     3.13     3.760921     20.47627     178.2063        18     1.091     0.967   6.51   0
       180    526.5667    564.7524 300.1533251 +22.6920184     298.3809     72.61429      1.206     3.06       4.4336     20.47627     50.56199        10     0.949     0.686  -1.92   0
       181    827.0552    560.0976 300.2484170 +22.7807428     827.7819     72.66969      1.316     2.49     3.805238     20.47627     115.5787        10     0.846     0.743  56.50   0
       182    484.1303    559.6852 300.1417645 +22.6778413     4331.526     72.68816      1.320     2.43     4.444036     20.47627     587.5778        29     1.101     1.044  41.21   0
       183    462.4322    557.9879 300.1355643 +22.6708485     1253.382     72.55883      1.338     2.56     4.380337     20.47627     158.0004        16     0.973     0.893  65.25   0
       184    216.7034    557.5481 300.0592931 +22.5970250     635.3743     72.65123      1.450     3.70     3.980799     20.47627     81.56983        12     1.083     0.879  26.90   0
       185    903.8605    555.3758 300.2738894 +22.8023974     1690.315     72.55883      1.523     2.77     3.896868     20.47627     192.9303        19     1.112     0.948  38.40   0
       186    600.7784    547.2651 300.1821036 +22.7092472     202133.9     72.54034      1.324     2.40     4.652092     20.47627      26493.5       200     1.413     1.401  51.05   0
       187    784.3907    552.1538 300.2377022 +22.7656784     850.7939      72.5958      1.324     2.62     3.863671     20.47627     111.3348        15     0.983     0.908  10.50   0
       188    424.7396    553.1901 300.1253956 +22.6581700     357.3492     72.54034      1.226     3.48     4.290458     20.47627     49.77853         6     0.873     0.494 -56.94   0
       189    369.6200    547.5863 300.1100703 +22.6400335     161.8399     72.54034      1.121     3.41     3.891843     20.47627     28.77992         5     1.079     0.311 -68.85   0
       190    286.8818    547.0558 300.0845148 +22.6150670     3502.035     72.61429      1.418     2.64     3.747342     20.47627     436.7691        27     1.172     1.060  70.23   0
       191    852.8887    543.3797 300.2618967 +22.7836824     533.2497     72.50334      1.759     3.84     3.807881     20.47627     54.81202         8     1.073     0.825 -80.74   0
       192    466.3966    544.1340 300.1412962 +22.6680625     292.8599      72.5958      1.611     3.34     4.444324     20.47627     43.04612         7     0.817     0.640 -67.40   0
       193    632.2515    533.8565 300.1962564 +22.7148326     339.2827     72.63276      1.432     2.83     4.503294     20.47627     45.57507         6     0.715     0.591 -51.64   0
       194    335.7961    530.1501 300.1052127 +22.6248885     428.7485     72.57732      1.229     1.76     3.872157     20.47627     85.05199         6     0.680     0.530 -40.66   0
       195    941.1334    528.4105 300.2942657 +22.8058182     232.0787     72.57732      1.313     3.61       4.0661     20.47627     38.16793         5     0.872     0.542 -48.11   0
       196    491.3702    527.4512 300.1544835 +22.6707633     2811.613      72.5958      1.333     2.31     4.469565     20.47627     354.5728        21     1.020     0.939  58.85   0
       197    902.8925    523.7965 300.2838417 +22.7930384     429.6225     72.48483      1.300     3.36     3.915136     20.47627     52.87974         9     0.904     0.680 -55.85   0
       198    722.0810    523.3632 300.2276390 +22.7387417     275.9914     72.54034      1.154     3.30     4.071937     20.47627     45.17766         7     0.740     0.657  26.92   0
       199    808.7183    516.3359 300.2569125 +22.7626834     447.5455     72.68816      1.487     3.85     3.820498     20.47627     46.65717         9     1.100     0.598  39.43   0
       200    888.4898    513.8577 300.2825790 +22.7858696     1704.401     72.63276      1.451     2.56     3.894362     20.47627     239.4198        22     1.206     1.027  21.38   0
       201    759.6896    511.4634 300.2432183 +22.7465945     2618.891     72.66969      1.354     2.44     3.960273     20.47627     323.3557        23     1.073     0.999 -53.24   0
       202     18.5546    512.4507 300.0123760 +22.5246453     743.2232      72.5958      1.847     4.00     3.906053     20.47627     92.01331        15     1.170     1.042 -39.58   0
       203    119.4688    511.7483 300.0439482 +22.5547226     325.7768     72.55883      1.793     3.19     3.994631     20.47627     44.10891         5     0.824     0.571 -39.01   0
       204   1003.6912    509.2891 300.3199816 +22.8190621     429.6699     72.74351      1.271     3.17     4.544592     20.47627     58.32434         6     0.853     0.511  44.26   0
       205    968.8797    508.4525 300.3093973 +22.8083961     328.3176      72.5958      1.501     4.34     4.274629     20.47627     41.30042         8     1.092     0.750  79.13   0
       206    664.1357    507.7394 300.2146644 +22.7168919     536.8734     72.61429      1.492     3.49     4.216616     20.47627     71.47294        10     1.057     0.607  62.46   0
       207    547.0297    507.1458 300.1783980 +22.6816222     710.6179     72.57732      1.291     2.61     4.405301     20.47627     99.86504        11     0.936     0.725  86.75   0
       208   1016.9858    505.3619 300.3254030 +22.8219154     1235.679      72.5958      1.517     4.05     4.635765     20.47627     130.4128        20     1.205     1.033 -29.19  16
       209   1002.6360    504.7976 300.3211108 +22.8174559     738.1968     72.57732      1.747     4.04     4.529565     20.47627     94.32649        14     1.339     0.710  43.56   0
       210    888.6451    504.3742 300.2857064 +22.7831926     2266.098      72.5958      1.579     2.56     3.905778     20.47627      233.735        23     1.279     1.002  69.41   2
       211    642.1517    502.1884 300.2096207 +22.7087100     724.4677      72.5958      1.771     3.45      4.40503     20.47627     85.96049        10     1.019     0.831  34.31   0
       212    427.9349    501.7560 300.1430886 +22.6443719     262.5848     72.55883      1.251     3.25     4.408281     20.47627     50.18086         6     0.871     0.624 -62.28   0
       213    926.8637    498.9420 300.2993844 +22.7930801     4242.175     72.63276      1.427     2.77     3.965344     20.47627      476.367        33     1.211     1.138 -43.85   0
       214    480.7093    500.6353 300.1598721 +22.6598727     368.9875     72.54034      1.254     2.49     4.475448     20.47627     55.97289         5     0.705     0.456  16.79   0
       215    568.0788    499.0092 300.1875914 +22.6855965     297.6383     72.54034      1.239     2.60     4.492604     20.47627     45.20357         5     0.784     0.478  28.45   0
       216    664.7797    495.6177 300.2188002 +22.7136052     286.3306     72.57732      1.558     2.96     4.198351     20.47627     33.67218         5     0.734     0.444  19.67   0
       217    587.5224    494.5714 300.1950848 +22.6901507     399.8363     72.57732      1.391     3.53     4.588443     20.47627     52.35857         6     0.915     0.411  69.72   0
       218   1018.6476    489.4941 300.3310730 +22.8178544     709.7874      72.5958      1.424     3.82     4.615217     20.47627     85.80119        14     1.155     0.890  53.72  16
       219    158.7927    489.2497 300.0634695 +22.5600685     1089.459     72.57732      1.517     2.88     4.013869     20.47627     129.4773        16     1.048     0.875  48.56   0
       220    957.9381    487.1256 300.3129094 +22.7989930     200.6817     72.61429      1.405     4.00     4.175262     20.47627     36.28056         6     0.950     0.481  31.42   0
       221    819.5085    483.6050 300.2709011 +22.7565173     392.4078     72.48483      1.430     5.61     3.849463     20.47627      50.1506         9     1.102     0.806  87.49   0
       222    759.3467    473.4206 300.2554617 +22.7355688      481.181     72.55883      1.294     2.84     3.944653     20.47627     79.65558         8     1.000     0.533 -21.92   0
       223    648.0779    471.1138 300.2215537 +22.7015658     354.4532     72.72506      1.343     2.79     4.300357     20.47627     47.66305         7     0.846     0.537 -43.55   0
       224    700.3043    469.3756 300.2383827 +22.7167168     800.6682     72.46632      1.362     2.45     4.036196     20.47627     100.6436        13     0.926     0.780  42.40   0
       225   1015.0556    461.9658 300.3388892 +22.8088700     548.3458      72.5958      1.415     3.94     4.440908     20.47627     61.64158        11     1.060     0.886  49.29   0
       226    761.0782    461.7735 300.2597818 +22.7327432     778.8365     72.57732      1.174     1.97     3.925578     20.47627     152.1718        11     0.857     0.708 -76.59   0
       227    918.3548    457.9071 300.3100528 +22.7787449     1025.691      72.5958      1.369     2.76      3.96112     20.47627     130.9615        16     1.102     0.897 -46.48   0
       228    902.7063    454.0781 300.3064172 +22.7729583     564.8048     72.70661      1.258     3.81     3.953069     20.47627     89.28801        11     1.159     0.670  86.82   0
       229    882.8665    454.3801 300.3001346 +22.7671027     177.9288     72.55883      1.004     2.08      3.94141     20.47627     53.77143         6     0.693     0.580  69.97   0
       230    107.6310    453.9243 300.0590396 +22.5345916     78.04974     72.57732      0.873     3.99     3.917101     20.47627     43.30441         5     1.021     0.447 -29.44   0
       231    646.8484    452.2208 300.2273033 +22.6957736     3245.719      72.5958      1.260     2.21      4.23255     20.47627     457.3746        24     1.018     0.969  52.18   0
       232   1007.5184    451.1153 300.3400605 +22.8034956     447.5055     72.70661      1.331     3.94     4.334102     20.47627     54.57201        11     1.097     0.705   8.28   0
       233    123.1943    443.7223 300.0671857 +22.5363348     308.6312     72.48483      1.361     3.10     3.932659     20.47627     45.09713         5     0.852     0.430 -47.33   0
       234    486.8540    438.9298 300.1818133 +22.6440072      301.898     72.61429      1.307     3.89     4.441143     20.47627     44.70786         7     0.908     0.630 -17.75   0
       235   1016.6401    430.0973 300.3497275 +22.8001881     973.4474     72.57732      1.457     3.07     4.230469     20.47627     109.0357        14     1.053     0.849 -60.97   0
       236    930.0295    430.8649 300.3224700 +22.7744732     499.0023      72.5958      1.300     3.21     3.971285     20.47627     81.81635         9     1.002     0.599  52.22   0
       237    666.6330    428.0806 300.2412994 +22.6947715     407.3807     72.55883      1.437     3.63     3.962862     20.47627     45.62416         6     0.974     0.434  76.11   0
       238    757.5029    426.1638 300.2702259 +22.7214465      1098.53     72.57732      1.334     2.42     3.881569     20.47627     133.0059        14     0.903     0.852 -47.14   0
       239    553.2261    426.4820 300.2065096 +22.6603280     409.2531     72.55883      1.113     3.00     4.411456     20.47627     64.70845         6     0.715     0.661 -72.99   0
       240    261.4848    424.1882 300.1165024 +22.5722087     706.6374     72.52184      1.360     3.58      3.96453     20.47627     82.14924        13     1.015     0.895  66.61   0
       241    101.4762    422.2882 300.0673944 +22.5236737     365.1913     72.70661      1.423     3.36     3.906195     20.47627     40.00915         5     0.735     0.446  67.30   0
       242    323.7336    420.0303 300.1372056 +22.5896816     3636.505     72.57732      1.364     2.53     4.233779     20.47627     527.1266        26     1.094     1.020  40.23   0
       243    775.4013    415.3916 300.2792983 +22.7237148     179.2793     72.39222      1.132     4.10     3.873221     20.47627     38.22817         5     0.982     0.488  86.96   0
       244    270.9963    414.7433 300.1225243 +22.5723515      7590.38     72.54034      1.412     2.67     3.979282     20.47627     970.3072        37     1.212     1.114  60.03   0
       245    873.5005    415.2909 300.3099022 +22.7530696     120.3424     72.74351      1.028     3.42     3.969085     20.47627     39.64294         5     0.793     0.426 -66.97   0
       246    411.8403    408.9881 300.1681915 +22.6129282     4903.075     72.55883      1.338     2.38     4.464735     20.47627     709.8448        29     1.117     0.998  59.95   0
       247    656.0018    405.7452 300.2452372 +22.6851733     18797.02     72.50334      1.319     2.31     3.990042     20.47627     2924.139        54     1.203     1.104 -87.15   0
       248    673.8670    405.7007 300.2508153 +22.6905133     889.2424     72.66969      1.908     6.41     3.862673     20.47627     84.29825        15     1.442     0.800 -40.00   0
       249    502.8649    406.7487 300.1972395 +22.6395701     350.7336     72.61429      1.435     5.11     4.378757     20.47627     39.52843         9     0.932     0.791  75.20   0
       250    498.8265    405.2138 300.1964808 +22.6379192     174.2623     72.57732      1.140     3.40     4.375772     20.47627     31.13361         5     0.974     0.343  46.80   0
       251    283.0435    403.9026 300.1297875 +22.5728540     247.7448     72.57732      1.312     4.64     3.992531     20.47627     39.16589         6     1.029     0.594 -75.17   0
       252    852.8321    396.2745 300.3096314 +22.7414170     323.3204     72.57732      1.357     3.55     3.969682     20.47627     50.73906         7     0.826     0.629  26.53   0
       253    275.8100    392.3721 300.1312800 +22.5673772     428.7934     72.57732      1.655     3.89     3.973952     20.47627     53.49481         9     1.045     0.882  88.72   0
       254    989.5728    388.4323 300.3548077 +22.7801120     782.5595     72.57732      1.471     3.16     4.076875     20.47627     87.69608        15     1.054     0.959 -68.68   0
       255    699.5203    386.9398 300.2648930 +22.6928121     314.6799     72.63276      1.402     2.65       3.8833     20.47627     49.04211         5     0.715     0.586  11.04   0
       256    526.7307    387.7102 300.2108448 +22.6412582     457.7323     72.74351      1.316     1.92     4.204188     20.47627     63.12093         5     0.696     0.430  15.24   0
       257    210.7773    385.7458 300.1132148 +22.5459753     2165.657      72.5958      1.516     2.63     3.894476     20.47627     284.9305        25     1.184     1.075  86.20   0
       258    596.6474    375.1963 300.2366691 +22.6586177     6747.939     72.55883      1.253     2.25     4.116749     20.47627     906.9709        31     1.115     0.975  72.27   0
       259   1010.3243    375.7010 300.3654108 +22.7826667     1207.729     72.70661      1.390     2.68     4.120131     20.47627     169.2459        16     1.045     0.903  58.79   0
       260    311.5591    374.5306 300.1481840 +22.5729771     544.8799     72.55883      1.192     3.25     4.139742     20.47627     72.46404        12     1.067     0.769 -87.13   0
       261    169.3061    367.9292 300.1061071 +22.5284280     541.4722     72.68816      1.336     3.59     3.881968     20.47627     68.50893         9     1.007     0.648 -53.24   0
       262    856.4882    367.2390 300.3201928 +22.7341713     287.8282     72.55883      1.035     2.10     3.998405     20.47627     57.73463         5     0.682     0.458 -66.74   0
       263    710.4346    365.3749 300.2752898 +22.6898891     484.6602      72.5958      1.109     2.41     3.914819     20.47627     75.33409        10     0.819     0.744 -60.83   0
       264     16.4088    365.2987 300.0594637 +22.4818139      1355.58      72.4478      1.698     3.75     3.762898     20.47627     134.0373        21     1.213     1.082  62.70   0
       265    800.8973    363.9859 300.3039237 +22.7165875     1260.932     72.46632      1.460     2.99     3.986395     20.47627     135.2165        18     1.235     0.856  87.50   0
       266    503.3018    361.4435 300.2120760 +22.6266969     6184.242     72.57732      1.251     2.29     4.162072     20.47627     844.3668        32     1.105     0.996  77.86   0
       267     89.0346    361.0793 300.0833895 +22.5023887     251.7432     72.52184      1.459     4.91     3.855222     20.47627     34.97774         7     1.084     0.629  66.84   0
       268    895.4391    356.0090 300.3359778 +22.7426096     1485.496     72.57732      1.317     2.45     3.960932     20.47627     206.6919        16     1.008     0.903  36.97   0
       269    992.5161    356.0780 300.3662241 +22.7716963     679.7821     72.68816      1.411     2.90     4.072766     20.47627     69.99158        10     0.945     0.668  26.82   0
       270    487.9998    349.9728 300.2110356 +22.6188183     626.2242     72.54034      1.419     2.56     4.245687     20.47627     79.96496        10     0.881     0.713  87.31   0
       271    570.3965    348.0178 300.2373150 +22.6429488     496.1786     72.50334      1.209     2.86     3.904452     20.47627     75.20016         7     0.824     0.580  64.41   0
       272     14.8302    347.0243 300.0649019 +22.4761002     1095.242     72.57732      1.529     3.28     3.819061     20.47627     125.6697        15     1.096     0.923 -29.15   0
       273    848.8376    347.3586 300.3242586 +22.7261690     322.7882     72.66969      1.237     2.30     4.010625     20.47627     45.74252         5     0.714     0.442 -19.32   0
       274    551.0713    346.1281 300.2319125 +22.6366155     412.5298     72.63276      1.199     2.34     3.883993     20.47627     59.99573         7     0.818     0.527  43.82   0
       275    868.1718    343.8045 300.3314379 +22.7309380     511.3805     72.54034      1.176     2.22      4.00477     20.47627     90.60872         8     0.774     0.635  35.08   0
       276    149.7629    342.4153 300.1083115 +22.5152488     193.4027     72.57732      1.406     3.78     3.861108     20.47627     31.41704         5     1.000     0.411  83.14   0
       277    390.8553    340.6536 300.1838357 +22.5870273     2431.696     72.61429      1.291     2.39     4.420478     20.47627     363.2321        21     1.047     0.936  66.43   0
       278    109.2478    337.9934 300.0971580 +22.5018300     1058.149     72.57732      1.561     3.09     3.877071     20.47627     136.7382        18     1.185     0.938 -24.82   0
       279    338.1793    334.1327 300.1695680 +22.5693657     261.7862     72.55883      1.466     3.68     4.312966     20.47627     45.80303         5     1.041     0.374  34.93   0
       280    360.1819    330.0667 300.1777297 +22.5747946      29804.4     72.55883      1.356     2.52     4.419023     20.47627     3462.641        66     1.308     1.138  70.78   0
       281    894.8340    327.7052 300.3449721 +22.7342965     1410.119     72.55883      1.367     2.54     3.940387     20.47627     197.9235        19     1.047     0.971  12.27   0
       282    850.6408    325.4257 300.3319364 +22.7204081     369.0854     72.63276      1.703     3.78     4.010097     20.47627     47.95826         7     1.067     0.465 -60.31   0
       283     56.4752    317.8459 300.0873005 +22.4802240     5046.003     72.57732      1.600     2.86     4.033589     20.47627     599.6757        36     1.289     1.238  52.38   0
       284    810.5144    316.9246 300.3221888 +22.7059493     456.7519     72.68816      1.194     2.39     4.010591     20.47627     83.03313         9     0.794     0.749  -5.66   0
       285    234.4741    316.5678 300.1430228 +22.5332350      497.176     72.57732      1.288     2.93     3.890998     20.47627     67.36843        10     0.914     0.789 -14.38   0
       286    458.7928    315.4485 300.2131474 +22.6001550     334.5847     72.57732      1.012     2.17     4.385975     20.47627     75.93147         7     0.836     0.490   7.07   0
       287    637.3503    312.1266 300.2698039 +22.6527034     227.9789     72.57732      1.005     3.43     3.866407     20.47627     38.56295         5     0.796     0.428  71.73   0
       288    770.5684    309.8695 300.3120305 +22.6919592     1801.217     72.55883      1.279     2.33     4.003493     20.47627     266.3356        18     1.008     0.904  81.14   0
       289    985.7924    302.8714 300.3813889 +22.7543931     649.2039     72.55883      1.449     2.76     4.044133     20.47627     83.09525         9     0.829     0.757 -75.95   0
       290    432.4574    294.3483 300.2117979 +22.5862057     2163.729     72.63276      1.507     3.21     4.424603     20.47627     277.2447        23     1.351     0.893  62.75   0
       291    644.7858    293.3297 300.2782165 +22.6495329     324.5706     72.57732      1.331     2.16     3.846106     20.47627     53.22633         6     0.718     0.520 -51.23   0
       292    871.5838    287.3354 300.3508202 +22.7157355      502.028     72.55883      1.135     3.28     3.986949     20.47627     87.45883        11     1.071     0.676 -31.16   0
       293    864.2261    288.5361 300.3481374 +22.7138774     308.8283     72.55883      1.175     3.51     4.008847     20.47627     43.48248         5     0.824     0.586 -46.66   0
       294      3.9992    285.6849 300.0814344 +22.4552612       867.47     69.01444      2.178     7.88     4.561574     20.47627     67.46846        18     1.796     0.966 -28.35  24
       295    753.6417    284.9022 300.3148556 +22.6797178     314.6711     72.55883      1.150     2.88     4.003928     20.47627     59.68518         8     0.874     0.636  70.18   0
       296    722.4833    284.2319 300.3053664 +22.6701933     249.9532     72.55883      1.295     4.35     3.971893     20.47627     34.15217         6     0.917     0.688 -15.76   0
       297    222.9386    275.6635 300.1527042 +22.5180403     376.0806     72.61429      1.517     4.31     3.940958     20.47627      40.1853         7     0.871     0.607 -31.22   0
       298    315.4548    274.3981 300.1818769 +22.5454114     133.9007     72.50334      0.997     4.13     4.184871     20.47627     35.85823         5     0.979     0.498  88.71   0
       299    508.2643    273.7860 300.2420554 +22.6030192     1113.963     72.54034      1.323     2.57     4.390282     20.47627     152.7247        14     0.934     0.811  75.87   0
       300     80.8211    274.1746 300.1090267 +22.4749998     343.2333     72.55883      1.442     3.41     4.114438     20.47627     41.24353         5     0.995     0.338  44.46   0
       301    593.2838    271.4745 300.2692692 +22.6278280     385.7893     72.66969      1.114     3.45     3.952416     20.47627     38.74319         5     0.737     0.468  17.80   0
       302   1019.8591    269.8450 300.4027265 +22.7550984     258.3716     72.15089      1.234     4.44     4.071678     20.47627     48.91284         7     1.101     0.629 -28.07  16
       303    891.2355    267.0074 300.3635394 +22.7157783     189.5349      72.5958      1.193     4.53     3.932828     20.47627     36.50544         6     0.898     0.649  51.68   0
       304    753.0886    265.7365 300.3208996 +22.6740466     2076.672     72.70661      1.308     2.31     4.025159     20.47627     341.5037        20     1.058     0.936  47.49   0
       305   1014.4977    260.2036 300.4041813 +22.7507224     3247.707     72.48483      1.434     2.54     3.996185     20.47627      377.912        26     1.135     1.057  85.06   0
       306    461.5932    249.7762 300.2353187 +22.5821414     534.6573     72.55883      1.140     2.53       4.3719     20.47627     86.39095         9     0.966     0.538 -71.85   0
       307    385.6568    251.1921 300.2112356 +22.5597920     204.7867     72.55883      1.227     4.69      4.42258     20.47627     37.75623         6     1.024     0.609  17.81   0
       308    136.2532    243.6282 300.1361537 +22.4828589     1459.674      72.5958      1.794     3.89     3.976528     20.47627     122.7745        25     1.365     1.114 -63.62   0
       309    167.1763    243.7838 300.1457121 +22.4921752     698.9177     72.57732      1.539     2.84     3.870419     20.47627     69.05141        11     0.931     0.739 -32.94   0
       310    873.8773    237.1008 300.3678277 +22.7019875     465.3293     72.72506      1.471     3.78     4.015131     20.47627     50.72278         8     0.944     0.707  69.37   0
       311    220.2704    235.6818 300.1648404 +22.5057680     626.5831     72.68816      1.587     3.07     4.123048     20.47627     75.76343        10     1.039     0.726 -44.95   0
       312   1015.3350    233.5909 300.4130734 +22.7433233     492.3509     72.55883      1.654     4.65     3.847827     20.47627     50.06076         7     1.162     0.529  51.02   0
       313     75.8637    232.7212 300.1209291 +22.4616222     244.4351     72.66969      1.553     4.07     4.281978     20.47627     37.61543         6     0.933     0.591 -65.23   0
       314    896.7120    229.5293 300.3774012 +22.7066479     429.3746     72.74351      1.313     2.71     3.926193     20.47627     59.49517         7     0.808     0.633 -67.16   0
       315    824.9141    227.3580 300.3557264 +22.6845283     593.2372     72.54034      1.170     2.67      4.08528     20.47627     84.28568        11     0.907     0.750 -82.62   0
       316    415.1151    226.8309 300.2282990 +22.5616267     355.8503      72.5958      1.272     4.36     4.420625     20.47627     52.60558         8     0.872     0.621  37.88   0
       317    915.3760    220.1912 300.3862480 +22.7095515     205.5276     72.57732      1.144     3.45     3.870888     20.47627      48.9101         5     0.738     0.467  76.93   0
       318    922.9197    216.2695 300.3898717 +22.7106826      2092.96     72.68816      1.380     2.53        3.848     20.47627     291.2585        24     1.154     0.972  64.01   0
       319    341.4194    213.4421 300.2097179 +22.5356983     2272.394      72.5958      1.380     2.51     4.401895     20.47627     297.6122        22     1.110     0.998  70.22   0
       320    170.8690    209.1262 300.1580972 +22.4833381     428.3509     72.65123      1.517     4.91     4.068517     20.47627     42.01467         8     0.997     0.712 -51.71   0
       321    419.3845    208.5761 300.2355462 +22.5576653     972.4706     72.57732      1.241     2.35      4.44155     20.47627     144.0242        12     0.891     0.760  85.97   0
       322    821.2073    207.9790 300.3608552 +22.6778500     507.5407     72.55883      1.226     2.04     4.182858     20.47627     92.84906         8     0.761     0.617  60.69   0
       323    928.6064    204.4728 300.3954699 +22.7089944     330.2354     72.52184      1.444     5.43     3.853607     20.47627     45.34754        10     1.397     0.758 -68.33   0
       324    235.9685    200.9810 300.1809712 +22.5005157     747.0767     72.57732      1.428     3.75      4.28675     20.47627     86.95869        14     1.117     0.939  82.82   0
       325    774.0337    197.6399 300.3495079 +22.6607547     1663.456     72.61429      1.298     2.19     4.227047     20.47627     279.7396        17     0.961     0.894  65.98   0
       326    838.9130    197.2177 300.3698625 +22.6800586     576.0541     72.52184      1.168     2.75     4.235871     20.47627     77.74884         8     0.769     0.670  42.13   0
       327    257.5813    194.0258 300.1899448 +22.5049978     516.3212     72.61429      1.298     2.91     4.311407     20.47627     57.68348        11     0.951     0.739  20.30   0
       328    778.1052    189.0245 300.3535698 +22.6594983     916.8327     72.48483      1.487     3.33     4.276821     20.47627     124.2588        15     1.191     0.813  86.60   0
       329    698.4988    188.2154 300.3290324 +22.6354284     1281.508     72.48483      1.299     2.43     4.255679     20.47627     167.1291        17     1.045     0.874  74.84   0
       330    519.8912    184.8101 300.2745260 +22.5809539     320.4473     72.52184      1.138     2.36     4.411314     20.47627     61.24084         5     0.719     0.631  18.54   0
       331    624.6932    180.0987 300.3086789 +22.6109931     1081.906     72.76195      1.388     2.66     4.270966     20.47627     128.5754        15     1.084     0.836  68.71   0
       332    905.9041    178.8751 300.3966916 +22.6948415     943.2643     72.72506      1.468     2.66     4.069818     20.47627     116.3093        16     1.186     0.771  75.88   0
       333    894.0992    179.7662 300.3927225 +22.6915639     1517.114     72.55883      1.429     2.56      4.14215     20.47627     223.3934        18     1.028     0.944  62.79   0
       334    952.7486    178.0343 300.4115698 +22.7086212     458.3627     72.57732      1.911     2.66     3.876719     20.47627      48.3776         6     0.927     0.702 -30.32   0
       335   1022.7346    169.2904 300.4362310 +22.7270529     979.6641     61.70665      1.334     3.00     3.723218     20.47627     135.8883        14     0.982     0.875  89.98  24
       336     46.5769    165.8464 300.1335132 +22.4336558     614.2323      72.5958      1.690     3.14     4.463884     20.47627     78.79654        11     0.970     0.829 -37.18   0
       337    256.7823    162.2724 300.1999904 +22.4956448     724.6342     72.57732      1.295     2.48     4.424125     20.47627     100.0631        13     0.929     0.818  13.82   0
       338    118.7148    156.8132 300.1588505 +22.4526920     2172.209     72.52184      1.591     2.97     4.643729     20.47627     252.7408        26     1.319     1.045 -84.98   0
       339    941.8589    154.0502 300.4159499 +22.6984676      849.907     72.63276      1.420     3.17     3.976184     20.47627     102.2096        15     1.158     0.805 -84.82   0
       340     68.5747    153.8632 300.1442303 +22.4368134     606.5576     72.55883      1.739     3.87       4.5976     20.47627     69.17079        12     1.026     1.014 -13.61   0
       341    276.0778    150.3175 300.2098645 +22.4979962     5485.313     72.66969      1.400     2.63      4.41235     20.47627     667.7652        31     1.253     1.013  70.60   0
       342    258.1269    151.4706 300.2039099 +22.4929473     418.0059     72.65123      1.510     3.93     4.413741     20.47627     43.32922         5     0.892     0.496   4.24   0
       343     60.4151    144.5707 300.1447078 +22.4317009      1331.78     72.57732      1.604     3.20     4.636038     20.47627     153.6136        19     1.125     1.058  53.62   0
       344    259.7393    141.0750 300.2077808 +22.4904467     715.1672     72.63276      1.550     3.36     4.399834     20.47627      82.5254        11     1.019     0.819  78.45   0
       345    920.3414    131.9846 300.4163939 +22.6856846     3437.929     72.55883      1.408     2.63     4.198069     20.47627     446.6542        30     1.194     1.080 -63.30   0
       346   1023.3767    130.7468 300.4489265 +22.7161633     1918.104     58.21601      1.187     2.83     3.744046     20.47627     349.1157        17     1.232     0.654  83.98  24
       347    223.0903    127.7060 300.2007213 +22.4756255     235.0606     72.74351      1.323     3.94     4.387165     20.47627     43.72317         6     0.943     0.553 -61.13   0
       348    469.7802    126.8167 300.2777308 +22.5492879     574.5862     72.55883      1.423     3.31     4.474406     20.47627     83.52682        12     0.994     0.861  49.95   0
       349    583.9831    125.0991 300.3138329 +22.5830018     296.1326     72.48483      1.608     2.98     4.439966     20.47627     35.40346         5     0.612     0.609  57.51   0
       350    393.6010    119.1770 300.2565062 +22.5242719      670.478     72.50334      1.412     2.59     4.527055     20.47627     69.89587         7     0.811     0.587  -9.05   0
       351    397.8052    117.3282 300.2584132 +22.5250007     417.1771     72.52184      1.268     2.54     4.527586     20.47627      53.4535         7     0.799     0.584  28.17   0
       352    160.1758    115.9543 300.1849766 +22.4533955     652.7521      72.5958      1.332     2.42     4.542807     20.47627     91.09013        11     0.837     0.797  56.71   0
       353    521.1057    114.2970 300.2977614 +22.5610666     1669.635     72.76195      1.294     2.35     4.432541     20.47627       270.68        20     1.052     0.913  73.23   0
       354    449.0472    114.6768 300.2752144 +22.5395907     606.3442     72.57732      1.376     3.39     4.486845     20.47627     82.40813        11     1.036     0.729 -87.62   0
       355     57.4816    115.3946 300.1532528 +22.4224502     377.6592     72.50334      1.636     4.04     4.857584     20.47627     33.45745         6     1.051     0.444 -35.23   0
       356    582.8500    113.5088 300.3172368 +22.5793331     439.9701      72.5958      1.173     2.75     4.437615     20.47627     65.70506         7     0.901     0.482   9.99   0
       357    264.4172    109.4608 300.2194817 +22.4827737     350.6646     72.54034      1.212     4.67     4.355331     20.47627     56.80617         9     1.143     0.627 -74.23   0
       358    738.0092    107.8815 300.3673816 +22.6241772     306.9014     72.52184      1.445     3.90     4.433441     20.47627     30.05594         5     0.846     0.516 -62.29   0
       359    809.2086    103.9297 300.3908469 +22.6443564     287.8863     72.55883      1.162     4.86     4.562966     20.47627     56.88434         9     1.077     0.731 -41.98   0
       360    955.8834     98.3828 300.4383674 +22.6866614      330.489     72.54034      1.512     2.80     4.205285     20.47627     42.48475         6     0.727     0.613  56.56   0
       361    295.1087     94.1763 300.2339775 +22.4875830     6014.261     72.50334      1.412     2.62       4.3571     20.47627     670.6942        37     1.296     1.102  72.03   0
       362    801.4178     94.8398 300.3913652 +22.6394117     232.9344      72.5958      1.173     3.38     4.603205     20.47627     54.46256         8     0.934     0.704  57.33   0
       363    146.3066     94.0076 300.1877793 +22.4429399     792.3813     72.48483      1.496     3.08     4.558973     20.47627     82.76919        12     0.955     0.857  80.04   0
       364    310.7420     85.7467 300.2415704 +22.4898472     401.9988     72.63276      1.401     2.67      4.40872     20.47627     61.84825         7     0.807     0.620 -66.57   0
       365     56.7776     84.5637 300.1630254 +22.4133926       346.92      72.5958      1.383     4.70      5.00545     20.47627     33.11833         8     0.988     0.633  14.67   0
       366    541.2032     79.5849 300.3152667 +22.5571154      6177.87     72.41075      1.324     2.40     4.370409     20.47627     904.1016        32     1.217     0.967  79.08   0
       367    426.7109     79.6649 300.2796117 +22.5228449     673.9731     72.70661      1.338     2.52     4.520037     20.47627     94.54585         9     0.846     0.716  49.70   0
       368    793.6921     69.3414 300.3972213 +22.6297705     716.2109     72.63276      1.309     3.05     4.658159     20.47627     96.10551        14     1.080     0.860 -68.48   0
       369    886.1268     68.0675 300.4264434 +22.6570704     394.8439     72.65123      1.161     2.38      4.40387     20.47627     71.40758         8     0.785     0.641  62.26   0
       370    194.7378     64.9965 300.2122311 +22.4491284     100.8272     72.57732      1.341     4.89     4.400268     20.47627     33.18542         5     1.151     0.589  -0.26   0
       371    592.4164     62.2193 300.3368369 +22.5674635     408.8782     72.55883      1.286     2.84     4.329103     20.47627     66.69553        10     0.872     0.766  87.54   0
       372    234.2671     63.5052 300.2250012 +22.4605463     474.5475     72.72506      1.209     2.80     4.338643     20.47627     75.69032         5     0.717     0.473 -17.44   0
       373    669.5802     59.6780 300.3616885 +22.5898383     6281.917     72.57732      1.348     2.36     4.440356     20.47627     877.0187        31     1.191     1.004  79.07   0
       374    444.4868     58.5558 300.2919826 +22.5221072     1424.406     72.55883      1.270     2.29     4.458708     20.47627     209.9188        17     1.035     0.873  84.37   0
       375    710.7126     57.1537 300.3753181 +22.6014275     926.6516     72.54034      1.313     2.35     4.559962     20.47627     127.0063        15     0.990     0.850 -55.78   0
       376    726.6216     53.0217 300.3816128 +22.6050027     568.6249     72.57732      1.247     2.74     4.624797     20.47627     87.65193         9     0.859     0.710  85.34   0
       377    996.4496     50.6295 300.4664939 +22.6850692     577.6701      72.5958      1.593     3.06     4.291203     20.47627     75.58163        11     0.967     0.810  38.87   0
       378    193.1407     50.9418 300.2162887 +22.4446154     684.0613     72.65123      1.614     4.28     4.394107     20.47627     76.69854        10     1.013     0.707  58.50   0
       379    765.1829     48.9002 300.3949619 +22.6153615     486.3907     72.48483      1.229     2.66     4.695356     20.47627     87.34489        10     0.962     0.680 -85.52   0
       380    713.7542     44.5412 300.3803524 +22.5987134     2757.711     72.61429      1.331     2.26     4.607232     20.47627     448.7508        24     1.171     0.947  79.52   0
       381    728.8734     43.5703 300.3853768 +22.6029605     982.0289      72.5958      1.786     4.34     4.670682     20.47627     87.15024        21     1.593     0.886  50.22   0
       382    354.8488     45.2128 300.2684215 +22.4914234     342.9539      72.5958      1.184     2.62     4.578318     20.47627     60.68532         8     0.776     0.673  46.09   0
       383      7.4880     38.8743 300.1625210 +22.3855062     669.4075     72.72506      1.335     3.16     5.702012     20.47627     94.67609        11     1.025     0.750 -18.89   0
       384    800.1897     36.2346 300.4099739 +22.6221994      1520.79     72.55883      1.297     2.18     4.750094     20.47627     212.4175        21     1.182     0.911 -85.10   0
       385    738.1769     29.3823 300.3928723 +22.6016679     725.8355     72.55883      1.292     2.78      4.77748     20.47627     86.92429        12     0.992     0.763  74.13   0
       386    543.9196     28.5880 300.3326367 +22.5432789     1122.425     72.55883      1.376     2.25     4.227482     20.47627     179.7182        16     1.131     0.830 -88.14   0
       387    116.6158     28.4230 300.1998046 +22.4152175     592.1426     72.57732      1.593     4.80     4.474535     20.47627     76.66478        10     1.173     0.735  48.32   0
       388    447.7133     26.5052 300.3033712 +22.5138680     937.2078     72.76195      1.552     3.21     4.413774     20.47627     114.2266        15     1.062     0.962 -69.40   0
       389    829.9890     25.6532 300.4226891 +22.6280765      459.514     72.57732      1.524     4.61      4.59508     20.47627     49.52861         8     0.958     0.831 -38.59   0
       390    744.1664     23.3930 300.3966788 +22.6017393      127.164     72.57732      1.009     2.62     4.804832     20.47627     41.38246         5     0.731     0.435  22.26   0
       391    220.4103   1012.4198 299.9126107 +22.7285007     3428.346     72.55883      6.096    26.00     76.86448     20.47627     77.88412       212     5.913     3.796  21.94  19
       392    221.4836   1005.3657 299.9152390 +22.7268024     2512.613     72.54034      6.591    16.33     71.57201     20.47627      62.1159        66     3.881     1.911 -76.57  19
       393    350.1753     17.3680 300.2759894 +22.4820272     158.2627     72.57732      1.252     4.14     4.590394     20.47627     32.89766         5     0.919     0.532 -50.67   0
       394     19.6756   1003.4236 299.8531817 +22.6656386     1101.168     72.61429      3.490     3.85    -4.613193     20.47627     42.39506         6     0.911     0.467 -87.60   0
       395    545.3019     14.1036 300.3377598 +22.5395315     403.7581     72.76195      1.355     2.58     4.185445     20.47627     59.71901         6     0.749     0.629  71.03   0
       396    976.8441   1019.4103 300.1458085 +22.9574677     652.7912     72.57732      0.650     1.04     2.279712     20.47627     325.6809         5     0.525     0.407 -56.37   0
       397    533.7591   1013.1714 300.0098142 +22.8227758     382.7859      72.5958      1.580     5.69     2.634942     20.47627      28.0043         8     1.376     0.663  32.36   0
       398    215.4786    985.9193 299.9196985 +22.7194288     1251.073     72.70661      5.705     9.78     57.20676     20.47627     45.57606        20     2.492     1.072  49.13   3
       399    402.1662   1011.3970 299.9694511 +22.7827735     744.9019     72.57732      2.778     5.00     2.801988     20.47627     52.90959        13     1.164     1.043  85.88   0
       400    126.0616    964.0724 299.8990216 +22.6863214     5426.933     72.61428     23.122    80.50      32.4088     20.47627      99.4682      3281    19.091    15.392  -4.49  27
