#   1 NUMBER                 Running object number                                     
#   2 X_IMAGE                Object position along x                                    [pixel]
#   3 Y_IMAGE                Object position along y                                    [pixel]
#   4 ALPHA_J2000            Right ascension of barycenter (J2000)                      [deg]
#   5 DELTA_J2000            Declination of barycenter (J2000)                          [deg]
#   6 FLUX_APER              Flux vector within fixed circular aperture(s)              [count]
#   7 FLUXERR_APER           RMS error vector for aperture flux(es)                     [count]
#   8 FLUX_RADIUS            Fraction-of-light radii                                    [pixel]
#   9 FWHM_IMAGE             FWHM assuming a gaussian core                              [pixel]
#  10 BACKGROUND             Background at centroid position                            [count]
#  11 THRESHOLD              Detection threshold above background                       [count]
#  12 FLUX_MAX               Peak flux above background                                 [count]
#  13 ISOAREA_IMAGE          Isophotal area above Analysis threshold                    [pixel**2]
#  14 A_IMAGE                Profile RMS along major axis                               [pixel]
#  15 B_IMAGE                Profile RMS along minor axis                               [pixel]
#  16 THETA_IMAGE            Position angle (CCW/x)                                     [deg]
#  17 FLAGS                  Extraction flags                                          
         1    781.3503     13.5012 300.4122533 +22.6127444     720.3127     72.55483      1.626     4.01     5.205828      20.4491     83.28097        13     1.201     0.897 -79.92   0
         2    213.0146     12.9397 300.2354757 +22.4424325     3968.591     72.44408      1.537     2.99     4.714111      20.4491     403.0381        32     1.302     1.125  47.75   0
         3    635.6241     10.3796 300.3678493 +22.5682371     419.2781     72.48102      1.651     4.00     4.938879      20.4491     45.39762         6     0.945     0.484  89.37   0
         4    774.3938      5.5772 300.4126525 +22.6083835     985.2205     72.46255      1.546     2.90     5.236908      20.4491     122.2932        13     1.020     0.825  67.01  16
         5    329.1368      5.2569 300.2740861 +22.4750053     1198.212     72.31467      1.375     2.63     4.618088      20.4491     156.7326        19     1.138     0.999  63.12  16
         6    739.8303      4.9268 300.4020892 +22.5978542     416.5446     71.62674      1.296     1.79      5.25287      20.4491     69.45896         6     0.688     0.527  42.18  16
         7    261.2623      4.8182 300.2531130 +22.4545510     435.5172     71.40221      3.540     5.18     4.439862      20.4491     30.73607         5     0.997     0.761  -5.46  16
         8    555.7655      2.6030 300.3454935 +22.5420976     242.3692     63.19003      1.102     3.57     4.781667      20.4491     43.18586         7     0.846     0.631  83.63  24
         9    812.0968      1.6035 300.4256946 +22.6185211     376.1616     57.93125      1.298     3.82     5.353607      20.4491     47.18433         7     0.769     0.627   0.40  24
        10    735.9498      1.2846 300.4020600 +22.5956454     347.2135     56.12449      1.354     2.09     5.270546      20.4491     65.40319         5     0.816     0.447   5.21  24
        11    675.2855    996.3512 300.0600355 +22.8633517     8651.954     72.46255      1.951     4.73     3.324781      20.4491      550.119        47     1.567     1.436  -1.02   3
        12    772.6973   1023.5927 300.0815259 +22.9003802     394.7332     56.78814      2.301     3.02      3.25219      20.4491     31.25057         4     0.832     0.322 -31.61  26
        13    337.1082   1021.5666 299.9465493 +22.7691298     866.5892     66.87324      1.808     4.73     13.93265      20.4491     86.18802        19     1.295     1.134  -5.18  24
        14    290.9111   1021.8160 299.9320983 +22.7553363     1298.149     65.78383      2.568     9.79     42.05133      20.4491     54.29234        29     1.908     1.576 -31.68  24
        15    128.9715   1012.3137 299.8848414 +22.7040005     4207.619     72.48102     13.869    68.87     79.58057      20.4491     116.9176      1157    17.555     7.496  43.09  27
        16    120.4993    959.7907 299.8992963 +22.6864034     5275.204     72.38865     21.065    83.39     36.16548      20.4491     123.1329      2692    18.776    13.821  -8.83  19
        17    207.6295    980.0170 299.9198008 +22.7183562      962.916     72.48102      4.070     9.59     58.92009      20.4491     38.27197        20     2.655     0.967  65.14   3
        18    539.0731    985.4351 300.0211629 +22.8193653     403.6843     72.46255      1.805     4.65     3.065631      20.4491     38.80322         5     1.245     0.493 -52.27   0
        19      9.7779   1000.6136 299.8516124 +22.6648584     2320.872     72.46255     14.948    34.76     -17.2484      20.4491     57.34921       225     7.885     4.252  79.12  19
        20     24.2073    981.9524 299.8621662 +22.6638441     934.2705     72.49948      4.610     7.10    -2.081414      20.4491     53.59507        15     1.706     0.827  65.69   2
        21    969.8065    980.4213 300.1570371 +22.9470758     560.0888     72.46255      1.809     4.30       2.9113      20.4491     47.86743         9     1.046     0.741 -80.31   3
        22    966.8068    979.7416 300.1563225 +22.9459816     662.6133     72.46255      1.926     4.75     2.934449      20.4491     51.27062        10     1.313     0.661 -79.14   3
        23    116.1831    928.4297 299.9081562 +22.6761185     4172.999     72.48102     16.093    59.12      10.6335      20.4491     89.84983      1124    14.580     6.653 -35.32   3
        24     21.0000    981.9761 299.8611621 +22.6628878     871.4611     72.38865      3.228     3.85    -4.214245      20.4491     36.06588         5     1.232     0.344 -67.85   3
        25    187.9931    965.6300 299.9183764 +22.7083378     1425.181     72.48102      4.780    10.18     47.31855      20.4491     41.21236        19     2.084     1.385  14.15   3
        26    185.1796    963.9119 299.9180607 +22.7070008     1327.258     72.40714      4.353     8.69     45.69102      20.4491     44.48888        17     2.075     1.017 -75.44   2
        27      3.4292   1008.8196 299.8469704 +22.6653031     2392.641     66.87324     24.206    45.78    -26.73272      20.4491     71.35605       180    16.071     3.618  88.28  27
        28    221.7701   1009.0352 299.9147560 +22.7309192     1020.535     72.49948      3.012    10.80     83.75532      20.4491     45.77668        21     2.118     1.535  -9.49   3
        29    693.4782    963.2405 300.0764772 +22.8593057     6774.758     72.46255      1.855     4.03     3.311867      20.4491      393.656        41     1.437     1.373  53.82   0
        30    397.0255   1007.2845 299.9698386 +22.7830152     747.1407     72.46255      2.033     7.29     3.960937      20.4491     48.72333        16     1.598     0.932 -42.88   0
        31      3.7510   1019.8010 299.8434973 +22.6685461     2789.989     67.76771      8.073    29.28    -29.51745      20.4491      72.6917       180     7.378     3.225  -7.37  27
        32    588.6970   1000.7926 300.0316186 +22.8386563     2442.381     72.37016      1.919     4.37     3.128726      20.4491     149.2096        35     1.459     1.406 -22.86   0
        33    573.1516    957.9780 300.0407080 +22.8217100     361.4935     72.48102      1.588     5.89     3.076655      20.4491     35.61641         8     1.018     0.958 -75.56   0
        34    284.7743    957.5092 299.9511126 +22.7350571     46.47622     72.40714      1.258     5.01     19.55881      20.4491     45.34641        10     1.154     0.967  20.47   0
        35    844.6770    956.3071 300.1258590 +22.9026469     344.7744     72.62856      1.661     4.52     3.276918      20.4491     33.04855         5     0.812     0.715  17.02   0
        36    601.9539    953.9316 300.0509945 +22.8291875     1567.414     72.46255      1.792     4.42     3.139668      20.4491     104.9747        26     1.329     1.239   8.29   0
        37    495.7332    950.1411 300.0191525 +22.7962399      1053.12     72.51794      1.702     4.78      3.39432      20.4491     84.10695        20     1.346     1.073  64.86   0
        38    426.4160    948.3658 299.9981542 +22.7749359     6556.043     72.46255      1.791     3.87     3.754195      20.4491     473.1365        46     1.427     1.389  33.95   0
        39    459.0308    935.1348 300.0126093 +22.7809252     414.1528     72.48102      1.413     3.78     3.684446      20.4491     46.64191         5     0.804     0.510 -57.62   0
        40    156.4769    926.6672 299.9212535 +22.6877084     1374.332     72.57327     12.193    12.52     16.26378      20.4491     40.54792        28     2.443     1.784  52.99   3
        41    972.8638    927.2448 300.1752923 +22.9327218     2145.546     72.49948      1.946     4.88     2.900761      20.4491     119.9547        32     1.487     1.312 -16.68   0
        42    622.7562    924.5121 300.0670444 +22.8269842     441.1826     72.48102      1.852     6.08     3.173075      20.4491      39.3626         9     1.055     0.987 -79.18   0
        43    761.6235    915.4680 300.1132547 +22.8660258     839.1545     72.46255      1.943     7.30      3.45271      20.4491     57.50681        16     1.492     0.999  57.97   0
        44    680.7238    993.8153 300.0625550 +22.8642549     9591.521     72.48102      1.937     4.33     3.321032      20.4491     593.3476        44     1.449     1.376  66.53   3
        45    681.6750    912.2200 300.0893976 +22.8411238      222.335     72.48102      1.810     4.89     3.263303      20.4491     31.50901         5     1.362     0.496 -27.67   0
        46    574.1547    911.2645 300.0562166 +22.8086076     387.7118     72.49948      1.930     5.89     3.119404      20.4491     39.11072         7     1.334     0.732 -43.54   0
        47      6.7765    907.1879 299.8810708 +22.6371851     610.5173     72.48102      1.751     6.05     2.618901      20.4491      50.9135        13     1.282     0.802  62.93  16
        48    818.6588    903.9698 300.1347736 +22.8798223     11336.67     72.49948      1.783     3.89     3.396347      20.4491     690.1802        50     1.422     1.402 -13.00   0
        49    775.5323    996.8087 300.0911256 +22.8935433     705.0035     72.48102      2.268     6.47     3.295189      20.4491     46.63246        12     1.352     0.868  -0.62   8
        50    796.2458    910.4935 300.1256645 +22.8749767     1004.681     72.49948      1.836     4.95     3.388854      20.4491     79.37557        21     1.350     1.139 -87.12   0
        51   1008.8128    903.1495 300.1943464 +22.9365737     416.9675     72.53638      1.555     3.74     2.879899      20.4491     35.84069         5     1.385     0.290 -78.91   0
        52    864.0328    903.7993 300.1489760 +22.8933735     356.7549     72.44408      1.634     5.00     3.393521      20.4491     32.62297         6     1.520     0.465  43.53   0
        53    248.4026    902.0221 299.9578500 +22.7082318     716.3652     72.42561      3.090     3.48     9.432092      20.4491     27.42957         5     1.498     0.233  73.04   0
        54    130.0563    896.2247 299.9229426 +22.6710510     1026.806     72.48102      3.659     4.24     9.324863      20.4491     56.40721        13     1.123     1.024 -34.49   0
        55    523.9800    892.1403 300.0468134 +22.7880723     418.3921     72.42561      1.468     4.66     3.276527      20.4491     38.43332         8     0.978     0.631 -62.08   0
        56    870.4624    891.4168 300.1550086 +22.8917451     432.5138     72.46255      1.843     5.46     3.434433      20.4491      35.2301         9     1.237     0.680  41.80   0
        57    827.1161    886.1066 300.1432206 +22.8772286     1358.523     72.66541      1.730     4.06     3.459511      20.4491     103.9594        21     1.280     1.083 -64.00   0
        58    120.7953    886.6985 299.9231623 +22.6655403     661.1856     72.37016      3.011     3.08     7.650072      20.4491     54.49328        10     1.014     0.827  51.62   0
        59   1010.1589    885.1035 300.2006364 +22.9317937     521.7939     72.49948      1.743     5.36     3.063743      20.4491      47.8065         9     1.086     0.883  49.79   0
        60    680.3234    883.2175 300.0984100 +22.8323944     373.7005     72.48102      1.229     3.41     3.280535      20.4491     47.25552         5     0.756     0.445  76.45   0
        61    209.3056    987.6119 299.9178509 +22.7210365     1850.308     72.42561      3.725    14.61     65.73122      20.4491     55.23399        51     2.876     2.065  77.68   3
        62    865.0381    879.4155 300.1572207 +22.8866733     748.7543     72.49948      2.061     6.81      3.49766      20.4491     49.38422        15     1.433     1.048  67.02   0
        63    914.0828    871.1042 300.1752187 +22.8989846     520.9264     72.66541      1.685     5.98     3.358237      20.4491     45.85669        10     1.089     0.924  21.23   0
        64    764.7724    869.8459 300.1290752 +22.8538729     768.2911     72.51794      1.635     4.40      3.49147      20.4491     69.71946        15     1.248     0.865  38.39   0
        65     24.9644    868.0001 299.8994650 +22.6314139     298.7486     72.42561      1.421     3.70      3.44813      20.4491     33.07409         5     1.495     0.263  67.85   0
        66    776.7137    866.8992 300.1337556 +22.8566063     575.1661     72.64699      1.616     5.69     3.500466      20.4491     50.07014        15     1.283     1.101  33.14   0
        67    477.6184    866.0667 300.0408599 +22.7666862     4141.954     72.46255      1.642     3.52     3.438488      20.4491     346.8239        36     1.304     1.249  80.24   0
        68    929.6483    863.2275 300.1826352 +22.9013868     103.8054     72.49948      1.386     5.18     3.320427      20.4491     27.10767         5     1.030     0.737  -6.02   0
        69    256.8071    854.9943 299.9757575 +22.6972679     306.5026     72.33318      1.355     3.75     5.356576      20.4491     40.69013         6     0.961     0.419  53.61   0
        70    520.7709    853.9599 300.0582313 +22.7761545     406.5872     72.49948      1.804     5.95     3.392499      20.4491     36.21438         8     1.039     0.958  39.75   0
        71    202.7772    851.6097 299.9600575 +22.6800845     735.1359     72.48102      1.696     5.10      6.50758      20.4491      66.9527        15     1.259     1.080 -32.94   0
        72    179.9736    848.8398 299.9538685 +22.6724470     1574.971     72.51794      1.770     3.61     6.573369      20.4491       164.99        29     1.400     1.227  -3.53   0
        73   1006.0617    836.5023 300.2151647 +22.9166057     2085.485     72.57327      1.822     4.12     3.331642      20.4491     138.8825        28     1.315     1.274  -6.82   0
        74    711.5908    836.9060 300.1232137 +22.8284744     347.2473     72.40714      1.683     4.35     3.451482      20.4491     38.91569         6     0.917     0.658   5.76   0
        75    212.4013    830.1055 299.9700420 +22.6768059     399.5353     72.38865      1.527     3.66     5.439644      20.4491     53.14994         8     1.109     0.679 -84.97   0
        76    789.4594    830.1411 300.1496824 +22.8498729     652.3373     72.55483      1.647     5.11     3.531885      20.4491     57.87485        12     1.235     0.742   5.21   0
        77    657.6902    824.2800 300.1105253 +22.8086913     4861.679     72.59171      1.577     3.16     3.468826      20.4491     449.2436        37     1.257     1.247 -63.79   0
        78    147.6886    824.6919 299.9516840 +22.6558342     367.2473     72.64699      1.592     3.92     5.208663      20.4491     46.95116         6     1.010     0.530  34.21   0
        79    460.1107    821.4536 300.0499173 +22.7486348     600.0914     72.51794      1.442     4.25     3.607852      20.4491     69.37711        13     1.223     0.800  12.23   0
        80    207.7038    817.8769 299.9725574 +22.6718895     1406.052     72.61014      1.695     4.08     4.916489      20.4491     140.2271        25     1.347     1.172   4.63   0
        81    678.2665    816.7766 300.1193757 +22.8127059     807.7419     72.46255      1.541     3.85     3.461524      20.4491     81.53288        11     0.976     0.800 -34.02   0
        82    476.4147    815.6363 300.0568838 +22.7518553     276.6942     72.48102      1.531     3.99     3.625507      20.4491     47.31596         7     1.183     0.717  22.78   0
        83    226.7308    815.3392 299.9792986 +22.6768710     397.4268     72.51794      1.756     5.75     4.707449      20.4491     37.86779         7     1.066     0.875  -6.21   0
        84    594.9717    807.5007 300.0964445 +22.7850713     438.4978     72.38865      2.186     3.81     3.701118      20.4491     32.20961         6     0.845     0.494  -6.28   0
        85    833.7722    804.0004 300.1719969 +22.8556470     4298.995     72.44408      1.611     3.27     3.555163      20.4491     331.6435        30     1.263     1.176 -15.46   0
        86    564.3978    800.1709 300.0893059 +22.7738005     128.1059     72.42561      1.046     3.46     3.714031      20.4491     28.02195         5     0.768     0.452  72.33   0
        87    242.4617    798.6964 299.9896011 +22.6768177     428.7795     72.57327      1.894     4.17     4.023081      20.4491     41.53841         7     0.945     0.552 -34.30   0
        88    550.7260    796.3006 300.0863067 +22.7685903     597.1866     72.61014      1.506     4.26     3.702321      20.4491      71.6107        12     1.102     0.978  48.57   0
        89    197.0558    794.3982 299.9768799 +22.6619613     1087.527     72.40714      1.683     3.82     4.124108      20.4491     108.4131        20     1.260     1.038 -11.69   0
        90    346.6985    786.4393 300.0260081 +22.7045723     54108.94     72.48102      1.615     3.23     3.645895      20.4491     5226.686        94     1.402     1.374  45.03   0
        91    612.0446    790.0022 300.1074513 +22.7851673     506.6082     72.46255      1.491     4.10     3.762259      20.4491     51.78968         7     0.963     0.500  41.03   0
        92    604.7026    785.7089 300.1065602 +22.7817338     1499.519     72.66541      1.440     2.83     3.768821      20.4491     166.9556        21     1.139     1.011 -15.35   0
        93   1017.5466    784.7982 300.2355606 +22.9051925     864.2215     72.42561      1.702     4.99     3.732576      20.4491     72.13226        20     1.337     1.128  59.34  16
        94    274.8360    784.5628 300.0042641 +22.6824767     579.5589     72.55483      1.684     4.27     3.798909      20.4491     54.77774        11     1.179     0.868   2.99   0
        95    633.5547    781.7383 300.1168382 +22.7892437     885.4096     72.51794      1.549     3.43     3.696865      20.4491     91.90007        14     1.071     0.877 -15.76   0
        96     33.0763    781.0524 299.9302537 +22.6089246     786.9984     72.48102      1.711     4.44     3.755934      20.4491     70.29736        14     1.154     1.027  54.00   0
        97      1.2400    781.3282 299.9202736 +22.5994480     301.8131     55.90949      1.043     2.79     3.557355      20.4491     63.09077         5     0.901     0.389  77.52  24
        98    644.8160    780.0131 300.1209072 +22.7921244     527.4736     72.42561      1.363     3.62       3.6669      20.4491     65.28415         9     0.977     0.624 -36.64   0
        99    965.0649    777.1408 300.2216761 +22.8872710     438.3082     72.51794      1.557     4.30     3.885233      20.4491     37.33247         8     1.095     0.638 -72.50   0
       100    749.6295    775.9506 300.1548873 +22.8223752     438.6948     72.49948      1.504     5.82     3.568374      20.4491     37.76514        11     1.076     0.885 -88.73   0
       101    787.4271    766.7704 300.1696530 +22.8310668     733.8637     72.48102      1.573     3.45     3.633602      20.4491     69.57034        16     1.069     0.976  -4.70   0
       102    396.4479    763.7029 300.0488787 +22.7129709     31648.67     72.51794      1.580     2.98     3.654182      20.4491     3644.335        69     1.352     1.311  47.94   0
       103    410.7418    764.1672 300.0531760 +22.7173911     1990.949     72.49948      1.534     2.98     3.646549      20.4491     207.9047        25     1.169     1.083  57.37   0
       104    919.6041    759.8398 300.2131201 +22.8686816     2719.849     72.49948      1.599     3.43     4.038036      20.4491     238.0762        28     1.214     1.144 -52.27   0
       105    407.6386    757.8901 300.0542507 +22.7146592     672.0166     72.46255      1.650     5.07     3.654055      20.4491     51.76883        14     1.130     0.941  67.01   1
       106    949.1381    757.9478 300.2229475 +22.8769860     353.6104     72.53638      1.646     4.52     4.164433      20.4491     35.59316         6     0.966     0.601  65.63   0
       107    677.4711    755.7463 300.1389696 +22.7949463     962.2487     72.49948      1.539     3.17     3.654333      20.4491     94.84717        17     1.077     0.967  67.47   0
       108    279.0414    755.5919 300.0149895 +22.6754279     922.5388     72.49948      1.586     3.91     3.759612      20.4491     87.03016        17     1.224     0.959  36.56   0
       109    514.3332    756.0426 300.0880626 +22.7461240     487.0969     72.46255      1.844     4.08     3.712879      20.4491     44.68393         6     1.106     0.430 -16.90   0
       110     84.0079    751.2546 299.9557649 +22.6156666     503.0749     72.48102      1.863     5.19      4.14369      20.4491     44.95724         9     1.150     0.771 -30.05   0
       111    524.4500    750.4315 300.0930364 +22.7475469     961.5632     72.51794      1.516     3.21     3.729743      20.4491     109.5692        16     1.080     1.064  62.33   0
       112    925.8114    747.9326 300.2189271 +22.8671207     601.5941     72.49948      1.537     4.42     4.224966      20.4491     54.89205        10     1.062     0.709   3.70   0
       113    426.3965    746.5048 300.0637892 +22.7170177     438.4465     72.38865      1.582     5.31     3.660024      20.4491     43.28064         8     0.982     0.811  15.51   0
       114    382.8587    746.4537 300.0502570 +22.7039460      429.813     72.53638      1.734     4.33     3.684923      20.4491     42.36324         8     1.106     0.658  34.79   0
       115    470.6369    745.3946 300.0779203 +22.7299656     310.6888     72.51794      1.401     3.62     3.668201      20.4491     50.71946         8     0.909     0.687 -46.58   0
       116    112.5528    744.7882 299.9667377 +22.6223782     492.2227     72.49948      1.337     2.43     4.165294      20.4491     80.08896         7     0.898     0.474  78.54   0
       117    902.8692    742.1435 300.2136534 +22.8585844     231.7345     72.49948      1.397     4.54     4.105045      20.4491     34.96314         5     0.815     0.720  60.10   0
       118    276.8437    740.0629 300.0193534 +22.6703139     517.9062     72.48102      1.513     4.94     3.751415      20.4491     50.71323         9     1.019     0.678  -8.19   0
       119    599.8992    730.3163 300.1230706 +22.7643927     417.5201     72.64699      1.322     3.93     3.806365      20.4491     61.52272        10     1.047     0.668  48.57   0
       120    569.5320    728.5296 300.1141937 +22.7547762     613.7556     72.51794      1.483     2.83     3.823946      20.4491     73.47751        12     0.948     0.842 -25.13   0
       121    478.8985    727.6532 300.0862586 +22.7273512     397.4609     72.57327      1.496     3.30     3.697618      20.4491     56.04907         8     1.026     0.530  22.71   0
       122    986.0362    725.0046 300.2451672 +22.8785744     4485.734     72.49948      1.625     3.45     4.649666      20.4491     338.3139        35     1.294     1.273 -76.95   0
       123    591.6299    725.9891 300.1219016 +22.7606715     1412.591     72.48102      1.437     2.85     3.828518      20.4491     164.3358        19     1.107     0.945  25.12   0
       124    511.3486    725.6223 300.0970212 +22.7364979     417.5948     72.48102      1.608     4.18     3.776263      20.4491      42.0365         8     1.030     0.636  36.27   0
       125    673.7603    720.8600 300.1491531 +22.7838174     230.8953     72.48102      1.459     5.08     3.792727      20.4491     35.12496         7     1.229     0.594 -15.82   0
       126    974.4663    716.5365 300.2443101 +22.8726757     1477.532     72.53638      1.633     3.72     4.608439      20.4491     123.4221        21     1.286     1.001 -30.50   0
       127    337.3950    710.1719 300.0479036 +22.6799003     871.7197     72.44408      1.364     2.53      3.75259      20.4491     116.5865        15     0.979     0.897 -16.75   0
       128    800.8142    707.6785 300.1930342 +22.8181074     2515.381     72.49948      1.539     2.76     3.978666      20.4491     263.5302        30     1.281     1.164 -14.68   0
       129   1005.5499    706.5710 300.2572472 +22.8791225     1464.732     72.49948      1.610     3.62     4.719188      20.4491     161.9668        24     1.296     1.128  73.51   0
       130     23.3347    697.8787 299.9542591 +22.5821538     843.3815     72.59171      1.857     4.12      4.21777      20.4491     104.3653        16     1.244     1.122 -18.61   0
       131    883.4526    693.8214 300.2233043 +22.8388859      583.785     72.48102      1.863     5.27     4.284598      20.4491      42.2445        13     1.184     0.889  60.45   0
       132    186.3281    693.9048 300.0062073 +22.6299198      550.496     72.59171      1.443     4.66      4.14579      20.4491     70.10789        11     1.148     0.765  30.31   0
       133    919.2755    684.6434 300.2374594 +22.8469804     147620.6     72.46255      1.588     3.16     4.491685      20.4491     14197.08       152     1.456     1.433  67.77   0
       134    681.5134    688.4176 300.1621126 +22.7768254     344.6549     72.42561      1.488     2.75     3.942476      20.4491     56.21217         5     0.718     0.460  69.25   0
       135    771.3736    684.9169 300.1912544 +22.8027483     843.5643     72.46255      1.607     3.97     4.049709      20.4491     84.20916        16     1.177     1.060  37.86   0
       136     82.9776    683.9929 299.9773035 +22.5960692     327.4595     72.46255      1.480     3.70     4.243566      20.4491     24.57089         5     1.020     0.386 -32.11   0
       137    951.9297    677.5040 300.2499653 +22.8547102     384.0354     72.59171      1.450     3.13     4.595469      20.4491     41.11021         6     0.777     0.498  -3.75   0
       138    605.3372    673.5648 300.1432083 +22.7497294     1586.934     72.48102      1.329     2.53     4.031047      20.4491     195.7054        18     1.085     0.876  69.47   0
       139    786.7176    670.7745 300.2006331 +22.8032839     9432.467     72.46255      1.468     2.71     4.212123      20.4491     1129.007        40     1.195     1.177  30.66   0
       140    288.2116    665.7761 300.0470306 +22.6524109     4948.277     72.48102      1.463     2.79     3.866102      20.4491     622.4525        30     1.170     1.099  39.31   0
       141    370.3661    663.7729 300.0732397 +22.6764738     1166.193     72.49948      1.373     2.56     3.863484      20.4491     142.7394        16     0.989     0.896  66.18   0
       142      2.4471    664.1479 299.9587300 +22.5662136     1304.341      62.4873      1.389     2.84     4.218341      20.4491     167.4892        20     1.229     0.912  69.59  24
       143    245.7788    661.3878 300.0352591 +22.6384250     494.8337     72.46255      1.707     3.80     4.109481      20.4491     45.36629         9     0.974     0.787  36.23   0
       144    578.5215    659.4551 300.1394412 +22.7376406     760.2012     72.51794      1.392     2.33      4.24477      20.4491     109.1232        14     0.980     0.831 -13.43   0
       145    570.2505    651.5882 300.1394215 +22.7329027     3224.265     72.51794      1.371     2.53     4.323012      20.4491     384.5466        26     1.108     1.024 -51.01   0
       146    560.3431    645.3458 300.1383644 +22.7281408     1575.421     72.53638      1.403     2.58      4.39464      20.4491     160.9844        17     0.983     0.948 -61.77   0
       147    489.2810    644.7168 300.1164422 +22.7066583     289.3828     72.62856      1.445     4.39      4.09179      20.4491     43.62745         6     0.967     0.590  27.43   0
       148    954.1069    643.3555 300.2617413 +22.8455498     398.0302     72.48102      1.416     3.79     4.527533      20.4491     46.38466         9     0.901     0.797  41.85   0
       149    223.7637    641.4000 300.0349071 +22.6260871     578.5856     72.46255      1.385     3.22     4.315629      20.4491     64.73416        10     0.901     0.776  13.71   0
       150    238.0397    639.8187 300.0398602 +22.6299154     554.6466     72.49948      1.377     3.61      4.27845      20.4491     67.87193        10     0.919     0.818 -42.29   0
       151   1007.2871    636.7236 300.2804878 +22.8595705     603.9036     72.61014      1.872     3.60     4.402611      20.4491     59.30523        10     0.991     0.838 -70.83   0
       152    263.6467    636.7603 300.0488175 +22.6367180     502.0138     72.53638      1.370     3.72     4.220802      20.4491      57.5959         9     1.069     0.622  30.31   0
       153    584.1979    635.4398 300.1490121 +22.7324467     514.5696     72.49948      1.367     3.40     4.441487      20.4491       56.107         9     0.919     0.774  44.60   0
       154    485.2039    634.9393 300.1183497 +22.7026292     1797.264     72.46255      1.389     2.64     4.124887      20.4491     232.4458        19     1.059     0.927  29.57   0
       155     60.0967    631.4964 299.9872493 +22.5741482     660.0396     72.66541      1.751     3.57     4.337127      20.4491     78.40105        13     1.170     0.917 -25.57   0
       156    570.2167    630.4053 300.1462935 +22.7268106      1052.46     72.44408      1.373     2.86     4.495014      20.4491     122.8951        15     0.997     0.916 -16.99   0
       157    605.1987    629.2578 300.1575616 +22.7369658     432.1317     72.42561      1.385     4.22     4.480581      20.4491     58.31006         8     1.293     0.640  37.81   0
       158    139.1790    629.8558 300.0123601 +22.5974030      19898.4     72.49948      1.611     3.00      4.46655      20.4491     2384.177        65     1.407     1.352  39.78   0
       159    940.8080    626.2574 300.2631483 +22.8366536     288.5151     72.46255      1.647     4.52     4.524129      20.4491      35.1135         5     1.232     0.471  29.24   0
       160    988.1096    616.6893 300.2810136 +22.8480698      1201.88     72.64699      1.677     3.51     4.315637      20.4491     101.1494        17     1.084     1.012  60.51   0
       161     85.2068    614.0564 300.0007178 +22.5766796     1708.409     72.46255      2.020     4.54     4.487515      20.4491     122.3931        30     1.675     1.158  83.49   0
       162    855.1096    614.7549 300.2401580 +22.8076799     432.2954     72.46255      1.190     2.85     4.521131      20.4491      64.5884         9     0.887     0.652  59.47   0
       163    151.6993    614.4388 300.0212604 +22.5967362     378.3677     72.49948      1.489     4.91     4.543208      20.4491      37.8454         8     1.055     0.648  51.70   0
       164    533.7164    611.0424 300.1412176 +22.7103107     371.8716     72.44408      1.150     2.37      4.56211      20.4491      66.1809         7     0.699     0.662 -84.85   0
       165    928.4317    609.5472 300.2647169 +22.8281449     870.4503     72.49948      1.832     2.87     4.562841      20.4491     82.42702        14     1.048     0.848  27.91   0
       166    672.9028    607.7941 300.1856263 +22.7510914     246.6407     72.38865      1.351     3.57     4.614775      20.4491     42.01718         5     1.363     0.270  13.01   0
       167    490.2570    603.1879 300.1302380 +22.6950287     899.4228     72.46255      1.506     2.86     4.336681      20.4491     98.67612        14     0.977     0.900   9.69   0
       168    638.0095    601.7325 300.1767245 +22.7388944     480.8296     72.48102      1.275     2.99     4.676587      20.4491     57.71098         9     0.813     0.794 -24.12   0
       169    685.4880    600.6793 300.1918590 +22.7528191     410.1861     72.61014      1.303     2.52     4.583402      20.4491     66.89791         5     0.703     0.432 -63.02   0
       170    655.9685    599.9203 300.1829082 +22.7437556     549.9802     72.48102      1.257     2.68      4.66551      20.4491     81.42513        10     0.871     0.754  62.61   0
       171    534.4254    599.0914 300.1453208 +22.7070918     885.9556     72.42561      1.324     2.33     4.605633      20.4491      121.086        15     1.149     0.773  56.06   0
       172    968.2937    594.6870 300.2819795 +22.8358122     3179.517     72.66541      1.524     2.85     4.365259      20.4491     362.3083        29     1.186     1.157  -6.00   0
       173    499.9991    594.4337 300.1361148 +22.6954356     1701.774     72.44408      1.394     2.74     4.440703      20.4491     199.9261        20     1.079     0.987  26.49   0
       174     61.8785    587.9727 300.0019409 +22.5621993     5070.644     72.49948      1.663     3.37     4.343901      20.4491     522.7174        39     1.373     1.300   8.63   0
       175    474.9035    589.5972 300.1298731 +22.6865245     323.0422     72.38865      1.243     2.99     4.349031      20.4491     38.04522         5     0.738     0.440  21.45   0
       176    528.9926    585.4244 300.1480687 +22.7015393     213.5894     72.48102      1.025     3.11     4.625566      20.4491     48.62003         6     0.797     0.625 -34.61   0
       177   1007.6944    584.3051 300.2976452 +22.8446267     469.0843     72.64699      1.771     4.42     4.165267      20.4491     44.97433         7     0.857     0.649  51.67   0
       178    363.4483    581.2775 300.0978876 +22.6507230     9173.492     72.48102      1.350     2.45      4.44429      20.4491      1122.05        36     1.147     1.099  63.34   0
       179    485.8569    578.2684 300.1369629 +22.6865553     8990.669     72.49948      1.343     2.52     4.460486      20.4491     1108.044        40     1.159     1.115  56.66   0
       180    732.1955    574.8435 300.2148067 +22.7593923     213.3569     72.49948      1.136     2.77      4.48334      20.4491     48.69176         6     0.755     0.532 -29.65   0
       181    251.0772    575.3632 300.0648527 +22.6153307     341.4218     72.44408      1.712     3.85     4.474013      20.4491      30.5705         5     0.886     0.481  -0.61   0
       182    982.2614    569.7372 300.2944421 +22.8328240     12851.09     72.51794      1.546     3.01     4.294433      20.4491     1333.522        50     1.327     1.262 -65.11   0
       183    897.5864    572.4475 300.2671484 +22.8082457     1794.914     72.48102      1.339     2.61     4.576489      20.4491     221.9881        19     1.045     0.974  77.16   0
       184    546.4993    567.9068 300.1592102 +22.7017563     11582.34     72.66541      1.327     2.39     4.745955      20.4491     1607.451        47     1.199     1.116  52.89   0
       185    715.9651    563.7880 300.2133397 +22.7513539     559.4337     72.48102      1.425     2.91     4.611546      20.4491     58.70482        10     0.887     0.738  55.63   0
       186    274.0075    563.2986 300.0759028 +22.6187447     1389.404     72.35167      1.428     2.76     4.472459      20.4491     151.1251        22     1.231     0.975  -6.26   0
       187    520.9316    561.5343 300.1533186 +22.6922636     390.7578     72.53638      1.495     4.64     4.676456      20.4491     47.78523         9     1.016     0.657  55.16   0
       188    432.2405    562.5927 300.1253646 +22.6659829     264.2911     72.51794      1.290     3.48     4.380247      20.4491     39.93726         5     0.804     0.434 -19.83   0
       189    580.9926    559.0541 300.1728277 +22.7095514     148.6898     72.48102      1.235     3.74     4.806488      20.4491     33.52096         5     0.686     0.586   0.18   0
       190    478.1684    556.0106 300.1417988 +22.6778603     4348.025     72.48102      1.334     2.52     4.564634      20.4491     550.1161        27     1.091     1.052  71.94   0
       191    820.9918    556.1571 300.2485555 +22.7806238      818.198     72.49948      1.341     3.31      4.59217      20.4491     85.76686        10     0.944     0.744  38.90   0
       192    456.4373    554.3373 300.1355774 +22.6708661     1337.167     72.49948      1.458     2.63     4.505428      20.4491     159.5952        18     1.150     0.945 -29.92   0
       193    210.7047    553.9622 300.0592486 +22.5970823     725.1752     72.46255      1.387     2.98     4.392842      20.4491     92.71869        13     0.994     0.831  14.17   0
       194    897.9446    551.6953 300.2740009 +22.8023893     1593.499     72.53638      1.551     3.17     4.583844      20.4491     153.8932        20     1.180     1.018 -10.34   0
       195    144.2171    551.9871 300.0392191 +22.5765750     248.7606     72.42561      1.204     4.61     4.105629      20.4491     40.19328         7     1.193     0.505  -6.94   0
       196    594.7714    543.6258 300.1821301 +22.7092496     200212.7     72.46255      1.321     2.34     4.863051      20.4491     30071.01       197     1.404     1.351   1.08   0
       197    418.7951    550.2493 300.1251888 +22.6584088     368.0289     72.46255      1.305     4.11      4.40531      20.4491     46.62913         6     0.744     0.647  78.30   0
       198    778.5338    548.6888 300.2377451 +22.7657601     836.7207     72.59171      1.377     2.77      4.60555      20.4491     109.9538        13     0.987     0.833  23.24   0
       199    280.8286    543.5330 300.0844437 +22.6151175     3461.444     72.48102      1.423     2.64      4.48332      20.4491     463.9288        30     1.211     1.046  37.17   0
       200    846.6448    539.5903 300.2619349 +22.7835469     453.3199     72.49948      1.146     3.54     4.627782      20.4491     84.84496        10     1.025     0.812  71.69   0
       201    626.2585    530.7208 300.1961292 +22.7149781     327.0943     72.51794      1.422     3.84     4.891548      20.4491     39.74589         6     0.768     0.549 -46.59   0
       202    485.3405    523.9910 300.1544305 +22.6708161     2698.731     72.44408      1.369     2.40     4.495127      20.4491     357.2596        28     1.297     1.017 -86.22   0
       203    329.4847    526.5392 300.1050982 +22.6248283     362.3102     72.59171      1.266     3.84     4.484663      20.4491     63.67645         6     1.038     0.618 -47.75   0
       204    897.1952    520.6685 300.2838442 +22.7932480     334.1185     72.44408      1.121     3.38     4.596786      20.4491     46.46996         9     0.915     0.656  65.61   0
       205    802.8691    512.6376 300.2570397 +22.7626907     376.0746     72.44408      1.331     3.17     4.682067      20.4491     53.94176         6     0.810     0.480   2.78   0
       206    882.4227    510.2485 300.2826210 +22.7858295     1574.938     72.48102      1.284     2.50     4.623705      20.4491     197.4733        18     1.002     0.938 -76.06   0
       207    768.5468    510.4429 300.2470530 +22.7517797     363.6865     72.49948      1.560     3.81     4.662049      20.4491     47.47952         6     0.981     0.424  16.98   0
       208    753.5882    507.7928 300.2432511 +22.7465377     2663.156     72.35167      1.376     2.46     4.651013      20.4491     370.0338        22     1.020     1.008 -32.13   0
       209     12.7068    508.5369 300.0124595 +22.5246623     821.2652     72.59171      1.667     3.36      4.47714      20.4491     93.27512        16     1.203     0.881  -1.04   0
       210    391.3208    507.8440 300.1304095 +22.6379989      217.966     72.46255      1.270     3.77     4.353308      20.4491     46.74908         5     0.891     0.458 -40.75   0
       211    997.8356    505.4288 300.3201881 +22.8190016     495.4845     72.49948      1.499     3.91     4.227533      20.4491      51.0295        10     1.115     0.623 -22.93   2
       212    996.8541    501.2010 300.3212549 +22.8174924     822.0354     72.40714      1.698     3.60     4.233423      20.4491     72.06708        14     1.136     0.872  48.02   3
       213    963.1959    504.2922 300.3097498 +22.8083038     220.3372     72.37016      1.144     4.58     4.392612      20.4491     37.09191         7     1.333     0.447 -69.52   0
       214    540.9017    503.8492 300.1782707 +22.6816832     676.7412     72.53638      1.239     2.22     4.772143      20.4491       116.22        13     0.963     0.772  80.04   0
       215    658.3796    504.2734 300.2147248 +22.7170051     478.3628     72.48102      1.183     3.97     4.915587      20.4491     85.22206         6     0.995     0.454  61.08   0
       216   1010.9309    501.8419 300.3254391 +22.8218910     1201.215     72.46255      1.449     2.97     4.167338      20.4491      150.805        20     1.118     1.045  33.00   0
       217    882.7456    500.3778 300.2859271 +22.7830893     2175.941     72.49948      1.492     3.67     4.627752      20.4491      265.707        25     1.360     0.985  80.09   0
       218    636.0839    498.5548 300.2096356 +22.7086826     622.5517     72.46255      1.497     3.58     4.920038      20.4491     72.61325        11     0.993     0.873  81.09   2
       219    635.5730    494.4890 300.2107967 +22.7073616     421.7516     72.46255      1.325     4.23      4.92449      20.4491     47.49163         7     0.870     0.786  45.07   3
       220    920.8217    495.3927 300.2994214 +22.7930581     4345.494     72.46255      1.394     2.48     4.566222      20.4491     544.4491        29     1.162     1.074 -80.75   0
       221    422.0362    498.0350 300.1431537 +22.6443895     406.9083     72.55482      1.429     4.11     4.252863      20.4491     39.69746         7     0.875     0.551  49.89   0
       222    474.4787    497.2417 300.1597352 +22.6598797     322.9625     72.46255      1.068     3.06      4.25802      20.4491     77.10556         9     1.059     0.551   9.40   0
       223    561.7028    495.0609 300.1876021 +22.6853924     177.8678     72.55483      1.099     3.10      4.83475      20.4491     57.33369         5     0.785     0.587  -9.16   0
       224   1012.5613    486.0452 300.3310775 +22.8178376     969.0544     72.53638      1.576     3.86     4.163761      20.4491     89.16905        15     1.133     0.936  82.16   0
       225    152.9315    485.4271 300.0635412 +22.5600901      1070.09     72.46255      1.457     2.48      3.88044      20.4491     128.4935        17     1.098     0.945  21.73   0
       226    952.9403    483.2762 300.3133749 +22.7991920     216.4404     72.53638      1.182     4.60     4.441875      20.4491     31.03163         6     0.935     0.643 -36.37   0
       227    813.5604    479.5887 300.2711046 +22.7563957     374.0745     72.48102      1.255     3.41     4.729388      20.4491     49.85205         6     0.917     0.409  69.97   0
       228    419.1292    478.8602 300.1484748 +22.6380126     377.7918     72.51794      1.668     4.66     4.190345      20.4491     31.16729         6     1.118     0.550  66.06   0
       229    199.9319    477.6745 300.0806708 +22.5719593     297.0937     72.55483      1.320     3.46     3.947559      20.4491      37.6375         5     0.813     0.425  16.60   0
       230    143.3153    476.7616 300.0633652 +22.5547197     1792.589     72.46255      0.561    -0.94     3.916072      20.4491     1384.231         9     0.980     0.343 -35.25   0
       231   1008.7338    475.1125 300.3334331 +22.8135487     387.9152     72.57327      1.404     5.17     4.196997      20.4491      38.1643         8     1.199     0.630  42.20   0
       232    753.3270    470.0722 300.2554180 +22.7356210     447.8687     72.53638      1.311     2.62     4.663509      20.4491     66.58524         7     0.797     0.600 -72.83   0
       233    641.9469    467.7351 300.2214693 +22.7015856     318.2151     72.51794      1.421     3.20     4.918617      20.4491     59.70843         6     1.083     0.399  34.36   0
       234    361.7931    468.5438 300.1339815 +22.6178648     332.4708     72.46255      1.312     3.45     4.344078      20.4491     43.14389         5     0.994     0.346 -22.63   0
       235    694.1058    465.9870 300.2382882 +22.7167085     785.9542     72.40714      1.328     3.04     4.827751      20.4491     103.7119        11     0.983     0.737  71.87   0
       236    482.6887    464.2321 300.1730088 +22.6528609     267.8553     72.44408      1.130     2.73     4.189143      20.4491     42.03925         6     0.695     0.647  11.96   0
       237   1008.9946    458.4127 300.3389368 +22.8088254     622.1034     72.35167      1.427     3.18     4.233785      20.4491     68.31062        13     1.010     0.876  27.28   0
       238    754.9122    457.9242 300.2598563 +22.7326050     773.3348     72.61014      1.318     2.79     4.659652      20.4491     124.8741        12     0.929     0.832  51.69   0
       239    912.2632    454.3157 300.3100896 +22.7786881     1015.355     72.57327      1.323     2.59      4.57912      20.4491     123.8837        16     1.072     0.852  41.04   0
       240    896.5134    450.7401 300.3063383 +22.7729445     606.8441     72.57327      1.405     2.88     4.608311      20.4491     92.53636        13     0.990     0.892  46.95   0
       241    870.6171    452.2730 300.2977644 +22.7656312     199.2882     72.48102      1.243     2.98     4.659935      20.4491     36.25475         5     0.732     0.444 -70.20   0
       242    640.8096    448.5395 300.2273471 +22.6957303     3130.371     72.44408      1.270     2.36      4.89265      20.4491     497.3341        24     1.057     0.960  52.10   0
       243   1001.3790    447.2083 300.3401983 +22.8033242     576.3085     72.46255      1.439     3.92     4.286206      20.4491     70.92049        10     1.098     0.860 -22.42   0
       244    747.6021    441.8524 300.2627956 +22.7257973     114.0536     72.44408      1.064     3.23     4.635725      20.4491     32.86416         5     0.735     0.452  71.20   0
       245    116.6035    439.9261 300.0670201 +22.5361389     404.9003     72.38865      1.589     4.22     4.169065      20.4491     40.48003         6     1.011     0.503 -10.19   0
       246    412.5597    436.7345 300.1601063 +22.6239475     186.7942     72.44408      1.036     4.08     4.253893      20.4491     46.12158         6     0.895     0.612  23.72   0
       247    646.3808    436.2893 300.2330597 +22.6938798     239.4688     72.42561      1.115     3.44     4.878292      20.4491     39.78753         5     0.732     0.468  76.63   0
       248    480.7238    435.6099 300.1816892 +22.6440521      380.476     72.46255      1.173     2.72     4.231118      20.4491     53.70815         5     0.712     0.457  18.30   0
       249   1010.4897    426.3943 300.3497985 +22.8000668     944.8358     72.38865      1.531     2.95     4.300094      20.4491     118.5999        16     1.122     0.957   8.16   0
       250    924.1394    427.3509 300.3225483 +22.7744922     534.1323     72.53638      1.391     2.94     4.548913      20.4491      77.3577         9     0.902     0.690   5.78   0
       251    660.2866    424.2146 300.2413118 +22.6945761     298.4038     72.42561      1.223     3.29     4.874516      20.4491      43.8805         6     0.748     0.577  47.29   0
       252    751.4498    422.4931 300.2702796 +22.7213864     993.3838     72.53638      1.194     2.29     4.628788      20.4491     153.5385        14     0.893     0.836  57.23   0
       253    547.2354    423.3126 300.2063905 +22.6604493     333.5294     72.46255      1.124     2.25     4.818205      20.4491     60.72725         6     0.717     0.530  47.84   0
       254    255.3861    420.8384 300.1163663 +22.5722719     703.6732     72.49948      1.355     2.57     4.321101      20.4491     109.2172        11     0.894     0.782  15.31   0
       255    317.7788    416.3411 300.1372338 +22.5896839     3811.792     72.48102      1.375     2.47     4.363482      20.4491     485.3488        26     1.135     1.026  79.01   0
       256    264.9295    410.9926 300.1225303 +22.5723063     7738.428     72.46255      1.432     2.91     4.362893      20.4491     898.0804        40     1.273     1.132  54.50   0
       257    405.7637    405.3963 300.1681637 +22.6129117     5012.982     72.49948      1.320     2.33     4.298804      20.4491     687.8821        30     1.119     1.028  61.47   0
       258    649.9950    402.1164 300.2452786 +22.6851441     18631.78     72.40714      1.306     2.37     4.822612      20.4491     2615.344        50     1.177     1.075  62.88   0
       259    666.6609    403.2600 300.2500999 +22.6904647     563.8019     72.51794      1.593     3.02     4.827252      20.4491     63.16883         8     0.942     0.623  19.78   2
       260    668.6911    401.3024 300.2513678 +22.6905103     578.2106     72.66541      1.654     2.50     4.820691      20.4491     53.05777         5     0.703     0.469 -17.51   3
       261    506.9879    398.9583 300.2017633 +22.6413949     222.2077     72.46255      1.271     3.70      4.59527      20.4491     28.23438         5     0.653     0.603  -0.46   0
       262    846.8778    392.0471 300.3099125 +22.7412115     413.7891     72.48102      1.364     4.74     4.595865      20.4491     71.65615         9     1.174     0.725  70.66   0
       263    270.1542    389.2307 300.1312184 +22.5676249     267.7429     72.51794      1.231     3.93     4.439467      20.4491     34.61584         6     0.787     0.563  41.38   0
       264    983.5194    384.6156 300.3549449 +22.7799808     850.9188     72.46255      1.736     3.21     4.427231      20.4491     85.32623        14     1.065     0.900  66.32   0
       265    520.4601    383.9206 300.2108388 +22.6411118     291.7444     72.53638      1.067     4.75      4.74079      20.4491     44.81738         6     1.080     0.593 -59.33   0
       266    204.6241    382.1456 300.1131385 +22.5459467     2056.994     72.49948      1.441     2.96     4.430873      20.4491     254.1066        21     1.104     0.982  46.29   0
       267    217.6835    378.0146 300.1185401 +22.5486759     296.2949     72.44408      1.204     3.79     4.446095      20.4491     43.02848         5     1.018     0.429  24.83   0
       268    590.6774    371.5318 300.2367271 +22.6585883      6769.21     72.59171      1.268     2.18      4.83497      20.4491     1051.931        32     1.130     1.012  69.40   0
       269   1004.3971    372.1989 300.3654892 +22.7826592     1131.783     72.25914      1.323     2.55     4.408803      20.4491     153.4759        17     1.117     0.887  11.97   0
       270    305.3464    370.9452 300.1480997 +22.5729234     627.0098     72.51794      1.288     2.51     4.469173      20.4491     99.34852        11     0.912     0.770  59.18   0
       271    163.0635    363.9410 300.1061242 +22.5282614     491.4424     72.51793      1.325     3.01     4.499373      20.4491     68.15595         9     0.922     0.651  19.60   0
       272    851.0164    363.6019 300.3204354 +22.7342736     318.9915     72.37016      1.254     1.80     4.490864      20.4491     58.74736         6     0.722     0.489  -0.89   0
       273    794.8248    360.7640 300.3038365 +22.7166337     1296.531     72.49948      1.497     2.55      4.43235      20.4491     181.0744        16     1.040     0.896  85.68   0
       274    704.4682    361.4871 300.2754386 +22.6897842     581.5046     72.59171      1.293     4.11     4.525215      20.4491     72.19009        12     1.058     0.896 -43.82   0
       275     10.4094    361.7469 300.0593931 +22.4818587     1260.516     72.48102      1.499     2.88     4.743188      20.4491     172.0647        19     1.116     1.007   1.28   0
       276    278.4414    359.8855 300.1433195 +22.5616837     250.4667     72.44408      1.659     4.80     4.536768      20.4491      34.6678         5     1.411     0.462  82.17   0
       277    497.2687    357.8167 300.2120896 +22.6266650     6257.599     72.49948      1.284     2.28     4.805542      20.4491     877.5757        32     1.106     1.040  77.47   0
       278    986.8069    352.4565 300.3664081 +22.7717171     543.6487     72.46255      1.289     3.13     4.461323      20.4491     83.75657        12     1.134     0.722  10.59   0
       279    889.2590    352.2249 300.3360537 +22.7424516     1407.166     72.48102      1.397     2.53     4.490634      20.4491     164.4579        20     1.054     0.997  41.75   0
       280    482.0843    346.6721 300.2109787 +22.6189143     331.0945     72.59171      1.128     1.92     4.820503      20.4491     74.02864         7     0.695     0.607 -23.18   0
       281    564.4539    344.5361 300.2373203 +22.6429768     453.9893     72.51794      1.333     2.64     4.849845      20.4491     62.57693         6     0.839     0.439  70.83   0
       282      8.6888    343.0319 300.0649312 +22.4759724     998.7049     72.44408      1.459     2.96     4.800909      20.4491     129.9457        19     1.175     1.063  63.15   0
       283    842.7092    343.3007 300.3244333 +22.7259503     300.0789     72.64699      1.291     3.93     4.430856      20.4491     46.67516         6     0.797     0.556 -43.10   0
       284    545.3755    342.3788 300.2320789 +22.6366419     311.9915     72.46255      1.214     3.34     4.884646      20.4491     49.15705         5     0.997     0.324 -22.52   0
       285    861.9766    340.0309 300.3315026 +22.7307784     591.3933     72.48102      1.420     2.39     4.447923      20.4491     94.59083         9     0.861     0.679  76.16   0
       286    384.8750    336.9645 300.1838712 +22.5869993     2540.296     72.42561      1.341     2.22     4.461395      20.4491     401.8548        25     1.152     0.976  42.33   0
       287    103.1684    334.3036 300.0971226 +22.5017971     1084.487     72.44408      1.692     3.61     4.602221      20.4491     121.3264        17     1.149     0.935  41.59   0
       288    732.4380    331.9135 300.2937524 +22.6896604     430.5292     72.46255      1.756     4.42      4.33284      20.4491     39.33914         8     0.848     0.698   0.38   0
       289    332.6713    330.5961 300.1696939 +22.5695265     253.7829     72.42561      1.199     3.34      4.59943      20.4491     39.77982         5     0.752     0.431  22.36   0
       290    354.1578    326.3991 300.1777410 +22.5747602     30025.58     72.48102      1.333     2.44     4.596358      20.4491     3896.697        62     1.293     1.128  59.73   0
       291    888.7930    324.0059 300.3450658 +22.7341987      1363.25     72.33318      1.347     2.69      4.46003      20.4491     186.0544        17     1.084     0.870  70.86   0
       292    844.2793    321.9062 300.3318655 +22.7202695     304.2111     72.61014      1.267     3.66     4.409884      20.4491     43.12293         8     0.915     0.723   7.03   0
       293     50.4570    314.1634 300.0872756 +22.4802121     5038.146     72.48102      1.551     2.95     4.814493      20.4491     590.4565        35     1.282     1.223  61.46   0
       294    804.2748    313.0897 300.3222532 +22.7057585     527.8234     72.64699      1.364     3.43     4.359798      20.4491     83.86647        11     1.033     0.764  27.76   0
       295    228.5166    312.5606 300.1431478 +22.5331317     572.3425     72.44408      1.469     3.63     4.809637      20.4491     59.39244        11     0.956     0.855 -41.81   0
       296    452.3697    311.5961 300.2131097 +22.5999359     570.2232     72.44408      1.572     5.06     4.692646      20.4491     70.73639        12     1.275     0.803  41.45   0
       297    764.7132    306.2779 300.3121305 +22.6919556      1982.74     72.62856      1.288     2.30     4.318159      20.4491     253.9983        20     1.014     0.931  83.69   0
       298    573.1151    300.8886 300.2541804 +22.6330301     236.4555     72.61014      1.046     2.71     4.655046      20.4491     63.00183         8     0.826     0.631  38.09   0
       299    979.8224    299.2529 300.3814934 +22.7543262      735.765     72.49948      1.364     3.18     4.458307      20.4491     83.20531         8     0.889     0.657  68.64   0
       300    426.3197    290.8009 300.2117479 +22.5861577     2092.806     72.37016      1.466     2.98     4.661796      20.4491     262.2195        26     1.302     0.954  67.37   0
       301    638.7731    289.6483 300.2782795 +22.6494643     371.4235     72.49948      1.270     2.82     4.330953      20.4491     51.05671         7     0.782     0.622 -22.00   0
       302    857.9174    284.3777 300.3482949 +22.7135621     272.1512     72.44408      1.250     3.95      4.38671      20.4491     39.65094         7     0.976     0.608  88.63   0
       303    865.7610    283.9694 300.3508733 +22.7157925     582.8967     72.48102      1.195     2.59     4.394121      20.4491     97.24158        11     0.852     0.822 -66.93   0
       304    747.9686    281.2073 300.3150452 +22.6797354     455.1862     72.48102      1.217     2.48      4.29457      20.4491     75.93632         9     0.841     0.705 -16.34   0
       305    716.2272    280.6829 300.3053225 +22.6700809     395.1339     72.48102      1.448     3.53     4.295074      20.4491     63.53566         7     1.081     0.579  37.72   0
       306    826.7619    274.7602 300.3417002 +22.7014706     294.5488     72.55483      1.580     4.05     4.359229      20.4491     48.24648         7     1.045     0.533 -64.72   0
       307    502.2922    270.2139 300.2420773 +22.6030026     1186.468     72.40714      1.324     2.35     4.676006      20.4491      148.589        18     1.065     0.934 -68.13   0
       308     75.4352    270.6497 300.1091539 +22.4752114     183.5851     72.49948      1.220     3.78      4.94102      20.4491     35.65103         5     1.004     0.409 -15.51   0
       309   1013.3935    266.3195 300.4026535 +22.7549000     93.56744     72.40714      1.027     2.86     4.497746      20.4491     52.54046         5     0.699     0.482  80.89   0
       310    747.1663    262.1490 300.3209779 +22.6740164     2327.103     72.49948      1.301     2.34     4.308683      20.4491     299.2282        21     1.080     0.916  59.42   0
       311   1008.4330    256.5244 300.4042832 +22.7505982     3150.395     72.48102      1.436     2.50     4.513335      20.4491     405.6083        30     1.189     1.108  70.83   0
       312    379.2420    247.4193 300.2111689 +22.5595915     223.8099     72.49948      1.168     4.17     4.964503      20.4491     30.79775         6     1.208     0.410  30.39   0
       313    455.3843    245.3797 300.2355293 +22.5818162     569.0438     72.46255      1.307     3.96     4.657362      20.4491     92.88568        14     1.261     0.769  58.45   0
       314    161.0527    240.2158 300.1456386 +22.4921390     534.4637     72.48102      1.309     3.68     5.001487      20.4491     69.37178        12     1.164     0.714 -23.45   0
       315    130.1853    239.7651 300.1361888 +22.4827576     1325.721     72.48102      1.636     3.82     4.979649      20.4491     124.3394        22     1.241     1.123 -14.77   0
       316   1023.7418    237.2401 300.4153161 +22.7496316     286.3156     56.00515      0.814     1.65     4.569905      20.4491     82.27731         5     0.647     0.434 -82.85  24
       317    214.2186    232.0040 300.1648330 +22.5057154      488.431     72.42561      1.234     3.44     5.006646      20.4491     62.38035         8     0.847     0.642  52.77   0
       318   1009.2083    229.3318 300.4133460 +22.7430081     403.3204     72.46255      1.372     2.39     4.569153      20.4491     56.51866         6     0.732     0.559  56.72   0
       319     69.5757    229.2113 300.1207734 +22.4615595     299.3534     72.48102      1.169     3.36     4.950481      20.4491     34.92479         5     0.757     0.432 -67.25   0
       320    890.5752    225.9577 300.3774309 +22.7065374     317.5268     72.53638      1.130     2.93     4.403743      20.4491     44.29109         6     0.780     0.494  87.69   0
       321    818.9540    223.5599 300.3558745 +22.6844116     572.8392     72.55483      1.321     3.15     4.362243      20.4491     92.48382        11     1.043     0.792 -78.64   0
       322    409.0183    223.0570 300.2283375 +22.5615134     486.4018     72.48102      1.467     3.06     5.005924      20.4491     61.57041         8     0.883     0.720 -74.06   0
       323    909.3950    216.6971 300.3863045 +22.7095063     429.4037     72.38865      1.264     3.78     4.444926      20.4491     50.17272         6     0.905     0.453  -5.56   0
       324    916.9241    212.5427 300.3900004 +22.7105646     2207.778     72.51794      1.409     2.46     4.463426      20.4491     325.6963        23     1.170     0.985  56.85   0
       325    335.4184    209.8208 300.2097271 +22.5356614     2012.842     72.48102      1.322     2.43     5.067479      20.4491     293.2749        20     1.122     0.873  65.28   0
       326    222.6292    209.7526 300.1746651 +22.5018459     143.2034     72.49948      1.345     4.94     5.043064      20.4491     29.69337         6     0.939     0.737 -88.97   0
       327    164.9633    205.5804 300.1580872 +22.4833661     347.0663     72.49948      1.362     4.28     5.049106      20.4491     45.86659         8     1.033     0.584  20.06   0
       328    413.3802    204.8864 300.2355882 +22.5575997     1109.755     72.40714      1.386     2.95     4.905874      20.4491     131.8027        14     0.947     0.893 -40.15   0
       329    814.9536    204.2031 300.3609053 +22.6776481     653.0994     72.46255      1.588     3.36     4.383321      20.4491     66.71404        10     0.918     0.711  23.64   0
       330    922.4111    201.2948 300.3953600 +22.7089714     224.5665     72.42561      1.004     2.61     4.488486      20.4491     50.15755         5     0.729     0.425  65.27   0
       331     11.6219    198.3376 300.1127773 +22.4353234     500.2042     72.46255      1.944     3.32     4.922386      20.4491     44.25427         5     0.908     0.450 -76.80   0
       332    348.3187    196.5772 300.2180358 +22.5357219     358.1759     72.44408      1.320     3.37     5.065418      20.4491     43.86631         7     0.853     0.631  72.44   0
       333    230.2061    197.0492 300.1811410 +22.5004682     619.2197     72.46255      1.359     3.20     5.072461      20.4491     90.59116        11     1.061     0.752  22.08   0
       334    768.0518    193.9630 300.3496045 +22.6606648     1827.747     72.49948      1.379     2.44     4.366439      20.4491      240.057        19     1.098     0.889  66.67   0
       335    832.9352    193.3951 300.3700172 +22.6799220     645.9899     72.46255      1.328     3.20     4.403667      20.4491     99.77084        12     1.000     0.872 -81.97   0
       336     82.6478    194.2605 300.1361704 +22.4554440     180.7441     72.53638      1.095     3.59     5.014004      20.4491     41.30905         6     0.858     0.541  48.80   0
       337    494.5138    190.5970 300.2654788 +22.5777955     200.9263     72.40714      1.220     3.89     4.342049      20.4491     37.83275         6     1.002     0.592 -34.65   0
       338    251.7474    190.4552 300.1899789 +22.5050292     472.9465     72.51794      1.313     3.19     5.091222      20.4491     73.65475         8     0.932     0.637  37.03   0
       339    772.0672    185.4570 300.3536148 +22.6594209     732.1416     72.51794      1.324     2.47     4.374897      20.4491     110.7965        11     0.891     0.778  33.36   0
       340    692.5480    184.6739 300.3290846 +22.6353917     1323.445     72.49948      1.270     2.33     4.325968      20.4491     187.1023        16     1.002     0.844  63.29   0
       341    540.9927    186.2685 300.2813553 +22.5904712      346.543     72.46255      1.228     3.92     4.327701      20.4491     52.32979         6     1.000     0.480  27.96   0
       342    513.9379    180.9483 300.2746558 +22.5808400     359.2006     72.53638      1.447     4.96     4.337058      20.4491     30.96289         8     1.021     0.681 -30.61   0
       343    888.0565    176.1934 300.3927852 +22.6914711      1606.02     72.48102      1.347     2.35     4.480087      20.4491     202.7897        20     1.070     0.941  63.87   0
       344    618.8604    176.5293 300.3087669 +22.6109886     1150.244     72.51794      1.376     2.46     4.326821      20.4491     153.8083        13     1.002     0.739 -89.08   0
       345    900.1774    175.4342 300.3968118 +22.6948798     726.2589     72.49948      1.263     2.54      4.49737      20.4491     112.9719        11     0.946     0.776 -66.43   0
       346    946.4453    174.6854 300.4114871 +22.7085091     338.6384     72.46255      1.253     2.64     4.540312      20.4491     46.02406         5     0.700     0.455 -67.84   0
       347   1016.8810    165.7575 300.4363590 +22.7270142     1166.316     72.44408      1.493     2.39     4.557301      20.4491     154.4933        17     1.028     0.923 -59.16  16
       348     40.2779    162.4100 300.1333308 +22.4335995     423.5053     72.44408      1.306     3.31     4.977711      20.4491     53.06767        10     0.917     0.748 -36.39   0
       349    250.9628    158.8351 300.1999879 +22.4957121       594.89     72.55483      1.153     1.94     5.139165      20.4491     122.5133         9     0.750     0.668 -24.38   0
       350    112.7445    153.2487 300.1588228 +22.4526891     2198.773     72.51794      1.498     2.83     5.159219      20.4491     270.5301        22     1.131     1.039  49.82   0
       351    936.0101    150.4195 300.4161005 +22.6984063     736.7432     72.46255      1.437     4.85     4.622027      20.4491     104.6556        11     1.258     0.727  79.98   0
       352     62.3248    150.0706 300.1441826 +22.4366651     494.2818     72.55483      1.609     4.38     5.135028      20.4491     51.30569        10     0.908     0.850 -33.31   0
       353    270.1503    146.5902 300.2099260 +22.4979437     5736.401     72.49948      1.416     2.66     5.126376      20.4491     713.7691        35     1.278     1.088  66.37   0
       354     54.2733    141.1475 300.1445735 +22.4316898       1343.7     72.49948      1.660     2.98     5.215683      20.4491     159.1693        21     1.137     1.103  86.30   0
       355    253.2880    137.3904 300.2076639 +22.4902490     518.1932     72.40714      1.299     3.43     5.132271      20.4491     80.82947        12     1.064     0.888 -14.55   0
       356    914.3200    128.3277 300.4164976 +22.6855615     3570.529     72.61014      1.398     2.47     4.724549      20.4491     497.5305        28     1.182     1.047  85.10   0
       357   1017.9437    127.0557 300.4492398 +22.7161967     2784.435     72.55482      1.513     2.99     5.044975      20.4491     346.0475        29     1.297     1.158 -74.20  16
       358    463.7950    123.5226 300.2776636 +22.5493200     599.1121     72.38865      1.332     2.97     4.651971      20.4491     70.36228        13     0.973     0.849 -77.36   0
       359    216.5185    123.6870 300.2006710 +22.4752962     409.7897     72.61014      1.405     2.96     5.152119      20.4491     62.05059         7     0.872     0.758  44.65   0
       360    387.8382    115.3980 300.2566550 +22.5242367     647.8994     72.49948      1.556     2.80     4.933762      20.4491     71.06249        10     0.912     0.726  48.04   0
       361    923.1611    113.9891 300.4239042 +22.6840818     247.3951     72.48102      1.388     2.29     4.807211      20.4491     42.82261         5     0.763     0.475  34.29   0
       362    392.1430    113.8082 300.2585101 +22.5250692     244.5194     72.46255      1.134     3.31      4.92591      20.4491     40.47738         5     0.957     0.332  43.02   0
       363    153.9503    112.4479 300.1848597 +22.4533205     663.6584     72.51794      1.386     2.90     5.186668      20.4491     78.11887         9     0.898     0.677  -2.80   0
       364    515.0912    110.6800 300.2977981 +22.5609898     1673.158     72.59171      1.312     2.24     4.657374      20.4491      277.458        17     1.054     0.834  89.82   0
       365    442.9444    111.0917 300.2752028 +22.5395033     406.6536     72.53638      1.215     2.57     4.796552      20.4491     75.57116         8     0.887     0.668  16.08   0
       366    576.6829    110.1274 300.3171585 +22.5792725     364.4669     72.61014      1.147     2.66     4.644793      20.4491     62.55775         7     0.835     0.566  57.34   0
       367    258.4627    106.4543 300.2193024 +22.4829127     472.8985     72.53638      1.391     2.66     5.117863      20.4491     62.54751         8     0.954     0.498  -0.60   0
       368    803.5851    100.3296 300.3910422 +22.6443730     280.3487     72.49948      1.027     3.57     4.900373      20.4491     57.51758         5     0.828     0.443 -43.72   0
       369    700.2595     92.4158 300.3614006 +22.6111735     235.2562     72.44408      1.104     3.48     4.893074      20.4491     30.82006         5     0.743     0.471  14.58   0
       370    289.0902     90.5084 300.2339983 +22.4875068     6041.869     72.64699      1.406     2.54     5.035084      20.4491     786.6769        31     1.212     1.065  66.13   0
       371    795.6775     91.2568 300.3915181 +22.6393971     235.9301     72.51794      1.062     2.52     4.941403      20.4491     56.37532         6     0.692     0.624  44.60   0
       372    140.3960     90.0112 300.1879187 +22.4428151     809.6993     72.31467      1.539     3.14     5.331368      20.4491     86.87669        10     1.024     0.652 -49.38   0
       373    918.0070     88.1965 300.4306581 +22.6751195     408.8116     72.29617      1.291     3.54      4.99554      20.4491     42.84801         8     0.825     0.678  42.05   0
       374    261.0719     84.5353 300.2272190 +22.4773975     275.2902     72.51794      1.329     2.64     5.023336      20.4491     55.80214         8     0.842     0.662  56.77   0
       375    304.6568     82.0358 300.2415872 +22.4897355     311.8086     72.48102      1.134     2.92     4.971128      20.4491     47.36693         7     0.748     0.622 -78.59   0
       376     50.5253     81.0211 300.1628993 +22.4133021     413.9739     72.48102      1.596     3.04     5.687881      20.4491     66.09718        11     0.994     0.883   4.83   0
       377    535.1738     75.8961 300.3153273 +22.5570044     6204.974     72.44408      1.351     2.53     4.744595      20.4491      840.436        31     1.167     1.032  70.85   0
       378    420.4730     75.7218 300.2796734 +22.5226088     763.4646     72.59171      1.363     2.78     4.891351      20.4491     89.48944        13     0.934     0.881 -18.37   0
       379    787.6689     66.1639 300.3971552 +22.6297832     889.1014     72.48102      1.674     5.11     5.022652      20.4491     96.64095        18     1.641     0.831 -69.77   0
       380    729.2197     67.3909 300.3785380 +22.6126446     373.3063     72.46255      1.200     3.77     4.996775      20.4491     50.06281         7     0.921     0.573  60.19   0
       381    880.2258     64.6065 300.4265208 +22.6570294     494.5851     72.48102      1.348     3.03     5.236685      20.4491     66.73985         9     0.889     0.704  20.35   0
       382    227.9679     59.5249 300.2250293 +22.4602954     527.4092     72.48102      1.448     3.87     4.858565      20.4491     76.49889         9     1.074     0.827 -21.09   0
       383    586.4022     58.5391 300.3369081 +22.5673513     537.7874     72.46255      1.210     2.40     4.734195      20.4491     58.30278         5     0.662     0.488 -13.00   0
       384    663.5698     56.0265 300.3617630 +22.5897278     6335.319     72.48102      1.358     2.47     4.997642      20.4491      771.583        34     1.201     1.042  68.82   0
       385    438.4821     54.9370 300.2920158 +22.5220281     1519.359     72.59171      1.322     2.54     4.825706      20.4491     190.8477        18     1.089     0.898  66.95   0
       386    704.6492     53.5337 300.3753719 +22.6013059     800.4066     72.46255      1.303     2.97       5.0507      20.4491     131.7619        12     0.968     0.799 -69.12   0
       387    720.8054     49.5285 300.3817051 +22.6049892     719.9655     72.42561      1.834     3.06     5.067292      20.4491     74.94791        12     1.106     0.686 -31.18   0
       388    187.5079     47.6413 300.2162988 +22.4447605      797.977     72.48102      1.621     3.71     5.177975      20.4491     80.94299        11     1.085     0.885 -70.89   0
       389    990.4565     47.6091 300.4664170 +22.6851138     471.1565     72.46255      1.209     3.22     5.587968      20.4491      58.5781         9     0.944     0.646  14.19   0
       390     34.6137     47.8139 300.1687171 +22.3989978     356.5051     72.40714      1.259     3.33     5.722347      20.4491     38.54419         5     1.093     0.294 -34.65   0
       391    759.0668     45.1740 300.3950422 +22.6151869     383.9655     72.46255      1.287     2.90     5.091441      20.4491     62.52164         9     0.893     0.677   5.69   0
       392    707.7941     41.0415 300.3804007 +22.5986545     2628.784     72.51794      1.330     2.37     5.104624      20.4491     364.1183        26     1.183     1.035  80.76   0
       393    723.0281     39.8885 300.3855222 +22.6028820     1026.918     72.46255      1.878     5.22     5.108772      20.4491     86.96951        20     1.573     0.917  43.86   0
       394    348.7649     41.2372 300.2685338 +22.4912235      479.623     72.55483      1.473     3.29     4.822262      20.4491     54.69931         8     0.883     0.680  32.37   0
       395      1.6964     35.0869 300.1626135 +22.3854783      551.721     58.62011      1.155     2.42      5.72822      20.4491     92.66091         9     0.854     0.646  68.20  24
       396    794.2285     32.4197 300.4101371 +22.6220398     1532.682     72.48102      1.354     2.46     5.141221      20.4491     232.5448        20     1.127     0.973 -79.25   0
       397    732.4008     25.6178 300.3930684 +22.6015824     735.2596     72.40714      1.300     3.38     5.166845      20.4491     102.9182        12     1.103     0.806 -19.48   0
       398    110.5903     24.7847 300.1997926 +22.4151502     485.4577     72.40714      1.489     3.26     5.720333      20.4491     78.15777        10     0.956     0.880  50.63   0
       399    537.8073     24.8169 300.3327023 +22.5431085     1148.022     72.42561      1.450     2.52     4.776698      20.4491     167.1342        17     1.060     0.934  40.79   0
       400    441.6000     22.9529 300.3033518 +22.5137686     876.1992     72.46255      1.469     3.18      4.77884      20.4491     109.4377        16     1.176     0.868  51.85   0
       401    823.9123     21.3839 300.4229686 +22.6277466     448.4268     72.42561      1.350     4.17     5.364666      20.4491     60.14832         9     1.041     0.697  81.24   0
       402    280.3935   1007.7078 299.9334179 +22.7481349     2667.938     72.38865      6.069    46.61     44.13727      20.4491      99.5503       414    18.793     3.208 -13.94  19
       403    241.9188    995.8878 299.9252988 +22.7331982     4376.648     72.61014      8.733    31.74     62.08982      20.4491     100.9826       376     7.267     4.722 -83.07  19
       404    261.2242    994.7808 299.9316625 +22.7386753     5933.043     72.49948      9.841    32.32     49.76939      20.4491     118.2745       524     7.606     5.479 -57.21  19
       405    280.1386    983.6024 299.9411818 +22.7411473     8665.522     72.46255      9.663    29.79     33.15027      20.4491     177.7975       793    10.690     5.228  60.61  19
       406    173.2506   1018.1539 299.8967044 +22.7189678     1673.737     72.51794      3.251    12.03     90.76351      20.4491     53.17796        35     2.841     1.417  -2.93  18
       407    216.4807   1000.4376 299.9159088 +22.7268669     1548.819     72.44408      5.348    15.26      75.9889      20.4491     51.66648        40     2.910     2.224 -50.38   3
       408    215.0172   1009.4150 299.9125327 +22.7290010     2278.843     72.44408      4.739    16.80     83.68829      20.4491      72.1264        69     3.459     2.267  53.43  19
       409    212.6675   1005.0308 299.9132287 +22.7270389      1503.37     72.46255      4.108    10.61     80.25011      20.4491     60.86728        33     2.853     1.100 -33.23   3
       410    528.3190   1009.9357 300.0098423 +22.8231676     288.9017     72.59171      1.273     3.79     3.063273      20.4491     34.71965         5     0.885     0.466  88.99   0
