#   1 NUMBER                 Running object number                                     
#   2 X_IMAGE                Object position along x                                    [pixel]
#   3 Y_IMAGE                Object position along y                                    [pixel]
#   4 ALPHA_J2000            Right ascension of barycenter (J2000)                      [deg]
#   5 DELTA_J2000            Declination of barycenter (J2000)                          [deg]
#   6 FLUX_APER              Flux vector within fixed circular aperture(s)              [count]
#   7 FLUXERR_APER           RMS error vector for aperture flux(es)                     [count]
#   8 FLUX_RADIUS            Fraction-of-light radii                                    [pixel]
#   9 FWHM_IMAGE             FWHM assuming a gaussian core                              [pixel]
#  10 BACKGROUND             Background at centroid position                            [count]
#  11 THRESHOLD              Detection threshold above background                       [count]
#  12 FLUX_MAX               Peak flux above background                                 [count]
#  13 ISOAREA_IMAGE          Isophotal area above Analysis threshold                    [pixel**2]
#  14 A_IMAGE                Profile RMS along major axis                               [pixel]
#  15 B_IMAGE                Profile RMS along minor axis                               [pixel]
#  16 THETA_IMAGE            Position angle (CCW/x)                                     [deg]
#  17 FLAGS                  Extraction flags                                          
         1    477.7652     16.3587 300.3326163 +22.5431719     1100.542     72.00117      1.643     3.50     7.176599     20.29821     106.0545        16     1.207     0.897  63.80   0
         2    381.4362     14.4662 300.3032293 +22.5138027     772.0936     71.94622      1.641     4.66     7.012931     20.29821     78.28351        15     1.222     0.973  81.72   0
         3   1023.4525     11.3179 300.5044303 +22.7049028      1080.51     57.25104      1.416     4.65     7.126417     20.29821     195.8685        17     1.506     0.635  82.41  24
         4    153.0168      4.3129 300.2354310 +22.4425117     3796.746      69.4282      1.845     3.20     7.290682     20.29821     332.7438        45     1.544     1.387  36.85  24
         5    720.8644      5.4913 300.4119012 +22.6127633     461.4525     72.05609      1.455     3.53     7.281777     20.29821     56.62543        10     0.962     0.757  28.15  16
         6    479.2039      2.0843 300.3376882 +22.5394966      167.292     60.06077      1.016     3.83     7.315952     20.29821     49.01443         5     0.817     0.514 -41.85  24
         7    201.0434    984.8406 299.9321263 +22.7384422     4894.207     72.03779      8.790    27.79     61.92449     20.29821     91.87601       429     6.209     5.253 -39.79   3
         8     67.4768   1010.4161 299.8822729 +22.7057028     5301.204     71.94622     15.593    70.86     74.05801     20.29821     163.9737      1874    15.467    10.503  39.21  27
         9    528.3883    992.3883 300.0315695 +22.8387735     2442.362     71.83618      2.199     5.21     4.975972     20.29821     123.2848        38     1.647     1.443  18.78   0
        10    615.6617    987.8723 300.0602303 +22.8636383     7054.697     71.98286      1.998     6.22     5.801398     20.29821     433.3229        28     1.448     1.332  66.13   3
        11    620.3552    985.2564 300.0625438 +22.8642942     9577.984     71.96454      2.534    14.21     5.812983     20.29821     452.7462        73     3.535     1.589 -10.87   3
        12    714.9200    988.6859 300.0909044 +22.8936199     607.2645     72.11096      1.983     6.30     6.055194     20.29821     34.22378        11     1.338     0.832  27.91   0
        13    151.1298    997.2245 299.9125741 +22.7270199     2576.775     71.94622      4.512    17.51     82.22495     20.29821     58.98251        85     4.097     2.081 -64.10   3
        14     89.4576    986.1184 299.8970092 +22.7053314     987.5447     72.00117      7.251     8.61     68.84492     20.29821      36.6292        12     1.825     1.136 -86.82   1
        15    145.4883    967.1165 299.9206114 +22.7166927     1040.454     72.05609      6.255     8.87     54.98744     20.29821     64.32355        14     1.823     1.206  87.44   3
        16    149.2869    978.4244 299.9181153 +22.7210754     2075.104     71.90956      4.998    16.40     64.92375     20.29821     56.83236        58     3.154     2.480  69.44   3
        17    154.3751    998.6683 299.9131138 +22.7284076     1130.985     71.92789      5.652     7.53     84.06174     20.29821     63.92572        18     2.220     0.715  79.26   3
        18    905.9913    971.7500 300.1560079 +22.9460024     825.0565     71.94622      2.609     4.92     5.253683     20.29821     48.85876         7     1.008     0.680 -21.52   2
        19    212.5099   1000.6534 299.9305502 +22.7464173     1108.978     71.98286      2.502     6.89     72.53873     20.29821     59.21764        20     1.581     1.268 -19.98   0
        20    127.1628    956.3181 299.9184242 +22.7080981     2027.864     71.90956     12.253    17.05     45.49832     20.29821     54.87208        71     3.493     2.312  11.36   3
        21    119.2470    954.0086 299.9167137 +22.7050609     911.6663     71.96454      4.961     4.68     43.94047     20.29821      38.8312         5     1.054     0.590  -0.16   1
        22    144.2885    951.9172 299.9251809 +22.7119736     699.1586     72.05609      3.962     4.27     41.40779     20.29821      29.7682         5     1.433     0.362  49.80   2
        23    513.0335    949.0319 300.0408874 +22.8217258     438.9828     71.96454      1.974     5.22     5.292683     20.29821     25.72867         5     0.906     0.850  45.03   0
        24    225.2160    948.2198 299.9515551 +22.7351887     90.53698     71.92789      1.196     3.96     26.04141     20.29821     36.35482         6     0.792     0.567  45.25   0
        25    541.3015    945.3373 300.0508947 +22.8291389     1541.044     72.03779      2.103     5.31     5.329691     20.29821      93.5603        29     1.587     1.277   4.25   0
        26    145.0421    944.6013 299.9277943 +22.7101014     979.9916     71.94622      4.868     6.48     35.02625     20.29821     43.14773         8     1.952     0.604  30.68   2
        27    633.0715    954.5731 300.0764862 +22.8592963     6775.524     71.92789      2.124     5.09     5.788278     20.29821     360.6727        55     1.717     1.558  52.70   0
        28    435.4178    941.5016 300.0191635 +22.7962960     1037.094     71.87288      2.076     7.78     5.335461     20.29821     59.53565        22     1.397     1.211  59.99   0
        29    365.9039    939.5845 299.9981445 +22.7749032     6570.289     71.85453      2.133     4.80     5.664637     20.29821     414.8817        51     1.660     1.568  12.13   0
        30    336.7333    999.1456 299.9696942 +22.7832451     631.5253     72.00117      2.524     6.02     5.374019     20.29821      31.2676         9     1.242     0.821  86.87   0
        31    399.9449    926.9001 300.0128666 +22.7814700     663.3453     72.03779      2.827     4.73     5.540716     20.29821      35.4512         7     1.170     0.543 -82.70   0
        32    157.7327    984.7570 299.9186824 +22.7254253     1255.923     71.92789      8.897    16.52     71.24257     20.29821     45.88198        35     3.147     2.409 -82.28   3
        33    912.3112    918.6297 300.1752558 +22.9326344     2142.076     71.90956      2.132     5.86     5.564268     20.29821     94.16175        32     1.489     1.451 -16.01   0
        34    701.1505    907.7057 300.1129474 +22.8662393     854.5739     72.00117      2.262     8.61     5.711451     20.29821     40.56894        19     2.012     1.029  51.40   0
        35    195.1207    904.3846 299.9564461 +22.7135872      923.887     71.96454      9.841    10.38     12.38478     20.29821     28.99231        14     2.062     1.456  16.16   2
        36    144.2073    998.5201 299.9099999 +22.7253146     876.8926     71.87288      2.663     9.33     84.01746     20.29821     43.40187        16     2.251     1.080 -66.83   3
        37    736.4269    902.0558 300.1257830 +22.8751862     1016.987     71.94622      1.971     6.80     5.652602     20.29821     56.61665        25     1.545     1.295  33.74   0
        38     91.5838    902.6914 299.9247978 +22.6820442     1076.638     71.87288     11.280    11.13      18.1658     20.29821     33.71072        18     2.495     1.384  -5.58   3
        39    758.2841    895.4341 300.1347514 +22.8798326     11477.18     71.90956      2.039     4.78     5.586637     20.29821     626.2046        61     1.616     1.576  50.92   0
        40    804.0187    895.1906 300.1490936 +22.8934635     547.9658     71.90956      1.912     7.99     5.490417     20.29821     42.93248        13     1.542     1.157  36.45   0
        41    948.1535    895.4656 300.1939733 +22.9367130      409.156     71.94622      2.186     5.27     5.627366     20.29821     32.74692         8     1.147     0.683  48.52   0
        42    219.5404    974.2043 299.9413394 +22.7409400     7339.006     71.90956      7.634    31.80      48.4118     20.29821     154.8854       637     9.938     4.627  61.07  18
        43     70.4413    886.7056 299.9234215 +22.6711168     655.3847     71.96454      2.541     5.50      14.4157     20.29821     53.93677        10     1.349     0.633 -83.18   0
        44    157.9203   1000.0943 299.9137525 +22.7298802     2049.704     72.07439      5.266    14.27     84.99637     20.29821     66.98104        49     3.568     1.588 -80.78   3
        45     59.5292    916.1253 299.9104646 +22.6762804      3384.01     72.01949     12.629    49.85     20.05982     20.29821     81.98679       779    10.400     6.630 -33.58  19
        46    464.2954    883.3098 300.0470772 +22.7882505     511.2095     72.12924      1.565     4.40     5.434165     20.29821     36.70348         7     1.216     0.453  87.23   0
        47    766.8835    877.4271 300.1432877 +22.8772365     1402.092     71.94622      1.990     5.38        5.563     20.29821     84.83283        25     1.480     1.240  10.29   0
        48    949.0098    876.9333 300.2002662 +22.9316441     428.6388     71.94622      2.029     5.75     5.633967     20.29821     31.79507         6     1.582     0.588  46.41   0
        49    617.3129    874.0226 300.0977670 +22.8314450     605.5992     71.87288      2.605     7.82     5.606844     20.29821     38.50099        11     1.772     0.966 -86.57   2
        50    804.8527    870.0603 300.1575243 +22.8864942     951.4009     72.00117      2.330     8.35     5.551456     20.29821     50.99362        22     1.816     1.072  76.34   0
        51    853.1008    862.6178 300.1749940 +22.8988076     432.1108     71.85453      1.605     3.35     5.599711     20.29821     39.63045         7     0.992     0.832  63.89   0
        52    704.8049    861.3193 300.1291682 +22.8540120     816.8289     71.87288      2.048     6.47     5.629183     20.29821     45.65442        16     1.391     1.110   2.16   0
        53    716.1592    858.6896 300.1335630 +22.8566584     654.7177     71.94622      1.957     6.49     5.608007     20.29821     42.65401        11     1.314     0.901  -3.63   0
        54    417.2332    857.2809 300.0408838 +22.7666714     4338.559     71.90956      1.991     4.63     5.463973     20.29821     274.0272        43     1.526     1.493  63.69   0
        55    461.4540    845.4019 300.0585156 +22.7765168     394.8799     71.89122      1.654     3.93     5.445023     20.29821     32.00827         5     0.994     0.445  13.39   0
        56    143.6602    843.2817 299.9603037 +22.6806237     687.3664     72.03779      2.070     3.02     9.221712     20.29821      54.8734         8     0.875     0.608 -89.53   0
        57    119.5232    840.0508 299.9538478 +22.6724574     1422.154     71.94622      2.049     5.03     9.285422     20.29821     94.22911        28     1.434     1.389  -0.96   0
        58    991.3829    829.6516 300.2288631 +22.9307436     2046.228     71.94622      2.113     4.93      5.96851     20.29821     116.7291        33     1.474     1.443 -14.60   0
        59    945.6348    827.9850 300.2151258 +22.9165669     2052.864     71.94622      2.061     5.20     5.765476     20.29821     106.4377        31     1.451     1.414  58.13   0
        60    151.9636    821.5148 299.9699607 +22.6768694     471.4785     71.92789      2.059     7.44     7.652328     20.29821     35.61148        10     1.440     1.075 -74.82   0
        61    729.4130    821.6093 300.1497490 +22.8499777     705.4417     71.83618      2.143     8.32     5.595188     20.29821     44.71657        16     1.581     1.223 -19.00   0
        62    597.2867    815.5222 300.1105428 +22.8086447     4915.424     72.09267      1.868     4.10     5.795308     20.29821     360.5338        39     1.449     1.361 -12.03   0
        63     87.9126    815.8441 299.9518862 +22.6560321     385.7213     71.92789      1.557     4.49     7.290426     20.29821     49.09777         7     0.996     0.575 -77.94   0
        64    399.7682    812.6328 300.0499585 +22.7486197     604.1778     71.98286      1.718     5.19     5.593147     20.29821     42.59632        11     1.174     0.738 -18.45   0
        65    147.6299    809.1700 299.9726249 +22.6720279      1380.73     71.90956      1.986     4.48     6.750615     20.29821     89.85673        27     1.457     1.221  49.74   0
        66    617.7454    808.0280 300.1193541 +22.8126224     719.0112     71.94622      1.796     7.39     5.875667     20.29821     59.20862        17     1.587     0.965  -8.07   0
        67    167.2828    806.3215 299.9796630 +22.6771045     549.1351     72.05609      1.943     3.61     6.500058     20.29821     47.42688         7     1.010     0.598  75.66   0
        68    990.4185    795.8655 300.2395440 +22.9207437     1077.967     71.92789      2.076     6.77      6.22408     20.29821     57.93638        24     1.589     1.232  37.64   0
        69    773.2439    795.4313 300.1719252 +22.8555863      4196.97     72.00117      1.935     4.32     5.588374     20.29821     275.3817        38     1.456     1.392  44.57   0
        70    504.1697    792.0317 300.0891664 +22.7739959     281.1173     71.94622      1.508     4.70     5.575337     20.29821     32.67306         7     1.247     0.503   6.47   0
        71    182.7200    789.0795 299.9900678 +22.6767865     424.9974     72.07439      1.673     3.80     6.117409     20.29821     39.94329         5     0.844     0.490 -37.43   0
        72    490.1842    787.6329 300.0862397 +22.7685417     559.6941     71.92789      1.670     5.74     5.548319     20.29821     51.29614        12     1.362     0.840   3.86   0
        73    136.8959    785.8477 299.9768658 +22.6621174      973.313     71.98286      1.933     5.57     6.086615     20.29821     62.63759        19     1.443     1.127 -20.99   0
        74    552.1235    781.3265 300.1075841 +22.7852917     480.9766     72.03779      1.506     6.16     5.774695     20.29821     47.76104        10     1.299     0.820 -39.38   0
        75    286.2928    777.6951 300.0259911 +22.7045740     53867.92     72.11096      1.933     4.03     5.976819     20.29821     4210.079       101     1.658     1.578  25.08   0
        76    544.1446    776.7935 300.1065714 +22.7815991     1689.174     71.92789      1.905     4.31     5.768939     20.29821     108.6029        25     1.293     1.232  72.36   0
        77    957.2538    776.3006 300.2355510 +22.9051910     845.2542     72.03779      2.043     7.89     6.002042     20.29821     56.95422        19     1.401     1.247  78.02   0
        78    573.2225    772.7328 300.1169507 +22.7891456     879.1469     71.92789      1.717     4.32     5.840205     20.29821     65.68533        18     1.163     1.068  73.94   0
        79    584.2629    771.1381 300.1209091 +22.7919956     633.8524     71.98286      1.684     5.06     5.864312     20.29821     40.63626        16     1.140     1.046  -0.74   0
        80    689.7554    768.2294 300.1547336 +22.8227639     459.8895     71.98286      1.696     5.16     5.783573     20.29821     44.79019         7     1.030     0.731  24.57   0
        81    484.8559    765.2965 300.0918387 +22.7605312     311.9383     72.03779      1.790     4.76     5.664592     20.29821     26.95897         6     0.994     0.647  33.34   0
        82    727.0576    758.0179 300.1696817 +22.8310036     874.3431     71.92789      2.124     6.75     5.606025     20.29821     49.21199        21     1.446     1.193  28.34   0
        83    350.3982    755.6218 300.0531156 +22.7174552     2055.177     71.87288      2.005     3.70     5.864448     20.29821      182.322        30     1.302     1.289  86.99   0
        84    859.2672    751.1732 300.2131405 +22.8686306     2870.767     71.92789      1.931     4.44     5.697394     20.29821     169.6667        36     1.441     1.384   2.05   0
        85    336.0546    754.9601 300.0488659 +22.7129658     31557.45     71.94622      1.861     3.80     5.874902     20.29821     2447.456        79     1.574     1.493  28.82   0
        86    617.0176    747.2766 300.1388700 +22.7949553     870.4668     71.94622      1.665     3.62     5.900824     20.29821      87.0948        17     1.121     1.009  46.23   0
        87    218.3410    746.6560 300.0149335 +22.6752931     863.1116     72.01949      2.082     8.04     5.904539     20.29821     53.09658        22     1.542     1.298  42.71   0
        88    464.4733    741.9439 300.0930785 +22.7477175     865.3468     71.98286      1.643     3.72      5.76035     20.29821     86.71815        17     1.186     1.001  13.46   0
        89     24.2245    742.4980 299.9559201 +22.6158892     525.9483     71.85453      1.856     4.82     5.863778     20.29821     31.13957         8     1.187     0.555 -68.46   0
        90    865.5972    739.8768 300.2187861 +22.8672795     508.5172     71.85453      1.822     3.74     5.708267     20.29821     49.86739         7     1.171     0.487  20.17   0
        91    453.6581    747.1022 300.0880343 +22.7459577     498.3629     72.03779      1.834     5.24      5.71888     20.29821     40.26981         8     1.040     0.843 -38.33   0
        92    322.8011    738.6458 300.0500415 +22.7043098     299.4631     71.94622      1.459     4.16     5.864574     20.29821     35.05479         5     0.949     0.521 -52.01   0
        93    207.8834    997.8472 299.9300237 +22.7442246      321.663     71.94622      1.431     4.59     71.28966     20.29821     37.71304         5     1.236     0.485 -69.27   1
        94    618.9745    736.1532 300.1430942 +22.7923464     348.9455     71.96454      1.680     3.93     5.898017     20.29821        25.06         6     0.942     0.469  35.95   0
        95    843.5255    733.8433 300.2138608 +22.8589366     486.0374     71.92789      1.686     6.09     5.714097     20.29821      36.0251         9     1.195     0.873  16.15   0
        96    216.3051    730.9122 300.0194153 +22.6701643     563.3922     72.12924      1.681     5.71     5.855529     20.29821     56.53183        11     1.074     0.938  -3.56   0
        97    540.0283    721.6347 300.1232119 +22.7645245     443.3712     71.96454      1.710     3.94     5.973606     20.29821     41.85055         6     0.997     0.446 -11.73   0
        98    509.1169    719.7544 300.1141932 +22.7547228     649.9283     71.90956      1.726     6.59     5.958448     20.29821     51.31483        15     1.165     1.119  66.02   0
        99    418.1783    718.7891 300.0861848 +22.7271953     421.7754     71.92789      1.805     3.35     5.845482     20.29821     46.31929         7     1.038     0.769  63.58   0
       100    925.7294    716.5902 300.2451155 +22.8785898     4580.221     71.92789      1.874     4.17     6.117689     20.29821     302.7246        42     1.474     1.410  23.14   0
       101    531.2682    717.2756 300.1218990 +22.7606480     1312.509     72.01949      1.648     3.63     5.990877     20.29821     122.4701        21     1.172     1.137  58.13   0
       102    451.2874    716.7211 300.0971669 +22.7365234     255.3526     72.09267      1.295     4.19     5.911873     20.29821     34.63352         7     0.950     0.737  85.49   0
       103    613.0174    712.2167 300.1490147 +22.7836860     500.6693     71.92789      1.913     3.49     5.949395     20.29821     40.17085         6     0.887     0.486 -39.49   0
       104    914.1125    708.0029 300.2442803 +22.8726436     1744.195     71.87288      1.920     4.38     6.138299     20.29821     114.5601        27     1.355     1.282 -27.58   0
       105    277.0754    701.4465 300.0478961 +22.6799248     940.2634     71.94622      1.926     5.73     5.915658     20.29821      83.7444        15     1.252     1.023 -29.27   0
       106    945.3936    698.1913 300.2572302 +22.8791874     1719.852     71.79946      1.918     4.83     6.173996     20.29821     111.9909        29     1.520     1.282  53.66   0
       107    740.4809    699.0771 300.1930180 +22.8180886     2488.125     72.05609      1.837     3.87     5.678942     20.29821     191.2229        31     1.452     1.261  12.16   0
       108    249.6574    696.5696 300.0409487 +22.6703060     174.6001     71.96454      1.205     5.36     5.896248     20.29821      30.2188         6     1.035     0.784 -53.38   0
       109    823.1395    685.4458 300.2232256 +22.8389231     492.8583     71.96454      1.538     5.50     5.954275     20.29821     43.94301        10     1.188     0.718 -17.69   0
       110    126.2293    684.9100 300.0063420 +22.6299555     544.2241     71.90956      1.577     5.80     6.080412     20.29821     55.06381         9     1.400     0.676  80.50   0
       111    858.9935    676.1324 300.2374360 +22.8469809       148188     71.90956      1.828     3.79     6.414889     20.29821     10032.85       163     1.631     1.617  84.01   0
       112    621.1923    680.3329 300.1619204 +22.7769754     252.0537     71.94622      1.419     5.12     5.991311     20.29821     31.42006         6     1.042     0.710  14.45   0
       113   1005.9185    677.9732 300.2826908 +22.8914912     1232.894     71.92789      1.910     4.76     6.082946     20.29821     83.79655        25     1.381     1.245 -31.63   0
       114    711.4512    676.7183 300.1912300 +22.8029701     801.1722     71.96454      1.671     2.65     5.805811     20.29821     80.33504        11     0.913     0.757  16.13   0
       115    892.1357    668.9528 300.2501089 +22.8548391     432.5419     71.98286      1.696     5.17     6.430822     20.29821     44.27522         7     0.940     0.802  49.64   0
       116    545.1631    664.8026 300.1432739 +22.7497391     1701.187     71.96454      1.649     3.68     6.243979     20.29821     142.3976        23     1.194     1.160  21.57   0
       117    726.4658    662.1531 300.2006427 +22.8032812     9574.814     71.96454      1.723     3.54      5.79058     20.29821     783.8291        48     1.412     1.358  67.09   0
       118    227.8698    656.9280 300.0470460 +22.6523957     4952.119     72.01949      1.804     3.63     5.992393     20.29821     397.3141        40     1.444     1.355  13.87   0
       119    310.0408    655.2322 300.0731666 +22.6765383     1149.179     72.00117      1.712     4.03     6.066005     20.29821     89.48746        23     1.248     1.204  23.83   0
       120    186.4083    652.7530 300.0355036 +22.6387684     345.0041     71.96454      1.386     3.04     6.167604     20.29821     41.28699         5     0.737     0.437 -67.74   0
       121    518.7125    650.6324 300.1396362 +22.7377447     810.4853     71.90956      1.739     3.60     6.337673     20.29821     83.25943        14     1.018     1.002 -17.31   0
       122    509.8505    642.8216 300.1394124 +22.7328462     3331.054     71.94622      1.688     3.57     6.384045     20.29821      255.024        34     1.336     1.222   3.80   0
       123    500.1599    636.6103 300.1384111 +22.7281590     1384.548     71.94622      1.612     3.11     6.418777     20.29821     138.2471        23     1.336     1.107 -46.58   0
       124    428.5981    636.0033 300.1163205 +22.7065444     231.8686     71.72598      1.142     3.92     6.403444     20.29821     41.54574         5     0.973     0.536 -14.69   0
       125    893.5723    634.7064 300.2616810 +22.8454241     454.0429     71.85453      1.764     4.34     6.506204     20.29821     56.84825         9     1.347     0.541 -13.10   0
       126    410.0536    634.0000 300.1111967 +22.7004126     182.6428     71.89122      1.099     3.79     6.377181     20.29821     29.17532         5     1.428     0.289   0.00   0
       127    163.5836    632.4370 300.0350019 +22.6260947     662.4705     71.94622      2.004     4.44     6.384505     20.29821     67.71327         9     1.165     0.854  58.24   0
       128    178.0112    631.0958 300.0399251 +22.6300348     560.5803     71.85453      1.503     4.36     6.339526     20.29821     53.67567        13     1.075     0.931   8.03   0
       129    947.0632    628.6512 300.2803405 +22.8596943      521.377     72.00117      1.597     5.09     6.377119     20.29821     45.70364        11     1.261     0.856   7.24   0
       130    524.1687    627.5623 300.1488286 +22.7327523     366.7677     71.94622      1.558     4.21      6.45771     20.29821      43.7009         6     1.015     0.705 -44.44   0
       131    203.6392    628.2530 300.0488204 +22.6369011     494.5141     71.94622      1.765     4.37     6.264329     20.29821     46.36192         9     0.996     0.761   3.96   0
       132    424.8409    626.0651 300.1183781 +22.7025644     1820.589     71.90956      1.691     3.52     6.444395     20.29821     158.0742        28     1.347     1.209  44.13   0
       133   1001.0399    624.0456 300.2986847 +22.8745244     910.1205     72.01949      1.887     6.09     6.065319     20.29821      67.3731        20     1.436     1.182 -37.06   0
       134     78.8305    621.0004 300.0123595 +22.5974032     19843.57     71.90956      1.967     3.90     6.626076     20.29821     1547.852        71     1.660     1.542  27.32   0
       135    509.8145    621.6021 300.1462927 +22.7267402     1031.301      71.7811      1.820     4.09     6.492251     20.29821     83.93848        19     1.280     1.011  40.37   0
       136    545.5217    620.6635 300.1577215 +22.7371669     356.5363     72.03779      1.444     4.16     6.486603     20.29821     35.00491         6     1.082     0.457  -7.06   0
       137    927.8118    608.2097 300.2809712 +22.8480548      1102.51     71.83618      1.757     4.17     6.568755     20.29821     83.29475        20     1.199     1.117 -53.33   0
       138     24.8876    605.1463 300.0007375 +22.5766795     1604.154     71.98286      2.336     5.87     6.730616     20.29821     90.79899        35     1.750     1.531 -66.86   0
       139    794.5771    606.5281 300.2399496 +22.8076884     406.7675     71.98286      1.664     5.15     6.462315     20.29821     38.25704        10     1.217     0.641  24.25   0
       140     92.1713    605.5137 300.0215363 +22.5969583     445.8573     71.94622      1.802     5.11     6.685904     20.29821     34.54399         9     0.919     0.802 -38.24   0
       141    473.4430    602.3118 300.1412279 +22.7103031     394.4742     71.94622      1.493     3.92     6.559189     20.29821     40.57775         7     0.927     0.556  31.78   0
       142    867.7798    600.9310 300.2646027 +22.8279933     641.7781     71.92789      1.766     4.86     6.563948     20.29821     59.22116        12     1.286     0.827  26.99   0
       143    430.0266    594.2232 300.1303332 +22.6949727     702.2073     71.92789      1.568     4.82     6.524242     20.29821     79.72112        13     1.186     0.940  74.19   0
       144    578.0359    593.0834 300.1768087 +22.7389820     467.2394     71.92789      1.499     4.57     6.445461     20.29821     43.13159        10     1.125     0.671  44.96   0
       145    625.3164    591.9246 300.1919193 +22.7528093      513.314     72.03779      1.543     4.60     6.213836     20.29821     61.64245        11     1.296     0.777 -22.49   0
       146    595.7517    591.1974 300.1829416 +22.7437461     602.4474     71.94622      1.759     4.36     6.363247     20.29821     55.39552        13     1.012     0.982  40.11   0
       147    474.2296    590.5342 300.1452973 +22.7071556     957.5068     71.96454      1.879     3.66     6.569481     20.29821     81.78883        14     1.113     0.892  39.05   0
       148    907.9453    586.2359 300.2819075 +22.8357906     3292.706     71.96454      1.729     3.47     6.557753     20.29821     260.8239        32     1.289     1.281   2.49   0
       149    439.7596    585.8080 300.1360966 +22.6954716     1666.169     71.96454      1.575     3.43     6.536709     20.29821     158.8334        21     1.153     1.080  15.00   0
       150   1005.8397    584.4036 300.3130573 +22.8645607     775.5505     71.96454      1.888     4.86     6.289812     20.29821     51.16961        14     1.177     1.029 -57.26   0
       151    804.7570    583.4722 300.2506119 +22.8041083     242.6822     71.92789      1.332     3.45     6.534307     20.29821     32.25992         5     0.798     0.681  49.03   0
       152    789.6183    581.9933 300.2463703 +22.7991512     197.7367     71.90956      1.656     4.22     6.445768     20.29821     31.04858         6     1.128     0.450 -16.53   0
       153      2.3429    579.1313 300.0021766 +22.5624543     3616.043     61.42818      1.535     3.41     6.754963     20.29821     364.8961        27     1.455     0.968  89.19  24
       154    661.2296    589.6245 300.2038600 +22.7629031     240.5803     71.94622      1.333     3.41     6.047819     20.29821     27.07735         5     0.758     0.444 -18.36   0
       155    947.3250    576.1465 300.2974734 +22.8446752     369.6815     71.96454      1.777     4.99     6.513471     20.29821     37.28113         5     1.136     0.622  29.50   0
       156    303.1331    572.4605 300.0978955 +22.6507016     9213.989     71.98286      1.713     3.29     6.324402     20.29821     899.7436        48     1.429     1.313  36.63   0
       157    425.5795    569.5867 300.1369479 +22.6865640     9221.221     71.90956      1.680     3.32     6.523616     20.29821     911.1845        48     1.401     1.286  44.83   0
       158    829.6172    568.1132 300.2633538 +22.8071349     230.3769     71.89122      1.370     4.69     6.539168     20.29821     31.97933         5     1.219     0.512  39.23   0
       159    837.3227    563.8875 300.2671296 +22.8082266     1845.407     72.09267      1.650     3.60      6.53866     20.29821     148.8829        27     1.246     1.214 -88.29   0
       160    922.0044    561.1950 300.2944259 +22.8327980     12527.77     71.79946      1.801     3.54     6.547971     20.29821     1003.609        57     1.479     1.439  70.05   0
       161    486.1365    559.2024 300.1591792 +22.7017218     11816.11     71.94622      1.623     3.18     6.617216     20.29821     1102.962        49     1.339     1.321  33.94   0
       162    213.4904    554.4644 300.0758441 +22.6186700     1353.005     72.05609      1.696     3.33     6.359843     20.29821     137.5916        23     1.261     1.145  -9.45   0
       163    655.8698    555.4282 300.2132928 +22.7514708     484.1548     71.94622      1.643     5.02     6.243111     20.29821     41.44924         9     1.129     0.632   5.55   0
       164    371.8992    553.9911 300.1252973 +22.6660022     293.9207     71.81783      1.369     4.28      6.36953     20.29821     41.49439         6     0.867     0.713  43.61   0
       165    461.2481    552.4072 300.1536335 +22.6923144     406.8898     71.94622      1.869     2.60     6.582132     20.29821     42.65733         4     0.728     0.405 -85.76   2
       166    760.9653    547.8796 300.2485107 +22.7807670     876.5053     71.89122      1.626     4.00     6.377568     20.29821     85.22225        14     1.172     0.956  37.77   0
       167    417.8434    547.3090 300.1417716 +22.6778473     4466.405     71.94622      1.655     3.25     6.513314     20.29821     404.6006        39     1.385     1.263  43.01   0
       168    396.0916    545.7650 300.1355000 +22.6708874     1252.581     71.92789      1.582     3.55     6.447935     20.29821     121.8185        19     1.176     1.019  51.26   0
       169    150.5105    545.1971 300.0592617 +22.5971332     755.9924     71.85453      1.525     5.56     6.539025     20.29821     62.23828        13     1.240     0.952 -49.31   0
       170    837.7691    543.0619 300.2740306 +22.8023727     1548.823     71.96454      1.619     3.59      6.53225     20.29821     122.9007        24     1.284     1.093 -63.18   0
       171    534.5172    534.9658 300.1821190 +22.7092494     206392.7     71.90956      1.601     3.09     6.774616     20.29821     19600.28       197     1.576     1.498 -10.38   0
       172    718.2308    540.1730 300.2376870 +22.7657579     919.6987     71.94622      1.605     3.71     6.279167     20.29821     87.83932        16     1.133     0.980 -17.84   0
       173    357.9023    541.4496 300.1250114 +22.6582064     358.2878     72.01949      1.767     5.18     6.335691     20.29821     32.39621         6     1.056     0.719 -24.90   0
       174    220.5482    534.6577 300.0844699 +22.6150982     3673.664     72.00117      1.783     3.51      6.33582     20.29821     361.7317        35     1.383     1.301 -42.40   0
       175    786.6612    531.5092 300.2618394 +22.7837531     515.7774     72.03779      1.605     4.69     6.487359     20.29821     47.58918         8     1.036     0.619  37.63   0
       176    399.7031    531.8199 300.1411516 +22.6679637      304.658     71.85453      1.759     4.58     6.469221     20.29821     36.80924         6     1.113     0.536 -22.74   0
       177    565.8517    521.6846 300.1961934 +22.7148174     196.9888     71.94622      1.188     4.94      6.77814     20.29821     50.27326         6     0.899     0.769  50.72   0
       178    425.1131    515.1204 300.1544848 +22.6707786     2757.304     72.11096      1.617     3.09     6.548806     20.29821     247.0073        29     1.285     1.120  88.58   2
       179    269.4995    517.8092 300.1051705 +22.6249292     493.7443     71.85453      1.664     4.32     6.343118     20.29821     58.68996        10     1.140     0.802  15.46   0
       180    836.2174    512.4510 300.2834842 +22.7931069     390.6932     71.94622      1.890     4.19     6.515711     20.29821       37.591         7     1.215     0.411  14.17   0
       181    742.4434    503.9280 300.2570032 +22.7625875     320.9637     71.92789      1.327     5.11     6.319534     20.29821     45.05843         8     1.281     0.576   6.66   0
       182    822.1284    501.6046 300.2826101 +22.7857714     1593.986     71.89122      1.653     3.12     6.518875     20.29821     167.2058        26     1.241     1.149  80.15   0
       183    693.3368    499.1735 300.2432351 +22.7465199     2677.079     71.94622      1.561     3.07     6.403924     20.29821     266.6662        26     1.219     1.135 -86.42   0
       184    936.3884    493.1221 300.3210149 +22.8175260     1047.651     71.92789      2.372     4.92      6.54667     20.29821     58.68902        16     1.243     1.113  74.30   2
       185    598.0679    496.3174 300.2144668 +22.7171747     433.8439     72.05609      1.479     4.27     6.833549     20.29821     47.61261         7     0.898     0.578 -23.31   0
       186    480.5610    495.1658 300.1782305 +22.6816539     691.4777     71.98286      1.475     3.27     6.672919     20.29821     74.47769        13     1.059     0.793 -22.81   0
       187    950.6804    493.5119 300.3253489 +22.8219146     1214.565     72.07439      1.717     3.69     6.583323     20.29821     109.8606        22     1.263     1.114  41.23   0
       188    822.4700    491.6750 300.2859399 +22.7830185     2271.729     72.01949      1.908     4.45     6.514568     20.29821     179.6073        33     1.664     1.199  73.46   0
       189    576.1097    489.8316 300.2097294 +22.7087356     748.2101     71.89122      2.174     3.22     6.874745     20.29821     59.38503        10     0.855     0.808  69.14   2
       190    860.6602    486.7699 300.2994461 +22.7930377     4378.214     71.98286      1.660     3.45     6.483241     20.29821     369.6737        36     1.292     1.284 -49.64   0
       191    413.9924    488.2603 300.1597403 +22.6597311     447.8824     71.90956      1.504     5.07     6.544526     20.29821     46.04893         8     1.036     0.702  20.51   0
       192    521.7087    482.8998 300.1950295 +22.6904528     267.1391     72.11096      1.360     2.73      6.82575     20.29821     49.74406         5     0.776     0.499 -33.63   0
       193    952.5842    477.5272 300.3311317 +22.8178866     749.2805     71.94622      1.785     3.31     6.582112     20.29821     81.91663        14     1.077     0.923  39.88   0
       194     92.6211    477.0622 300.0633744 +22.5602216     964.3883     71.90956      1.623     3.63      6.52894     20.29821     102.5201        14     1.127     0.892 -18.23   0
       195    892.6127    474.7067 300.3133313 +22.7991305     255.9832     71.87288      1.491     5.03     6.482372     20.29821     29.32944         6     0.970     0.738 -17.56   0
       196    692.5023    461.1224 300.2553254 +22.7353317     439.1042     72.07439      1.428     5.03     6.577941     20.29821     44.52669         8     1.172     0.612  50.97   0
       197    634.0698    457.0573 300.2384297 +22.7166701     764.4551     71.96454      1.496     3.40     6.829809     20.29821     88.68565        14     1.098     0.890  60.26   0
       198    948.4042    450.1474 300.3387136 +22.8087605     553.0219     71.94622      1.471     3.69     6.521861     20.29821     50.71765        11     1.014     0.724  17.48   0
       199    694.9648    449.7204 300.2597935 +22.7327910     859.1899     71.89122      1.538     2.87      6.62475     20.29821     93.45251        12     0.961     0.796 -21.54   0
       200    852.1396    445.6911 300.3101205 +22.7786746     967.7206     72.03779      1.511     3.32     6.385029     20.29821     94.72667        17     1.116     0.953  47.64   0
       201    836.2507    442.2111 300.3062929 +22.7729190     698.2935     71.98286      1.558     4.14     6.378504     20.29821     67.62143        16     1.237     0.926  53.89   0
       202    816.8770    442.8361 300.3000465 +22.7673009      355.566     71.90956      1.322     3.92     6.387755     20.29821     40.62873         6     0.776     0.566  28.49   0
       203    580.6280    439.8937 300.2273445 +22.6957362     3322.934     71.85453      1.525     2.89     6.899176     20.29821     373.7512        30     1.206     1.138  54.37   0
       204    940.7344    438.9011 300.3399696 +22.8032309     629.4441     72.03779      1.751     5.09     6.474814     20.29821     49.53223        14     1.286     0.892 -73.99   0
       205    420.9984    427.2414 300.1817244 +22.6442984     354.6893     71.94622      1.422     4.00     6.687568     20.29821      49.6628         8     1.220     0.558 -30.16   0
       206    991.6876    418.9892 300.3623359 +22.8127464     1249.775     71.89122      1.732     5.07     6.681762     20.29821      101.316        22     1.520     1.050  58.54   0
       207    863.9287    419.3158 300.3223578 +22.7746168     509.3192     72.05609      1.467     4.72     6.306957     20.29821      55.4703        11     1.065     0.788  21.16   0
       208    950.5577    417.8725 300.3498597 +22.8001208     1076.853     71.92789      1.815     3.94     6.482505     20.29821     89.12753        21     1.257     1.138  43.73   0
       209    691.2570    413.9226 300.2702542 +22.7213894     1113.624     71.98286      1.476     2.89     6.828911     20.29821     119.3441        19     1.097     1.041  16.45   0
       210    487.5507    414.5320 300.2065757 +22.6605771     495.2871     71.94622      1.644     4.51     6.727729     20.29821     50.02259        10     0.905     0.862 -18.42   0
       211    195.1004    412.1905 300.1162981 +22.5723046     690.4387     71.85453      1.671     3.87     6.389594     20.29821     68.39291        13     1.223     0.789 -14.22   0
       212     35.4803    410.0122 300.0673656 +22.5238458     237.0105     71.92789      1.424     3.75     7.067941     20.29821      30.8346         6     1.315     0.308  72.07   0
       213    257.6246    407.6070 300.1372387 +22.5897206      3779.22     71.94622      1.625     2.89     6.436206     20.29821     421.7674        33     1.263     1.215 -27.26   0
       214    990.7384    406.4782 300.3660993 +22.8088631     4360.086     72.01949      1.760     3.64     6.651662     20.29821     364.1361        41     1.449     1.361  42.50   0
       215    204.7254    402.2970 300.1225023 +22.5723470     7747.049     72.07439      1.726     3.37     6.469737     20.29821     716.8359        46     1.419     1.343  66.99   0
       216    970.6381    397.5704 300.3627152 +22.8002875     1911.309     71.98286      1.732     3.61     6.546245     20.29821     163.1373        26     1.281     1.171  75.48   0
       217    345.5212    396.6140 300.1681622 +22.6128924      4786.46     71.96454      1.565     2.91     6.683642     20.29821     577.5737        34     1.265     1.188  37.98   0
       218    589.8077    393.4667 300.2452699 +22.6851397     18520.68     71.94622      1.554     2.88     6.908927     20.29821     2051.999        56     1.366     1.243  62.43   0
       219    607.5144    393.6828 300.2507179 +22.6905027     802.8299     72.07439      2.001     6.26     6.929684     20.29821     55.00365        19     1.639     0.944 -42.20   0
       220    436.0977    395.2073 300.1968204 +22.6396157     447.2956     71.81783      3.076     4.26     6.718065     20.29821     34.40226         5     1.140     0.454  23.13   2
       221    583.7238    402.1830 300.2405459 +22.6858238     491.1295     71.94622      2.705     3.85     6.899379     20.29821      32.7133         5     0.904     0.470 -42.57   0
       222    833.1021    390.0660 300.3222314 +22.7569801     155.8269     72.03779      1.102     3.59      6.29867     20.29821     34.42688         5     1.008     0.369  33.88   0
       223    786.7264    384.0909 300.3097041 +22.7413843     406.5413     72.11096      1.430     4.22     6.343524     20.29821     35.83368         7     0.742     0.683 -66.83   0
       224    209.7352    380.5264 300.1311239 +22.5675950     368.0767     71.98286      1.389     4.31     6.643469     20.29821     41.66264         6     1.078     0.490   5.75   0
       225    923.4482    376.2180 300.3549145 +22.7800278     788.5675     71.98286      1.944     3.89     6.346598     20.29821     79.43501        17     1.314     0.898 -30.92   0
       226    633.4428    374.8906 300.2648960 +22.6928620     112.0727     71.94622      1.327     4.55     6.957403     20.29821     29.62952         7     1.288     0.457 -23.93   0
       227    144.4761    373.3520 300.1131512 +22.5459821     1960.247     71.94622      1.728     3.40     6.584058     20.29821     200.1339        28     1.311     1.227  49.87   0
       228    530.4644    362.9204 300.2366891 +22.6585928     6785.969     72.05609      1.550     2.88     6.800944     20.29821     691.6818        38     1.261     1.210  49.55   0
       229    944.2195    363.3818 300.3655617 +22.7825487     1278.645     71.94622      1.787     3.80     6.395343     20.29821     99.84552        22     1.229     1.155  -1.11   0
       230    245.0944    361.8108 300.1481969 +22.5728120     627.3809     71.89122      1.533     4.81     6.853068     20.29821     58.30216        13     1.100     0.941  54.93   0
       231    102.8005    355.6246 300.1059407 +22.5284037     492.9359     71.89122      1.464     4.13     6.725094     20.29821     51.67016        10     1.251     0.660 -28.86   0
       232    790.9333    354.6678 300.3205619 +22.7341812     396.9897     72.00117      1.890     6.25     6.333955     20.29821     46.86167         8     1.721     0.637 -18.01   0
       233    734.5789    352.1411 300.3038065 +22.7165907     1247.109     71.94622      1.604     3.07      6.55883     20.29821     130.1231        17     1.082     0.971  28.52   0
       234    644.4386    353.1122 300.2753886 +22.6898919      576.252     71.92789      1.576     3.37     6.970796     20.29821     62.60677         9     0.879     0.816 -62.91   0
       235    437.1079    349.0700 300.2121026 +22.6266595     6320.619     72.07439      1.531     2.95     6.733285     20.29821     597.8329        40     1.307     1.228  31.12   0
       236    696.8354    349.5706 300.2928718 +22.7045560     607.7061     71.96454      0.667     0.46     6.804523     20.29821     327.5042         5     0.584     0.337  71.05   0
       237    829.2245    343.8380 300.3360194 +22.7425236     1536.461     71.96454      1.602     2.90     6.294798     20.29821     167.9488        22     1.210     1.049 -76.68   0
       238    926.6180    343.9976 300.3663567 +22.7717066     679.2199     71.85453      1.587     4.12     6.332133     20.29821     70.88332        14     1.144     0.904 -77.20   0
       239    421.9597    337.9843 300.2109811 +22.6189376     503.0687     71.96454      1.430     2.48     6.741287     20.29821     56.72164         9     0.771     0.734  -2.15   0
       240    504.0998    336.2927 300.2371133 +22.6430456      487.998     72.11096      2.105     2.61     6.742213     20.29821     44.44703         6     0.882     0.564 -21.35   2
       241    783.3980    335.0250 300.3245837 +22.7262770     417.2797     71.89122      1.706     5.21      6.35902     20.29821     40.92226         7     1.075     0.715 -12.71   0
       242    801.9160    331.7358 300.3314265 +22.7308718     640.2322     72.03779      1.479     3.00     6.294789     20.29821     78.38719        11     1.003     0.742  83.87   0
       243    324.6041    328.2775 300.1838189 +22.5869934     2457.116     71.85453      1.599     3.27      6.81901     20.29821      242.914        27     1.266     1.114  31.89   0
       244     43.1285    325.6526 300.0971082 +22.5019160     1129.904     71.94622      1.851     3.65     7.179785     20.29821     112.0948        22     1.297     1.123  39.36   0
       245    294.0152    317.6485 300.1777455 +22.5747781     30200.82     71.98286      1.626     3.03     6.913178     20.29821     2925.943        77     1.478     1.382  46.96   0
       246    271.9486    321.2987 300.1696940 +22.5692176     221.2361     72.03779      1.362     4.68      6.93993     20.29821     28.30593         6     0.812     0.766 -12.79   0
       247    828.9111    315.4906 300.3451168 +22.7342757     1438.542     72.11096      1.544     3.10     6.294798     20.29821     149.4769        21     1.150     1.037  66.91   0
       248    867.8176    304.3072 300.3608824 +22.7426980     319.3627     71.87288      1.924     5.12     6.295301     20.29821     31.48427         8     1.472     0.502 -38.63   0
       249    744.1184    304.3457 300.3222846 +22.7056998     562.2999     72.00117      1.525     3.41     6.461684     20.29821     63.20813        11     0.941     0.810  37.45   0
       250    168.1914    304.3539 300.1429074 +22.5332697     370.1558     71.96454      1.606     5.15     6.881253     20.29821     39.84711         7     1.202     0.623 -12.62   0
       251    392.3141    303.1965 300.2130330 +22.6000630     463.4418     71.87288      1.554     2.56     6.740048     20.29821     59.30096         8     0.891     0.577  -7.36   0
       252    704.4092    297.7193 300.3120517 +22.6919116     1913.766     71.89122      1.565     3.21     6.641825     20.29821     207.2046        23     1.220     1.043 -85.55   0
       253    710.5321    297.3890 300.3140679 +22.6936489     241.8709     71.94622      2.395     5.41     6.604226     20.29821     27.14014         5     1.066     0.775 -87.03   0
       254    512.9420    292.4826 300.2540771 +22.6330993     426.9051     72.01949      1.559     2.95     6.728672     20.29821     48.23647         5     0.734     0.603  80.73   0
       255    919.5995    290.6287 300.3814772 +22.7542522     664.8162     71.90956      1.829     3.25     6.295996     20.29821      70.0506        12     1.130     0.787  37.44   0
       256    366.1620    282.0804 300.2117385 +22.5861635     2150.031     71.90956      1.653     3.46     6.751568     20.29821     213.7492        25     1.407     1.003  52.32   0
       257    578.6902    281.3803 300.2781633 +22.6495882     291.2737     71.87288      1.298     3.55     6.688204     20.29821     37.52027         6     0.835     0.542  43.14   0
       258    805.5912    275.1130 300.3509379 +22.7156839     596.6766     71.87288      1.453     4.02     6.286716     20.29821     64.72497        11     1.138     0.718 -22.98   0
       259    687.7311    272.8563 300.3149151 +22.6797704     507.3964     71.96454      1.525     3.09     6.576608     20.29821     67.69498         8     0.989     0.661   1.75   0
       260    442.1369    261.4650 300.2420811 +22.6029860     1335.557     71.98286      1.620     3.23     6.656259     20.29821     139.9369        19     1.130     1.031  21.99   0
       261    249.6126    261.9125 300.1820019 +22.5454652     274.1052     71.89122      1.347     5.37     6.977406     20.29821     38.03057         6     1.254     0.649 -47.82   0
       262    687.0357    253.4797 300.3209817 +22.6739896         2249     71.89122      1.551     2.93     6.425123     20.29821     246.5745        23     1.208     1.036  53.31   0
       263    948.3741    248.0227 300.4042748 +22.7505983     3155.124     71.90956      1.697     3.17      6.36076     20.29821     287.5573        34     1.372     1.243  58.00   0
       264   1009.7366    243.4786 300.4249036 +22.7676406     451.2718     72.03779      1.569     3.49     6.457579     20.29821     44.17708         7     0.934     0.498   2.66   0
       265    395.1755    237.4079 300.2352574 +22.5820113     586.0349     71.94622      1.315     3.27     6.762129     20.29821       60.518        10     0.936     0.741  15.91   0
       266   1017.8464    235.9494 300.4298769 +22.7678985     1673.516     71.98286      1.774     3.63     6.520664     20.29821     141.5883        26     1.267     1.205  38.19  16
       267    101.1120    231.5301 300.1456578 +22.4922562       645.42     72.11096      1.757     3.75      7.15526     20.29821     57.80471        10     0.970     0.933  31.98   0
       268     70.1902    231.1621 300.1361619 +22.4828872     1527.919     71.96454      1.966     4.18     7.366511     20.29821     123.2621        30     1.582     1.267 -19.27   0
       269    964.6494    228.6806 300.4156266 +22.7498991     474.5146     71.98286      1.697     3.75     6.448103     20.29821     47.04938         9     0.926     0.769  10.42   0
       270    154.1617    223.1700 300.1648673 +22.5057454     512.3368     71.96454      1.733     6.46     7.025259     20.29821     55.21461        12     1.272     1.038  89.82   0
       271    807.6770    225.5891 300.3676474 +22.7020606     425.7233     71.94622      1.587     4.04     6.261182     20.29821     40.17369         7     0.991     0.471  -9.45   0
       272    830.5242    217.4005 300.3774295 +22.7065388      402.153     71.81783      1.531     3.59     6.295515     20.29821     36.79617         6     0.868     0.490   0.02   0
       273    758.8517    215.5725 300.3556663 +22.6845728     732.9103     71.96454      1.937     3.99     6.273494     20.29821     60.57927         9     1.014     0.689  32.83   0
       274    349.0923    214.1936 300.2284360 +22.5615415     386.6406     71.85453      1.385     3.16     6.839951     20.29821     39.93517         7     0.812     0.677  56.73   0
       275    849.1880    208.3621 300.3861826 +22.7095208      265.642     71.94622      1.352     2.45     6.327639     20.29821      47.8307         5     0.745     0.415  23.09   0
       276    856.8247    204.0325 300.3899689 +22.7105591     2097.404     71.94622      1.588     3.12     6.343212     20.29821     195.8841        28     1.300     1.146  70.94   0
       277    275.1845    200.9883 300.2097121 +22.5356164     2111.029     71.87288      1.601     3.52     6.978023     20.29821     192.9428        25     1.234     1.131  73.90   0
       278    353.4130    196.2567 300.2355960 +22.5576795     996.0941     71.92789      1.508     3.49     6.675511     20.29821        95.62        16     1.267     0.781 -16.93   0
       279    105.3183    196.2219 300.1584121 +22.4833734     379.2158     71.90956      1.877     6.21     7.109398     20.29821     31.74231         7     1.291     0.840  -0.43   0
       280    755.2947    195.4410 300.3610837 +22.6777172     524.8637     71.96454      1.484     3.28     6.275642     20.29821      81.9796        10     1.005     0.817 -46.12   0
       281    170.4294    188.5317 300.1811563 +22.5006660     799.5016     71.92789      1.671     4.28     7.015168     20.29821     79.78149        16     1.291     0.909 -29.28   0
       282    707.8752    185.3507 300.3495678 +22.6606284     1704.514     71.94622      1.517     2.82     6.238855     20.29821     206.2793        25     1.344     1.032  78.33   0
       283    772.9950    185.0769 300.3699638 +22.6800304     600.2445     71.85453      1.451     3.76     6.265979     20.29821     62.19582        10     0.949     0.746 -58.99   0
       284    191.6050    182.0844 300.1898336 +22.5051553     520.8337     71.87288      1.425     3.83     7.012683     20.29821     64.83438        11     1.053     0.697 -20.26   0
       285    979.3477    178.1423 300.4365998 +22.7397483     919.9809     72.00117      1.543     3.85     6.732163     20.29821     87.77901        16     1.172     0.993  33.58   0
       286    481.7151    177.9746 300.2814765 +22.5908310     265.9624     71.90956      1.327     4.00     6.251844     20.29821     50.07503         6     1.425     0.321 -16.51   0
       287    712.0389    176.9722 300.3535820 +22.6594638     782.7963     71.96454      1.552     3.01     6.244932     20.29821     86.75699        12     1.041     0.724   8.24   0
       288    632.4080    176.1468 300.3290245 +22.6354016     1316.464     71.94622      1.459     2.89     6.200219     20.29821     128.3945        18     1.091     1.010  57.45   0
       289    453.4802    172.2146 300.2745491 +22.5807238     465.2105     71.92789      2.184     5.35     6.250294     20.29821     38.97042         7     1.129     0.799  67.70   0
       290    840.0607    167.3236 300.3966389 +22.6949821     865.9002     72.00117      1.601     3.30     6.333185     20.29821      75.7003        10     0.961     0.705   4.90   0
       291    828.0496    167.6952 300.3927713 +22.6914967     1352.191     72.00117      1.493     3.13     6.307545     20.29821     141.2641        21     1.169     1.041 -16.09   0
       292    558.8345    167.8779 300.3087757 +22.6110079     921.2249     71.90956      1.489     2.93     6.186953     20.29821     106.9165        14     1.029     0.880   0.44   0
       293   1000.9032    157.9171 300.4498852 +22.7403713     1669.046     72.11096      1.685     3.32     6.955726     20.29821     131.3237        24     1.232     1.115  70.45   0
       294    956.8714    157.1815 300.4363783 +22.7269945     1131.887     71.96454      1.690     3.30     6.690242     20.29821     116.6377        21     1.170     1.097 -34.79   0
       295    190.7850    150.2047 300.1999113 +22.4957491     758.3629     71.81783      1.767     4.56     7.024219     20.29821     69.93839         9     1.032     0.707  16.72   0
       296     73.8504    148.9912 300.1639353 +22.4603791     335.2867     71.94622      2.176     3.25     7.151815     20.29821     40.43301         5     0.894     0.636 -61.58   0
       297     52.5443    144.2595 300.1588441 +22.4526379      2233.01     72.01949      1.922     4.20     7.257531     20.29821     199.5475        34     1.622     1.249  47.98   0
       298    875.8350    142.3041 300.4159104 +22.6984807     867.2419     71.94622      1.607     2.83     6.455582     20.29821      82.4029        11     0.945     0.733   8.96   0
       299      2.4566    141.7913 300.1440727 +22.4369251     346.2989     61.96244      1.437     3.59     7.498517     20.29821     53.29967         6     0.868     0.718 -53.87  24
       300    210.0352    137.8556 300.2099026 +22.4979648     5752.231     71.96454      1.693     3.13     7.021842     20.29821      493.512        45     1.528     1.274  55.27   0
       301   1009.0486    125.8023 300.4628375 +22.7335613     18475.38     71.92789      1.783     3.46     6.965569     20.29821     1551.477        66     1.580     1.444 -85.46   0
       302    193.4802    129.0106 300.2076185 +22.4904656     655.6606     71.92789      1.595     3.43     7.038407     20.29821     63.01093        11     0.892     0.880 -52.75   0
       303     26.5326    127.4212 300.1562140 +22.4400092      216.924     71.92789      1.186     4.95     7.502733     20.29821     31.14778         6     0.977     0.711 -80.63   0
       304    854.2314    119.8450 300.4164489 +22.6855566     3533.211     72.00117      1.620     3.14     6.435405     20.29821     339.5119        31     1.278     1.230  86.50   0
       305    957.9334    118.6670 300.4491930 +22.7162255     2660.266     72.00117      1.651     3.40     6.834583     20.29821     251.6201        28     1.284     1.186  50.17   0
       306    403.7180    114.8656 300.2776388 +22.5493405     605.2319     72.05609      1.456     2.75     6.400574     20.29821     74.58033         9     0.954     0.661 -11.38   0
       307    156.1525    115.5378 300.2003725 +22.4754161     355.8935     71.98286      1.928     4.36     7.077039     20.29821     34.23156         6     1.330     0.406 -13.19   0
       308    327.6123    106.5838 300.2566277 +22.5241786     685.2194     71.89122      1.983     4.16      6.88287     20.29821     51.58406         9     0.997     0.785  47.65   0
       309     93.9987    104.2421 300.1847020 +22.4535569     573.4182     71.94622      1.628     3.61     7.118834     20.29821     66.20674         9     1.058     0.600 -38.60   0
       310    454.9208    102.0975 300.2977223 +22.5609938     1824.621     72.07439      1.698     3.32     6.356874     20.29821     178.3707        24     1.179     1.134  88.71   0
       311    383.2698    102.9862 300.2751212 +22.5398045     472.1494     71.96454      1.466     2.41     6.602592     20.29821     53.64311         7     0.702     0.646  53.27   0
       312    516.5781    101.5622 300.3171023 +22.5792911      409.273     71.96454      1.251     2.96     6.273653     20.29821     49.84244         8     1.005     0.495  -2.08   0
       313    198.8994     97.7059 300.2194487 +22.4830918     414.0663     72.12924      1.374     3.02      7.05381     20.29821     45.02167         7     0.712     0.679  42.28   0
       314    743.7261     91.7992 300.3910679 +22.6444373     548.1926     71.83618      1.798     3.89      6.39048     20.29821     55.25628        10     1.044     0.836  -7.77   0
       315   1019.3925     83.2520 300.4798564 +22.7244027     3765.658     71.92789      1.879     3.29     6.963563     20.29821     328.8608        43     1.609     1.425 -28.68  16
       316    228.9789     81.7201 300.2339872 +22.4875033     6057.749     71.92789      1.747     3.42     7.050354     20.29821     521.3809        43     1.461     1.323  59.04   0
       317    735.4559     82.8102 300.3914016 +22.6393771     352.9069     71.94622      1.250     3.33     6.489939     20.29821     38.41447         5     0.740     0.448 -68.34   0
       318     80.4481     81.5267 300.1878484 +22.4429719     676.8179     71.94622      1.951     4.95     7.376557     20.29821      57.2284        13     1.292     0.788 -14.60   0
       319    200.9364     75.9015 300.2271473 +22.4774349     250.9663     72.05608      1.302     3.47     7.085014     20.29821     48.33837         6     1.007     0.734 -71.87   0
       320    705.0630     73.6685 300.3848866 +22.6276562     338.5218     72.00117      1.405     4.30     6.524156     20.29821     32.27631         7     0.759     0.695   6.85   0
       321    245.0525     73.3389 300.2417043 +22.4899064     365.9364     72.00117      1.312     4.35      7.03939     20.29821     41.26917         7     0.927     0.701   7.02   0
       322    475.1564     67.2404 300.3153197 +22.5570254     6258.964     72.03779      1.616     3.02     6.668954     20.29821      643.481        42     1.357     1.273  84.92   0
       323    360.6670     67.1613 300.2796918 +22.5227390     688.5685     71.90956      1.641     3.85     6.845001     20.29821     67.39867        16     1.121     1.010  44.29   0
       324    727.8212     57.2656 300.3972977 +22.6297432     939.2292     71.92789      1.656     4.21     6.762257     20.29821     80.30302        14     1.206     0.871  -2.43   0
       325    168.1937     50.8502 300.2250773 +22.4604314     525.5303     71.94622      1.762     5.84      7.13482     20.29821     44.48517         9     1.097     0.874  18.54   0
       326    526.8435     49.9248 300.3370317 +22.5675109     580.1221     71.92789      1.569     4.50     6.739437     20.29821     59.17321        10     0.969     0.737 -86.82   0
       327    603.5410     47.3487 300.3617663 +22.5897157     6440.563     72.00117      1.649     2.98     6.840298     20.29821     719.3491        42     1.393     1.260  80.99   0
       328    378.3514     46.2681 300.2919668 +22.5220244     1570.821     71.94622      1.633     3.24     6.873211     20.29821     171.7251        24     1.208     1.152  38.38   0
       329    644.5179     45.1066 300.3752649 +22.6013284     726.0755     72.09267      1.362     3.12     6.744962     20.29821     92.57719        13     1.062     0.777  40.93   0
       330    819.9380     55.9785 300.4264455 +22.6569204     578.1219     71.92789      1.747     6.06     6.669206     20.29821     44.10377        12     1.288     1.136  73.38   0
       331    660.2899     41.4079 300.3813799 +22.6049819     628.8461     71.85453      1.459     2.82     6.724374     20.29821     66.14424         7     0.800     0.586 -21.58   0
       332    930.6260     39.2452 300.4664052 +22.6851976     512.6464     71.96454      1.403     2.84      6.95392     20.29821     66.15871         7     0.843     0.723 -29.28   0
       333    127.5508     39.1058 300.2162400 +22.4448868      543.869     72.00117      1.494     3.57     7.440053     20.29821     61.91986         9     1.080     0.566 -24.54   0
       334    692.9589     36.7824 300.3930634 +22.6134222     1133.307     71.96454      0.557     1.04     6.813677     20.29821     673.3937         6     0.483     0.341  82.85   0
       335    647.9023     32.2399 300.3804883 +22.5986387     2843.087     71.94622      1.613     2.99     6.803469     20.29821     319.7818        33     1.340     1.238 -56.97   0
       336    662.9479     31.6224 300.3853787 +22.6029613     911.9905     71.94622      2.116     5.54     6.773963     20.29821     73.30621        19     1.660     0.888  49.75   0
       337    288.7569     33.3806 300.2682509 +22.4915027     292.7516     71.96454      1.402     3.40     6.870151     20.29821     38.54327         5     0.794     0.421 -21.13   0
       338    734.1115     24.0424 300.4100227 +22.6220637      1442.87     71.94622      1.497     3.26     7.156639     20.29821     135.7641        21     1.175     1.017  50.12   0
       339    672.3986     17.2406 300.3929839 +22.6016497     760.9825     71.96454      1.686     3.05     6.863276     20.29821     77.83958         9     0.981     0.608 -16.92   0
       340    277.3899   1012.9313 299.9467422 +22.7694010     452.8549     71.92789      1.704     6.02     19.61861     20.29821     45.10812        12     1.441     0.785  67.73   0
       341     50.9191     16.4960 300.1997336 +22.4154426     489.7577     72.07439      1.503     3.51     7.848209     20.29821     57.21795        11     1.135     0.720 -10.89   0
       342     60.1329    955.1660 299.8979581 +22.6876570     5568.819     71.94622     22.797   106.95     37.78821     20.29821     1181.724      3522    20.912    15.177 -23.74  19
       343    113.5488   1007.0000 299.8977082 +22.7185477     1349.701     71.89122      2.982     5.08     90.96023     20.29821     49.64106        11     1.255     0.833  -2.88   2
       344    763.9824     13.6037 300.4227199 +22.6279922      418.028     71.87288      1.474     2.77     7.113801     20.29821     50.59455         6     0.755     0.489  -1.25   0
       345    182.7733   1003.7621 299.9202893 +22.7383882     1918.467     71.96454      2.391    30.06     82.91917     20.29821     59.31723       160     5.888     4.260 -20.84  19
       346    180.7085    987.0277 299.9250898 +22.7329693     3867.605     71.92789      8.866    22.23     68.35036     20.29821     80.38748       237     4.843     4.388  25.00   3
