#   1 NUMBER                 Running object number                                     
#   2 X_IMAGE                Object position along x                                    [pixel]
#   3 Y_IMAGE                Object position along y                                    [pixel]
#   4 ALPHA_J2000            Right ascension of barycenter (J2000)                      [deg]
#   5 DELTA_J2000            Declination of barycenter (J2000)                          [deg]
#   6 FLUX_APER              Flux vector within fixed circular aperture(s)              [count]
#   7 FLUXERR_APER           RMS error vector for aperture flux(es)                     [count]
#   8 FLUX_RADIUS            Fraction-of-light radii                                    [pixel]
#   9 FWHM_IMAGE             FWHM assuming a gaussian core                              [pixel]
#  10 BACKGROUND             Background at centroid position                            [count]
#  11 THRESHOLD              Detection threshold above background                       [count]
#  12 FLUX_MAX               Peak flux above background                                 [count]
#  13 ISOAREA_IMAGE          Isophotal area above Analysis threshold                    [pixel**2]
#  14 A_IMAGE                Profile RMS along major axis                               [pixel]
#  15 B_IMAGE                Profile RMS along minor axis                               [pixel]
#  16 THETA_IMAGE            Position angle (CCW/x)                                     [deg]
#  17 FLAGS                  Extraction flags                                          
         1     55.3999     16.3082 300.2317832 +22.4008660     1423.149     72.18297      1.434     2.49     4.807479     20.40142     150.0418        22     1.205     0.986  62.94   0
         2    539.1551     12.5365 300.3834511 +22.5447034     533.3576     72.33043      1.342     2.46     4.172306     20.40142     75.08405         7     0.808     0.580 -79.82   0
         3    882.8574      6.6983 300.4924253 +22.6459032     402.8018     72.40405      1.295     2.27     4.699264     20.40142     66.75533         6     0.710     0.598 -79.81   0
         4    250.2073      3.2028 300.2965771 +22.4554777     306.9414     65.61014      1.177     2.31     5.021472     20.40142     49.63962         6     0.716     0.548  35.73  16
         5    347.3939   1015.0328 299.9981375 +22.7749692     6594.244     72.31201      1.699     3.37     2.155633     20.40142     600.9589        41     1.336     1.305  22.55  16
         6    767.1971   1022.5330 300.1263758 +22.9030822      399.059     62.38432      1.779     5.63     2.838764     20.40142     41.20161         8     1.393     0.696 -20.85  24
         7    494.3258   1023.5447 300.0410774 +22.8215087     318.4532     57.07731      1.384     4.97     2.237897     20.40142     41.62502         7     1.042     0.671  -7.64  24
         8    205.8400   1023.3915 299.9514072 +22.7348675     495.0477     57.88828      1.691     5.44     9.280379     20.40142     48.26466        10     1.428     0.585   8.38  24
         9    193.4685   1023.2150 299.9476196 +22.7311022     1179.755     58.82404      5.724    10.19     11.71332     20.40142      44.9045        24     3.586     0.808   7.05  27
        10    188.5287   1018.6114 299.9475829 +22.7282998     1118.747     72.33043      6.442    10.05     12.12802     20.40142       40.216        15     3.007     0.937  46.16  19
        11    129.7667   1020.9329 299.9285675 +22.7113194     970.5877     69.05209      4.465     8.63     23.31348     20.40142     43.71261        11     2.270     0.916 -58.20  26
        12     72.1560   1015.0153 299.9125962 +22.6923222     2612.217     72.33043     14.883    35.22     29.48849     20.40142     62.50609       263     7.447     4.622  28.71  19
        13     40.5703   1015.9822 299.9024709 +22.6831126     4140.536     72.29359     10.979    46.30     31.66278     20.40142     87.22142       760    10.424     7.298   5.23  27
        14    380.1300   1002.0142 300.0125568 +22.7810633     482.4682     72.33043      1.613     5.35     2.292295     20.40142     43.96657        11     1.109     0.882  71.56   0
        15     40.7817    985.7170 299.9123868 +22.6745061     2850.459     72.27517      7.600    29.13     22.36607     20.40142     63.45084       245     8.139     2.894 -19.50  19
        16    821.1706    998.3994 300.1510509 +22.9123443     375.9476     72.27516      1.595     4.36     2.263082     20.40142     34.10551         6     0.781     0.692 -45.61   0
        17    893.6650    993.3870 300.1752791 +22.9326435      2215.83     72.25674      1.773     3.59     2.298473     20.40142     173.3768        28     1.277     1.251 -83.94   0
        18     83.4246    991.1818 299.9238536 +22.6888785     668.5319     72.33043      4.970     6.06     22.20897     20.40142      37.0368         6     1.155     0.894 -51.74   0
        19    544.2762    990.8317 300.0672722 +22.8271163     482.0276     72.31201      1.693     4.36     2.466135     20.40142     34.22388         7     0.868     0.623  59.46   0
        20    682.5391    982.4803 300.1130410 +22.8661992     708.9114     72.36725      1.896     4.77      2.63007     20.40142     62.00807        15     1.287     0.888  54.72   0
        21   1009.1230    981.1075 300.2152795 +22.9637318     431.3716     72.45921      1.437     4.49     2.515645     20.40142     48.07154         7     1.080     0.638 -21.50   0
        22    717.4697    976.4752 300.1258760 +22.8749535     1094.511     72.38565      1.673     3.64      3.03956     20.40142     88.99308        20     1.168     1.085  76.28   0
        23    494.6019    977.3683 300.0561937 +22.8083504     480.5211     72.27517      1.547     5.30     2.414861     20.40142     45.74223        10     1.005     0.790  89.89   0
        24    739.5703    970.2852 300.1347756 +22.8798059     11362.97     72.31201      1.590     3.12      3.20689     20.40142     1010.056        49     1.346     1.245 -71.02   0
        25    930.6394    969.9924 300.1944218 +22.9370140      418.105     72.34884      1.815     6.71     2.413437     20.40142      32.8957        10     1.374     0.921  -2.81   0
        26    785.4327    970.1949 300.1490945 +22.8935339     497.6247     72.29359      1.376     4.28     2.645454     20.40142     51.96709        11     0.996     0.772   4.64   0
        27    872.1824    963.7359 300.1782335 +22.9176924     302.3781     72.29359      1.519     4.37     2.534738     20.40142     35.48809         6     1.122     0.484 -64.30   0
        28     51.4150    962.1078 299.9233725 +22.6709358     358.9585      72.2383      1.649     5.78     14.75813     20.40142     43.88905        10     1.260     0.745 -87.85   0
        29    444.9435    958.7581 300.0467981 +22.7881128     501.7785     72.27516      1.717     4.15     2.479237     20.40142     48.63182         8     0.974     0.722 -17.83   0
        30    791.8804    957.7643 300.1551494 +22.8919003     352.1159     72.25674      1.552     4.60     2.616526     20.40142     44.96706         9     1.249     0.708 -32.42   0
        31    748.0192    952.4881 300.1432001 +22.8772331     1340.848     72.25674      1.468     3.32     3.059185     20.40142     124.8483        19     1.116     1.033 -79.64   0
        32     43.2492    996.4892 299.9096474 +22.6783331     3124.249     72.31201      8.783    28.16     25.37558     20.40142     83.57134       246     7.365     2.990  -8.49  19
        33    931.0309    950.7772 300.2007979 +22.9316156     524.3663     72.31201      1.811     5.47     2.505061     20.40142     42.61895        10     1.105     0.955  34.77   0
        34    599.7645    949.3439 300.0980491 +22.8318640     513.1433     72.33043      1.782     5.82     2.526231     20.40142     44.09925        12     1.299     0.911  27.83   0
        35    786.1714    945.9079 300.1572291 +22.8867860     736.7373     72.27516      1.524     3.39     2.725153     20.40142     69.54768        11     1.000     0.760  41.94   0
        36    894.6125    942.6808 300.1920784 +22.9183738      567.047     72.29359      1.701     5.35     2.638865     20.40142     41.81889         9     1.164     0.780 -83.73   0
        37    578.9919    938.7644 300.0950247 +22.8225978     318.0471     72.31201      1.524     4.73     2.552487     20.40142     27.41054         5     0.950     0.669 -29.70   0
        38    834.7019    937.0313 300.1752419 +22.8987903     546.5624     72.29359      1.424     2.72     2.721157     20.40142     73.41084        11     0.931     0.761 -10.62   0
        39    685.9421    936.0345 300.1292169 +22.8538948     630.6825     72.33043      1.429     3.12     2.764688     20.40142     76.51091         9     0.867     0.748  13.22   0
        40    697.0635    933.2006 300.1336033 +22.8564172     599.9971     72.31201      1.513     4.01      2.83687     20.40142     65.81254        14     1.204     0.842  -2.78   0
        41    398.6583    932.6600 300.0408912 +22.7667397     4204.276     72.38565      1.542     2.83     2.733107     20.40142     457.7757        29     1.211     1.107 -63.13   0
        42    441.8907    920.5831 300.0582708 +22.7762497     360.6497      72.2383      1.385     4.93     2.668117     20.40142     42.57363         8     1.188     0.606 -17.31   0
        43    177.3486    921.2532 299.9757920 +22.6970425     196.8698     72.34884      1.449     3.43     4.663332     20.40142     40.81031         5     0.748     0.454  75.96   0
        44    123.6556    918.0339 299.9601551 +22.6799996     805.6193     72.33043      1.797     4.56     4.901922     20.40142     69.96277        15     1.260     0.925  28.51   0
        45    101.1612    915.6097 299.9539551 +22.6725509     1559.855     72.31201      1.600     3.28     4.882378     20.40142     151.2541        22     1.201     1.049  54.17   0
        46     32.1022    916.0186 299.9323708 +22.6519311      409.111      72.2383      1.518     3.63     4.339396     20.40142      42.2682         7     0.884     0.532  38.17   0
        47    972.7245    904.0903 300.2289926 +22.9307103     2081.843     72.45921      1.598     3.06     2.846739     20.40142     187.8649        28     1.258     1.184  49.47   0
        48    926.9170    902.6359 300.2151816 +22.9165625     2108.835     72.29359      1.543     3.07     2.809998     20.40142     182.7362        25     1.229     1.068  40.37   0
        49    632.7794    902.9111 300.1234385 +22.8284465     378.5188      72.2383      1.512     3.30     2.795365     20.40142     46.85087         6     0.832     0.613  -3.56   0
        50    403.1072    902.5808 300.0520623 +22.7594497     229.1558      72.2383      1.367     3.92     2.939424     20.40142     33.27306         5     0.895     0.491  -3.99   0
        51    710.4746    896.4665 300.1497339 +22.8498987     520.1767     72.38565      1.380     3.34     2.992127     20.40142     66.32291        10     0.941     0.798  14.50   0
        52    132.9225    897.0319 299.9698673 +22.6767630     454.9168     72.29359      1.433     4.50     4.303572     20.40142     48.40057         9     0.958     0.746 -12.13   0
        53    457.5693    895.4805 300.0713169 +22.7737549     141.1736     72.31201      1.481     5.09     2.910072     20.40142     34.50588         6     1.464     0.499   0.54   0
        54    578.6268    890.7019 300.1105499 +22.8087010     4721.779     72.25674      1.409     2.53     2.782487     20.40142     594.5225        33     1.175     1.093 -43.08   0
        55     69.0356    891.3322 299.9518737 +22.6559479      300.931     72.31201      1.613     5.04     4.029397     20.40142     37.85418         8     1.104     0.651  76.90   0
        56    165.0548    890.7190 299.9819057 +22.6846004      646.335     72.34884      0.562     0.70     4.064118     20.40142     499.0673         6     0.525     0.345 -83.34   0
        57    380.9297    887.7165 300.0499997 +22.7485324     653.3166     72.44083      1.373     2.84     3.186292     20.40142     91.51991        12     0.915     0.852 -82.22   0
        58    128.8458    884.7275 299.9726035 +22.6720127     1486.749     72.31201      1.725     3.66     3.976241     20.40142     124.9921        22     1.227     1.138  27.43   0
        59    599.1391    883.0441 300.1194277 +22.8126568     822.5494     72.33043      1.389     2.96     2.890707     20.40142      98.7537        11     0.972     0.754 -41.02   0
        60    397.2271    882.7424 300.0566875 +22.7519963      262.145     72.31201      1.352     4.04     3.137958     20.40142     46.04744         7     0.991     0.586 -20.21   0
        61    148.5104    881.7155 299.9796936 +22.6770531      516.337     72.45921      1.340     3.80     3.859958     20.40142     59.11809        10     1.103     0.712 -81.41   0
        62    515.6412    874.2611 300.0962924 +22.7850909     349.4335     72.29359      1.272     3.44     2.904127     20.40142     39.07734         5     0.760     0.450 -74.19   0
        63    754.5717    870.3060 300.1719832 +22.8556142     4135.338     72.21986      1.380     2.54      3.05744     20.40142     449.6511        30     1.135     1.081  55.21   0
        64    526.7339    871.7101 300.1005749 +22.7876868     83.62164     72.42244      0.911     3.71     2.852901     20.40142     33.78789         5     0.932     0.426  45.44   0
        65    971.5005    870.5153 300.2395354 +22.9207032     1131.512     72.47759      1.546     3.30     3.055562     20.40142     95.99062        16     1.009     0.993   4.99   0
        66   1008.9687    870.4100 300.2512555 +22.9319019     385.0823     72.31201      1.862     4.84     3.067241     20.40142     35.60539         5     1.355     0.489   2.46   0
        67    485.9520    867.2563 300.0893313 +22.7741751      350.721     72.34884      1.153     2.77      3.12942     20.40142     52.44125         5     0.777     0.486  65.31   0
        68    163.0469    864.4722 299.9898200 +22.6764746      559.843     72.29359      1.574     4.29     3.369569     20.40142      63.6195        10     1.151     0.738  59.53   0
        69    471.6041    863.0111 300.0862474 +22.7686530     601.7805     72.14605      1.419     2.82     3.187984     20.40142     79.14052        11     0.950     0.735 -13.78   0
        70    118.1190    861.1041 299.9769553 +22.6620218     1101.732     72.45921      1.692     3.25     3.433924     20.40142     92.07938        16     1.059     0.979  54.60   0
        71    267.6701    853.1500 300.0260231 +22.7046321     53122.96     72.31201      1.491     2.64     3.416786     20.40142     6388.704        94     1.367     1.336  67.38   0
        72    533.2240    856.2295 300.1076311 +22.7851927     690.7523     72.31201      1.393     2.76     2.915132     20.40142     74.64042        11     0.863     0.809  74.47   0
        73    525.4930    852.1302 300.1065583 +22.7816978      1718.46     72.44083      1.454     2.60     2.986303     20.40142     198.5901        22     1.273     0.962  43.82   0
        74    938.3972    850.9769 300.2355689 +22.9051718     867.1844     72.25674      1.520     3.50     3.208062     20.40142     90.55692        15     1.038     0.953 -46.37   0
        75    196.0473    851.2482 300.0043775 +22.6825899     396.2581     72.34884      1.377     3.48      3.42011     20.40142     42.41719         7     0.743     0.662  20.43   0
        76    554.4374    848.1456 300.1168641 +22.7892367     913.3893     72.31201      1.375     2.52     2.951863     20.40142     119.4215        12     0.885     0.800  24.13   0
        77    565.5536    846.3218 300.1209179 +22.7920477     537.8464     72.31201      1.267     2.76     3.009551     20.40142     70.47448        10     0.990     0.634  38.47   0
        78    885.4704    843.3922 300.2215346 +22.8871306     499.5908     72.29359      1.692     3.74     3.313459     20.40142      44.1849         7     0.851     0.667  30.17   0
        79    670.6479    842.6703 300.1548303 +22.8225183     428.8891     72.29359      1.382     3.35     3.171741     20.40142     50.70256         9     0.998     0.607  88.03   0
        80    317.3731    830.3506 300.0488936 +22.7130106     30973.83     72.33043      1.421     2.54     3.467102     20.40142     3579.771        67     1.289     1.237  53.35   0
        81    708.2852    832.7854 300.1697691 +22.8309673     827.2419     72.25674      1.460     3.51     3.238085     20.40142     81.42342        11     1.022     0.720  41.63   0
        82    331.6021    830.9139 300.0531353 +22.7174419     2195.023      72.2383      1.485     2.69      3.47253     20.40142     262.1428        23     1.121     1.040  58.72   0
        83    840.5480    826.0133 300.2131847 +22.8686758     2855.938     72.34884      1.430     2.76     3.410058     20.40142     295.7211        25     1.122     1.050  85.64   0
        84    328.4115    824.7333 300.0541533 +22.7147121     608.4295     72.29359      1.524     3.12     3.482381     20.40142     74.19183         9     0.860     0.751  65.78   0
        85    598.4276    822.2875 300.1389705 +22.7950114     939.2394     72.31201      1.233     2.43     3.248506     20.40142     116.9989        14     0.904     0.884 -82.86   0
        86    199.8104    822.2067 300.0149930 +22.6753939     847.8713     72.18297      1.447     2.45      3.41498     20.40142      129.318        14     0.978     0.862  30.40   0
        87    434.8269    822.2385 300.0880665 +22.7459249     392.8006     72.33043      1.213     2.22     3.290715     20.40142     63.13781         6     0.716     0.538 -37.20   0
        88      4.7220    817.8156 299.9558113 +22.6155703     644.1385     70.99224      1.947     4.45     3.206389     20.40142     64.24393        11     1.151     0.850 -13.99  16
        89    445.5918    816.9474 300.0931368 +22.7476367     867.6553     72.31201      1.438     2.52     3.299604     20.40142     115.7682        11     0.910     0.709  22.81   0
        90    846.2562    813.6325 300.2189911 +22.8668325     557.4849     72.33043      1.256     2.38     3.520692     20.40142     63.76499         7     0.781     0.574  26.86   0
        91    347.2418    813.3868 300.0636999 +22.7171084     390.3701     72.33043      1.618     3.45      3.50998     20.40142      37.9692         5     0.802     0.428  20.01   0
        92    303.5233    812.4750 300.0504007 +22.7037287      346.139     72.40405      1.293     3.67     3.503658     20.40142     37.54238         6     0.956     0.406  70.37   0
        93     33.1808    811.4900 299.9667068 +22.6223021     680.4584      72.2383      2.079     4.25     3.263743     20.40142     56.14137        13     1.232     0.911  -0.19   0
        94    599.8406    811.1938 300.1430188 +22.7922520      296.812     72.34884      1.293     1.87     3.309967     20.40142      65.6925         6     0.710     0.516 -47.74   0
        95    391.1534    811.4119 300.0780007 +22.7297171     502.2176     72.31201      1.599     3.65     3.395851     20.40142     51.20809         7     0.848     0.613 -24.15   0
        96    197.7725    806.9203 300.0193311 +22.6703998     598.8477     72.33043      1.408     3.69     3.406945     20.40142     66.50508        11     1.139     0.696 -59.34   0
        97     38.9270    798.8614 299.9725984 +22.6204080     574.9291     72.34884      0.492    -4.30     3.293555     20.40142      426.604         5     0.416     0.325  26.97   0
        98    520.4577    796.6978 300.1230210 +22.7642846     467.3056     72.40405      1.478     3.47     3.339466     20.40142     73.72939         8     0.958     0.727 -16.81   0
        99    490.3897    795.1749 300.1141581 +22.7548291     631.6164     72.31201      1.360     2.51     3.342802     20.40142     93.44276        10     0.854     0.783  84.26   0
       100    399.7065    794.3268 300.0862179 +22.7273828     213.2608     72.44083      1.125     3.17     3.408069     20.40142     49.56141         6     0.702     0.658  49.09   0
       101    906.7901    791.2913 300.2451284 +22.8785611     4565.436     72.25674      1.408     2.60     3.684818     20.40142      488.596        31     1.123     1.114  39.16   0
       102    512.3661    792.5532 300.1218505 +22.7606686     1495.748     72.34884      1.325     2.39     3.345186     20.40142      181.782        15     0.937     0.860  60.12   0
       103    431.9529    792.2023 300.0969410 +22.7364471     339.7629     72.29359      1.236     3.32     3.364455     20.40142     44.35018         6     0.897     0.452 -33.21   0
       104    594.0962    787.3045 300.1489998 +22.7836743     227.3923     72.47759      1.101     2.68     3.377904     20.40142     62.03318         6     0.733     0.620 -69.23   0
       105    895.3438    782.6923 300.2443564 +22.8726615     1538.995     72.36725      1.354     2.46      3.72752     20.40142     195.1773        20     1.074     0.973 -41.04   2
       106    890.4561    781.5544 300.2432027 +22.8708699      1564.58     72.34884      0.824     3.07     3.735879     20.40142     633.0122         7     0.717     0.384  52.99   2
       107    663.6424    782.2684 300.1722944 +22.8030832     263.2157     72.29359      1.288     3.19     3.390036     20.40142     35.13953         5     0.742     0.443 -72.03   0
       108    346.7185    777.9785 300.0750524 +22.7067965     2295.465     72.27516      0.530     0.87     3.548748     20.40142     1367.716         7     0.474     0.372   9.91   0
       109    124.4240    778.1460 300.0058945 +22.6401356     308.5811     72.33043      1.394     5.18     3.383502     20.40142      30.5798         8     1.006     0.753 -17.77   0
       110    258.1871    776.7845 300.0479112 +22.6798900     819.3523     72.25674      1.330     2.75     3.482841     20.40142     124.7799        12     0.957     0.754  56.20   0
       111    721.7005    774.1428 300.1930214 +22.8181579     2481.403     72.40405      1.366     2.38     3.430099     20.40142     336.9502        26     1.289     0.960 -12.13   0
       112    926.3652    772.8025 300.2572449 +22.8791182     1650.038     72.29359      1.406     2.58     3.740481     20.40142     195.1838        18     1.129     0.873  57.51   0
       113    505.1827    770.0537 300.1269316 +22.7520588     4218.965     72.29359      0.478     0.87     3.378182     20.40142     2913.065         9     0.450     0.338   3.28   0
       114    107.0089    760.6055 300.0061870 +22.6298800     603.1409     72.16451      1.436     3.17     3.409938     20.40142       71.369         9     0.887     0.806  16.85   0
       115    803.9037    759.9476 300.2232510 +22.8387247     498.6563     72.38565      1.305     2.47     3.457848     20.40142     77.37134        10     0.888     0.690  -3.31   0
       116    840.0544    750.9748 300.2374358 +22.8469837     146723.4     72.33043      1.338     2.38     3.691424     20.40142     20587.09       165     1.397     1.315  80.93   0
       117    602.3350    755.0062 300.1620682 +22.7768762     261.1765     72.29359      1.013     1.96      3.42475     20.40142       70.045         7     0.674     0.631  24.12   0
       118    986.9938    752.6319 300.2827115 +22.8914923     1135.219     72.31201      1.336     2.64      3.80523     20.40142     151.8998        17     1.080     0.875  26.63   0
       119    692.4628    751.4297 300.1912996 +22.8028728     679.6056     72.33043      1.092     2.31     3.428794     20.40142      102.671        12     0.866     0.764 -81.42   0
       120    445.2198    752.2278 300.1140680 +22.7289593     239.6409     72.31201      1.329     4.19     3.475516     20.40142     33.94215         6     0.762     0.657 -67.10   0
       121    873.1117    743.9423 300.2500270 +22.8548716     399.1366     72.38565      1.258     3.42     3.872633     20.40142     62.33719         7     1.004     0.602 -73.25   0
       122    526.3299    739.9920 300.1432886 +22.7497756     1576.426     72.29359      1.229     2.20     3.416869     20.40142     244.7254        17     0.909     0.894 -50.01   0
       123    707.5336    737.1630 300.2006332 +22.8032957     9302.583     72.29359      1.245     2.13     3.439758     20.40142     1311.508        37     1.112     1.010  60.25   0
       124    209.0233    732.4208 300.0470528 +22.6524156     4862.034     72.31201      1.415     2.57     3.416266     20.40142     517.4201        35     1.207     1.129  46.92   0
       125    291.2475    730.5419 300.0732261 +22.6765486     1214.772     72.36725      1.350     2.29     3.576202     20.40142     150.1184        15     0.942     0.882 -51.23   0
       126    166.9144    728.0983 300.0353705 +22.6385397     564.9089     72.47759      1.457     2.43     3.373297     20.40142     67.90435         8     0.804     0.636  45.51   0
       127    499.4564    726.0844 300.1394462 +22.7377256     737.7941     72.40405      1.251     2.62     3.574006     20.40142     118.5394        14     0.996     0.844 -83.42   0
       128    490.9701    718.0477 300.1394180 +22.7328745     3234.218     72.33043      1.260     2.08     3.687111     20.40142     531.1254        23     0.983     0.954  88.42   0
       129    481.2652    711.9577 300.1383777 +22.7282165     1533.886     72.29359      1.281     2.14     3.777826     20.40142     221.4872        16     1.029     0.800  70.27   0
       130    144.4554    708.0107 300.0349215 +22.6260400      739.123     72.31201      1.615     4.36      3.39025     20.40142     81.23479        16     1.288     0.922  69.16   0
       131    874.6327    709.0703 300.2618398 +22.8453132     439.6898     72.31201      1.044     2.38     3.902369     20.40142     74.55911         7     0.724     0.623 -72.16   0
       132    158.8046    706.2291 300.0399597 +22.6298354     491.4597     72.27516      1.300     3.59     3.371668     20.40142     69.83675        11     1.047     0.761  55.79   0
       133    928.0887    702.8793 300.2805190 +22.8595529     423.6981     72.44083      1.173     1.98     3.903977     20.40142       86.793         8     0.751     0.626  50.97   0
       134    505.2592    702.0452 300.1490677 +22.7325678     445.4354     72.34884      1.245     3.02     3.888822     20.40142     75.46539        10     0.988     0.700  76.38   0
       135    405.9978    701.5665 300.1183361 +22.7026606      1753.56     72.27517      1.249     2.31     3.874371     20.40142     245.2267        18     1.036     0.852  62.49   0
       136    215.4661    702.7992 300.0586853 +22.6458546     317.6628     72.29359      1.038     3.42      3.42287     20.40142     39.55256         5     1.009     0.336  67.20   0
       137    184.3079    703.2834 300.0488432 +22.6366439     558.6373     72.49596      1.310     2.99     3.392202     20.40142     86.05952        11     1.052     0.687   8.22   0
       138    439.9034    700.5943 300.1292011 +22.7125511     282.6736     72.21986      1.245     2.10     3.907769     20.40142     49.36863         5     0.683     0.459  20.27   0
       139     59.9305    696.6193 300.0123637 +22.5974062     19597.51     72.33043      1.526     2.86     3.749246     20.40142     2064.205        61     1.342     1.298  49.21   0
       140    981.8702    698.8189 300.2986110 +22.8745000     729.7106     72.33043      1.276     2.40      3.92381     20.40142     116.8675        11     0.845     0.788  88.19   0
       141    490.8288    696.9250 300.1462410 +22.7267711     1090.865     72.33043      1.298     2.01     3.973335     20.40142     181.6137        13     0.969     0.742  46.44   0
       142    526.4310    695.8045 300.1576862 +22.7371259     287.4832     72.29359      1.054     2.13     3.940275     20.40142     58.88122         5     0.698     0.438 -64.86   0
       143    408.1661    693.6727 300.1215768 +22.7010462     266.8141     72.31201      1.213     3.25     3.942544     20.40142     37.77085         5     0.747     0.440 -15.56   0
       144    545.9115    689.1701 300.1659069 +22.7410633     228.6464     72.29359      1.108     3.00     3.996552     20.40142     43.51526         5     0.770     0.507  56.22   0
       145    244.4594    688.0802 300.0724829 +22.6503326     325.8392     72.36725      1.176     2.85     3.569913     20.40142     44.28277         6     0.771     0.492 -82.57   0
       146    574.0462    684.2557 300.1762631 +22.7480889     315.4159     72.34884      1.179     3.59     3.950646     20.40142     39.50449         6     0.890     0.493  38.59   0
       147    908.9318    682.8004 300.2810736 +22.8480459     940.3716     72.25674      1.259     2.25     3.909335     20.40142     151.2112        13     0.973     0.739  49.65   0
       148     72.3356    681.6473 300.0210838 +22.5968371     494.4016     72.34884      1.450     5.83     3.651881     20.40142      51.6678        10     1.389     0.690  55.36   0
       149      6.0734    680.9879 300.0007169 +22.5767596     1490.089     72.33043      1.912     4.90      4.18739     20.40142     98.77336        25     1.578     1.003 -89.90  16
       150    775.8600    681.0065 300.2401785 +22.8076536     438.1431     72.27516      1.242     2.26     3.686822     20.40142     74.57345         9     0.760     0.712  83.76   0
       151    454.2681    677.5447 300.1411635 +22.7102456      513.881     72.34884      1.265     2.62      4.18328     20.40142      70.7787         9     0.896     0.633  27.59   0
       152    849.0457    675.6688 300.2647225 +22.8280533     804.1595     72.29359      1.201     2.05     3.901792     20.40142     125.1113        11     0.870     0.703  78.20   0
       153    246.8711    676.5242 300.0769889 +22.6477418     428.6342     72.38565      1.344     3.01     3.619725     20.40142     55.63669         6     0.912     0.496   4.48   0
       154    844.9434    675.1464 300.2636137 +22.8266740     435.7585     72.36725      1.494     3.72     3.901843     20.40142     46.25586         5     0.834     0.476 -66.34   0
       155    411.1971    669.8638 300.1302591 +22.6951243      685.619     72.27516      1.395     2.05     4.122315     20.40142     118.9467        12     0.880     0.799  40.25   0
       156    559.0411    668.2425 300.1767970 +22.7389939     431.8169     72.40405      1.070     2.20     4.138247     20.40142     82.87736         8     0.784     0.611  42.47   0
       157    605.9584    666.7889 300.1918770 +22.7526432     365.7084     72.31201      1.168     2.72     3.909387     20.40142     80.75435         9     0.950     0.583  27.35   0
       158    576.7621    666.2614 300.1829580 +22.7437384     537.6199     72.33043      1.138     2.25     4.053111     20.40142     97.81252         8     0.746     0.648  47.87   0
       159    455.3459    665.6097 300.1453784 +22.7071442     985.3712     72.31201      1.288     2.40       4.2464     20.40142     129.5157        13     1.030     0.775  38.45   0
       160    888.9990    660.9695 300.2819557 +22.8358032      3293.76     72.27516      1.295     2.24     3.914105     20.40142     506.1534        24     1.053     0.955  59.52   0
       161    420.7605    661.1080 300.1360804 +22.6954803     1529.562     72.31201      1.204     2.06     4.145702     20.40142     281.8711        17     0.988     0.822  70.48   0
       162    987.0345    658.8690 300.3132090 +22.8645706     674.1498     72.31201      1.300     3.24     4.013076     20.40142     79.05845         9     0.798     0.734  22.96   0
       163    785.7521    658.3890 300.2506132 +22.8041236     330.9421     72.33043      1.066     2.90     3.760175     20.40142     47.60974         5     0.721     0.455 -18.29   0
       164    449.9258    651.8297 300.1481708 +22.7015645     262.4722     72.33043      1.071     2.04      4.23508     20.40142     61.97626         6     0.697     0.542  59.21   0
       165    928.1800    650.8160 300.2974725 +22.8446257     294.8053     72.29359      1.193     2.65     3.931651     20.40142     56.10352         8     0.823     0.617  52.14   0
       166    284.1799    647.8597 300.0979054 +22.6507127     8990.946     72.25674      1.294     2.28     4.024996     20.40142     1201.598        38     1.130     1.073  54.80   0
       167    406.6113    644.8497 300.1369626 +22.6865718     8913.313     72.33043      1.240     2.08     4.122501     20.40142     1410.305        38     1.128     1.027  82.87   0
       168   1011.4020    640.0801 300.3269169 +22.8664719     922.3079     72.21986      1.331     2.56     4.134984     20.40142     139.8254        15     1.037     0.882  49.07   0
       169    653.2255    641.0718 300.2149555 +22.7594304     335.1208     72.33043      1.274     2.99     3.659856     20.40142     44.36264         7     0.710     0.681  73.53   0
       170     50.7981    640.8766 300.0276443 +22.5786841     388.5098     72.21986      1.481     2.44      3.80564     20.40142     54.41486         6     0.751     0.528  39.83   0
       171    818.2495    638.7454 300.2671258 +22.8082209     1965.689     72.34884      1.176     1.98     3.801399     20.40142     310.3211        19     1.081     0.825  76.37   0
       172    902.9384    636.0201 300.2944113 +22.8328132     12219.54     72.27516      1.308     2.23     3.928001     20.40142     1845.821        44     1.189     1.060  84.73   0
       173    467.2320    634.4299 300.1592112 +22.7017611     11306.17     72.31201      1.210     2.15     4.294151     20.40142     1556.267        39     1.132     0.999  71.00   0
       174    194.4677    629.7714 300.0758943 +22.6186104     1493.841     72.31201      1.533     3.02     3.602716     20.40142     189.3071        20     1.192     0.956  26.81   0
       175    636.6392    629.9456 300.2134061 +22.7512643     533.7044     72.31201      1.059     2.42     3.762591     20.40142     103.1031        10     0.818     0.783 -68.95   0
       176    441.9352    627.7585 300.1535077 +22.6922608     338.0621     72.29359      1.185     2.85     4.215058     20.40142     55.35928         8     0.794     0.734 -13.65   0
       177    398.8866    622.6806 300.1417643 +22.6778940     4328.186     72.45921      1.251     2.19     4.125857     20.40142     664.6523        27     1.053     0.958  63.78   0
       178    741.8069    622.6226 300.2485452 +22.7806831      907.472     72.29359      1.195     1.96     3.641761     20.40142      147.317        13     0.876     0.775 -75.37   0
       179    377.0355    621.0481 300.1354973 +22.6708723     1207.464     72.34884      1.235     2.21     4.118773     20.40142     191.2908        14     0.972     0.780  81.90   0
       180    131.4012    620.4832 300.0593131 +22.5970242      851.062     72.20142      1.564     3.03     3.408223     20.40142     86.56858        15     1.029     0.960  19.75   0
       181    818.6457    618.0018 300.2739912 +22.8023821     1703.303     72.31201      1.394     2.65     3.744184     20.40142     203.3241        22     1.178     0.974 -66.90   0
       182     64.8557    618.2471 300.0393649 +22.5764144     367.9209     72.34884      1.556     4.79     3.688793     20.40142     38.22952         7     0.963     0.675   4.89   0
       183    339.3261    616.6476 300.1251982 +22.6582999     210.7912     72.31201      1.112     3.45     4.117779     20.40142     47.48841         6     0.860     0.489  45.00   0
       184    515.5098    610.1647 300.1821222 +22.7092727     200455.2     72.29359      1.211     2.01     4.349676     20.40142      29777.6       192     1.372     1.328  71.01   0
       185    699.2394    614.9087 300.2377908 +22.7657106     935.3212     72.31201      1.256     2.06     3.645399     20.40142      159.933        12     0.831     0.790  11.40   0
       186    792.5187    613.2400 300.2673962 +22.7931856     171.8505     72.27517      0.957     3.08     3.666156     20.40142     45.28966         5     0.740     0.447  67.73   0
       187    201.5601    610.1512 300.0844746 +22.6151108     3395.151     72.34884      1.326     2.31     3.773755     20.40142     490.1305        27     1.071     1.054  51.52   0
       188    767.3969    605.8870 300.2619575 +22.7835459     563.5747      72.2383      1.305     2.38      3.67801     20.40142     74.73026         9     0.814     0.683  21.51   0
       189    547.4644    596.7438 300.1964303 +22.7150006     130.7138     72.36725      0.939     2.21     4.339714     20.40142     48.58744         5     0.696     0.461  68.54   0
       190    406.1035    590.8695 300.1543468 +22.6709299     2904.755     72.44083      1.420     2.78     4.158372     20.40142     364.5507        32     1.634     0.950 -87.85   0
       191    250.6565    592.9933 300.1053121 +22.6249175     406.9577     72.31201      1.219     1.95     4.012495     20.40142     64.05887         7     0.666     0.639 -19.68   0
       192    855.6754    590.5203 300.2944641 +22.8055835     253.2106     72.42244      1.366     3.94     3.881917     20.40142     40.07534         8     1.062     0.628  78.55   0
       193    563.1454    587.9448 300.2041713 +22.7171757     350.1243     72.34884      1.493     3.94     4.264074     20.40142     34.93733         5     0.869     0.512 -32.12   0
       194    817.5707    586.7439 300.2838143 +22.7930822     316.6547     72.31201      1.149     1.91     3.767843     20.40142     67.71253         5     0.678     0.438  63.52   0
       195    636.8220    586.3856 300.2276189 +22.7388130     304.6405     72.31201      1.243     1.62     3.883403     20.40142      61.6958         5     0.657     0.440 -25.29   0
       196    510.8379    586.3913 300.1883933 +22.7010483     174.8393     72.33043      1.078     3.44     4.345296     20.40142     25.61554         5     0.781     0.437 -19.56   0
       197    835.2068    581.8584 300.2908987 +22.7969629     274.4119     72.29359      1.130     2.82     3.830336     20.40142     46.77772         5     0.912     0.336  46.30   0
       198    723.3134    578.9991 300.2569597 +22.7626138      408.781     72.21986      1.123     1.83     3.738688     20.40142     80.47958         7     0.655     0.635 -37.30   0
       199    803.0086    576.5668 300.2825828 +22.7857959     1635.655     72.31201      1.176     1.99     3.749769     20.40142     284.4489        15     0.861     0.835  88.97   0
       200    689.6328    576.7440 300.2472003 +22.7518726     453.4517     72.33043      1.173     2.29     3.693981     20.40142     54.27044         5     0.699     0.453  72.11   0
       201    674.2708    574.1478 300.2432589 +22.7465232     2681.282     72.29359      1.187     2.08     3.672271     20.40142     425.6923        23     1.056     0.925  82.83   0
       202    918.4265    571.6249 300.3201678 +22.8189540     388.6306     72.27517      1.331     3.22     3.963125     20.40142     60.01621        10     0.983     0.795  -2.52   2
       203    917.2590    567.3399 300.3211961 +22.8173732     876.7639     72.38565      1.346     2.64     3.963322     20.40142     119.9847        11     0.889     0.795  58.59   3
       204    579.1662    570.9056 300.2146956 +22.7170866     239.6421     72.29359      1.146     2.12     4.245644     20.40142     80.20631         8     0.734     0.671  39.83   0
       205    461.4963    570.2240 300.1782904 +22.6816144     647.0756     72.21986      1.187     2.51     4.287563     20.40142     98.53663         9     0.835     0.687 -64.27   0
       206    931.5117    568.1714 300.3253702 +22.8218814     1312.912     72.29359      1.266     2.27     3.974314     20.40142     173.0685        19     1.136     0.874  82.19   0
       207    803.2612    566.5944 300.2859019 +22.7830072     2162.406     72.27517      1.446     2.97     3.778611     20.40142     301.1882        26     1.616     0.813  75.72   0
       208    556.7706    564.9224 300.2096673 +22.7086556     786.9132     72.31201      1.412     2.38     4.321325     20.40142      91.6237         8     0.809     0.598  45.97   0
       209    395.2059    563.4057 300.1598800 +22.6597807     340.5625     72.16451      1.163     2.02     4.194384     20.40142     69.91505         5     0.683     0.452  21.97   0
       210    841.4390    561.7010 300.2993911 +22.7930398     4150.008     72.33043      1.178     2.08     3.881607     20.40142     610.9979        26     1.043     0.913  66.58   0
       211    482.7712    561.4248 300.1877701 +22.6854674     325.8235     72.31201      1.268     3.43     4.328627     20.40142     33.51833         5     0.763     0.446 -20.21   0
       212    579.1436    558.5530 300.2187021 +22.7135335     282.7022     72.34884      1.341     2.78     4.287325     20.40142     46.55735         6     0.769     0.495   4.47   0
       213    502.4127    557.4003 300.1951907 +22.6902008     396.8904     72.12759      1.068     3.09     4.334249     20.40142     74.58456         6     0.832     0.572 -31.23   0
       214     73.4836    552.4543 300.0634217 +22.5601367     1047.228     72.34884      1.357     2.63     3.677373     20.40142      122.538        14     0.974     0.900 -73.27   0
       215    933.3709    552.1934 300.3311416 +22.8178475     599.3684     72.31201      1.157     2.86      3.97194     20.40142     105.2215         9     0.963     0.631  -2.77   0
       216    734.3525    545.9385 300.2711409 +22.7564271     307.5106     72.34884      1.134     4.74     3.829165     20.40142     47.17809         7     1.040     0.612  70.26   0
       217    121.1988    544.5782 300.0808050 +22.5721938     152.5314      72.2383      1.236     3.49     3.600993     20.40142     29.84484         5     0.800     0.439 -19.77   0
       218     66.1512    542.2260 300.0644666 +22.5550033      459.798     72.33043      1.422     2.13     3.730193     20.40142     55.36839         6     0.700     0.552  44.37   0
       219    872.6979    549.0546 300.3132443 +22.7987713      201.022     72.40405      1.176     2.34     3.951976     20.40142     42.66776         5     0.835     0.459  88.75   0
       220    673.7760    536.1905 300.2554372 +22.7354751     527.2208     72.31201      1.254     2.26     3.739653     20.40142     65.37901         8     0.789     0.599  51.60   0
       221    773.1945    535.5415 300.2866214 +22.7650793     146.0968     72.27516      0.984     3.44     3.853771     20.40142     30.71194         5     0.742     0.461 -19.06   0
       222    562.6147    534.1609 300.2214807 +22.7015760     307.8153     72.33043      1.281     2.26     4.323181     20.40142      58.0818         5     0.711     0.441 -68.36   0
       223    614.9609    532.2042 300.2384150 +22.7167038      795.799     72.33043      1.208     1.97     4.248197     20.40142     143.2627        12     0.939     0.688 -81.34   0
       224    593.8481    530.4170 300.2324214 +22.7098628     312.4431     72.34884      1.433     3.99     4.301885     20.40142     37.31405         7     0.868     0.620 -79.57   0
       225   1022.4771    529.8281 300.3661995 +22.8381074     965.1247     62.61872      1.226     2.15     3.902808     20.40142     162.5052        13     0.876     0.785  36.86  24
       226    929.5511    524.6057 300.3389136 +22.8087766     611.5654     72.29359      1.135     2.27      3.93251     20.40142     95.47427        11     0.828     0.783 -59.90   0
       227    675.5682    524.3354 300.2598468 +22.7326077     820.6349     72.31201      1.144     2.30     3.808819     20.40142     118.2561        12     0.942     0.774  68.57   0
       228    832.9484    520.5523 300.3101135 +22.7786754     1064.974     72.34884      1.258     2.29     3.884163     20.40142     164.1238        13     0.975     0.750 -65.33   0
       229    797.6871    517.4454 300.3001329 +22.7672193     269.1343     72.29359      1.040     2.86     3.848528     20.40142     56.24424         5     0.897     0.421 -75.83   0
       230     21.2406    517.7535 300.0584659 +22.5345097     201.8977     72.36725      1.601     3.78     4.001707     20.40142     32.64088         5     1.314     0.311 -31.65   0
       231    817.2911    516.8264 300.3064438 +22.7729145     619.2519     72.25674      1.207     2.20      3.86313     20.40142     106.7046        11     0.839     0.762  21.88   0
       232    561.4638    515.0134 300.2273426 +22.6957336     3134.087     72.27516      1.154     1.96     4.289607     20.40142     523.9639        22     0.976     0.886  72.74   0
       233    921.9314    513.6500 300.3400968 +22.8033464     519.4667     72.31201      1.334     2.73     3.913073     20.40142     73.33403        10     0.925     0.692  42.70   0
       234    708.1608    514.3564 300.2732413 +22.7395084     260.5862     72.40405      1.436     4.20     3.909122     20.40142     23.96664         6     0.763     0.659 -59.31   0
       235     37.3786    506.8078 300.0670336 +22.5362128     271.7293     72.29359      1.097     2.64     3.927384     20.40142     58.39879         6     0.776     0.557 -40.52   0
       236    401.3920    502.1358 300.1817085 +22.6440510     281.9372     72.29359      0.989     1.72      4.23209     20.40142     69.38959         5     0.666     0.440  65.00   0
       237    333.2108    502.5032 300.1603806 +22.6237129     297.7772     72.20142      1.198     2.62     4.208572     20.40142     49.36623         5     0.722     0.457  21.21   0
       238    972.7803    493.8496 300.3623861 +22.8128852     1427.224     72.29359      1.304     2.08     3.811688     20.40142     219.8947        15     0.951     0.802  84.51   0
       239    844.6572    493.8517 300.3224368 +22.7745119     420.0354     72.36725      0.998     1.95     3.879605     20.40142     86.61495         7     0.733     0.586 -66.71   0
       240    931.1966    492.6223 300.3498166 +22.8000790     1022.387     72.27516      1.231     2.60     3.870543     20.40142     167.4082        12     0.891     0.830  16.43   0
       241    581.1560    490.7187 300.2413652 +22.6946601     294.6268     72.29359      1.217     2.48     4.236835     20.40142     54.11198         6     0.726     0.597  86.63   0
       242    467.7223    489.4746 300.2064600 +22.6603023     537.7534     72.42244      1.241     2.06     4.243502     20.40142     85.24295         6     0.785     0.446  86.01   0
       243    671.9990    488.8358 300.2702667 +22.7213430     1084.216     72.27516      1.190     1.88     3.999752     20.40142     213.2234        11     0.878     0.682  60.47   0
       244    176.0899    487.2366 300.1164888 +22.5722113     729.6122     72.29359      1.369     2.31     3.749437     20.40142     94.27947        10     0.848     0.700 -83.41   0
       245     16.2025    485.3711 300.0674186 +22.5237113     361.2596     72.25674      1.463     3.88     4.032713     20.40142     40.92759         6     1.016     0.425 -14.42   0
       246    971.5338    481.2489 300.3660904 +22.8088906      4343.41     72.29359      1.214     2.10     3.773068     20.40142     615.7125        29     1.144     0.953  70.03   0
       247    238.3475    482.9712 300.1372266 +22.5896601     3756.683     72.33043      1.263     2.26     3.848865     20.40142     505.3856        25     1.117     0.923  68.60   0
       248    185.6743    477.8875 300.1225040 +22.5724038     7697.465     72.45921      1.351     2.16     3.760462     20.40142     1112.538        45     1.387     1.087  50.29   0
       249    564.3214    477.2874 300.2404863 +22.6857579      310.517     72.45921      1.125     2.39     4.234847     20.40142     59.45918         6     0.665     0.647  23.49   0
       250    326.4113    472.0194 300.1681667 +22.6129255     4742.361     72.27516      1.236     2.12     4.253853     20.40142     686.7823        29     1.082     0.951  84.25   0
       251    951.4973    472.2496 300.3627647 +22.8003041     1867.022     72.36725      1.254     2.52     3.811201     20.40142     221.9816        20     1.076     0.922  79.24   0
       252    570.6219    468.6086 300.2452666 +22.6851541        18129     72.31201      1.140     2.02     4.244626     20.40142      2920.26        49     1.157     0.994  69.92   0
       253    417.9386    470.2106 300.1972256 +22.6398480     356.0645     72.25674      1.046     4.26     4.286791     20.40142      49.2951         6     1.063     0.486  77.92   0
       254    970.5883    468.4153 300.3699640 +22.8049191     278.3819     72.25674      1.351     3.44     3.774884     20.40142     33.36944         5     1.048     0.326  68.30   0
       255    588.1777    468.5432 300.2507539 +22.6903967      809.525     72.33043      1.828     5.59     4.227931     20.40142     71.53806        14     1.369     0.757 -43.39   0
       256    197.2182    466.5326 300.1297798 +22.5726082     327.7965     72.31201      1.344     4.49     3.776998     20.40142     37.40836         7     1.397     0.411  68.95   0
       257     76.3178    465.7076 300.0924779 +22.5361069     241.7561     72.45921      1.308     4.98     3.867773     20.40142     31.83064         5     1.138     0.616 -36.42   0
       258    767.3994    458.9478 300.3096955 +22.7413409     460.1298     72.27516      1.237     2.25     4.039454     20.40142     63.11369         7     0.710     0.622  89.73   0
       259    190.4292    455.5411 300.1312391 +22.5674184     466.1323     72.31201      1.557     2.92     3.804161     20.40142     51.89174         6     0.830     0.494  87.66   0
       260    904.1566    451.1724 300.3548483 +22.7800695     711.2145     72.33043      1.229     2.08     3.874552     20.40142     119.9008         8     0.721     0.664 -51.74   0
       261    125.1614    448.8211 300.1131374 +22.5459144      2068.15     72.33043      1.375     2.45     3.855124     20.40142     249.2308        21     1.143     0.919  51.06   0
       262    511.2078    438.0251 300.2367032 +22.6585655     6795.127     72.31201      1.224     2.02     4.293834     20.40142     1162.287        36     1.200     0.901  77.06   0
       263    924.8959    438.3705 300.3654726 +22.7826013     1131.204     72.25674      1.178     2.18     3.855773     20.40142     182.7388        13     0.938     0.781 -60.28   0
       264    225.9706    437.5223 300.1481383 +22.5729071      641.687     72.31201      1.234     2.49     3.765423     20.40142     93.21911        11     0.897     0.727 -76.88   0
       265     83.6968    430.9506 300.1060568 +22.5283502     564.1852     72.36725      1.243     2.33     4.005004     20.40142     94.04804         9     0.903     0.604 -41.36   0
       266    771.1697    429.5488 300.3204180 +22.7340243     339.2659     72.34884      1.153     2.19     4.127129     20.40142     71.73807         5     0.722     0.448  22.54   0
       267    715.4669    427.0438 300.3038757 +22.7166179      1128.93     72.29359      1.274     2.15      4.22165     20.40142      166.982        18     1.053     0.836  67.05   0
       268    624.9391    428.2767 300.2752779 +22.6898488     587.0346     72.36725      1.208     1.98     4.228164     20.40142     92.75607         7     0.685     0.627 -62.97   0
       269    417.8736    424.3276 300.2121056 +22.6266569     6096.254     72.36725      1.186     2.08     4.502023     20.40142     954.0891        29     1.116     0.887  66.08   0
       270      4.0330    424.3231 300.0834630 +22.5025512     275.2363     68.97489      1.220     4.24       4.5607     20.40142     31.54141         6     1.134     0.451 -71.85  16
       271    907.3795    418.8433 300.3663521 +22.7717438     721.3844     72.34884      1.516     2.36     3.883647     20.40142     102.8408        11     0.977     0.698  38.55   0
       272    809.7769    418.5764 300.3360127 +22.7424360     1476.954     72.27516      1.167     2.04     4.099239     20.40142     228.5667        14     0.906     0.790  65.97   0
       273    402.3891    413.0374 300.2109539 +22.6187740     588.7269     72.27516      1.315     2.83     4.497247     20.40142     82.99705         9     0.972     0.604  88.79   0
       274    485.0808    410.8328 300.2374011 +22.6429270     510.4824     72.29359      1.273     3.19     4.265726     20.40142     69.83114         9     0.911     0.724  75.39   0
       275    465.5792    408.8263 300.2319834 +22.6365059     331.7127     72.29359      1.175     1.89     4.324434     20.40142     61.57815         5     0.676     0.446  65.40   0
       276    782.8290    406.1716 300.3316424 +22.7308002      499.986     72.27516      1.123     2.46     4.193118     20.40142      91.0288         9     0.820     0.682   7.08   0
       277    305.4465    403.5529 300.1838795 +22.5869890     2429.908     72.31201      1.188     2.21     4.377584     20.40142     333.2131        19     1.036     0.838  77.07   0
       278     23.8494    401.1168 300.0971521 +22.5018396     1086.086     72.31201      1.492     2.87     4.480888     20.40142     122.8128        15     0.976     0.915  29.31   0
       279    274.7524    393.0515 300.1777442 +22.5747721     29246.01     72.34884      1.278     2.18     4.292676     20.40142     4439.309        65     1.248     1.105  63.06   0
       280    809.4576    390.3358 300.3450831 +22.7342256     1394.319     72.36725      1.153     2.12     4.202153     20.40142     203.6124        19     1.019     0.897 -74.79   0
       281    764.8795    387.8767 300.3319892 +22.7201671     326.2019     72.42244      1.162     2.46     4.261357     20.40142     54.86002         6     0.773     0.614   4.98   0
       282    724.7514    379.4059 300.3222363 +22.7057134     588.2628     72.29359      1.185     2.33     4.303855     20.40142     81.49036        10     0.850     0.691  78.31   0
       283    148.6460    379.4244 300.1429670 +22.5330471     504.1043     72.33043      1.632     4.58     4.105213     20.40142     58.49411        11     1.134     0.860  33.86   0
       284    767.7406    379.6246 300.3355600 +22.7186530     257.2889     72.31201      1.209     2.68     4.283562     20.40142     38.13314         5     0.715     0.454  17.70   0
       285    373.0920    377.9079 300.2132452 +22.5999068     581.4578     72.47759      1.304     3.92     4.410975     20.40142     75.60748         9     1.050     0.619  44.30   0
       286    685.1728    372.6181 300.3121101 +22.6919072     1977.424     72.31201      1.174     1.84     4.352593     20.40142     370.7937        16     0.956     0.779  71.55   0
       287    493.3170    366.9938 300.2541976 +22.6328069     435.7893      72.2383      1.278     2.08      4.40587     20.40142     50.79259         7     0.673     0.653  89.27   0
       288    900.3087    365.2239 300.3815573 +22.7542158     563.3343      72.2383      1.103     2.46     3.894968     20.40142     103.4787        11     0.941     0.691 -56.92   0
       289    346.9073    357.3320 300.2117797 +22.5861506     2170.052     72.44083      1.356     2.60     4.377584     20.40142       304.36        20     1.176     0.829  61.26   0
       290    778.5800    350.7507 300.3483117 +22.7136028     200.7702     72.29359      1.035     3.06     4.371223     20.40142     37.91992         5     0.723     0.455  70.20   0
       291    786.0069    349.8315 300.3509245 +22.7155630     585.0742     72.31201      1.230     2.21     4.376651     20.40142     125.6102        11     0.910     0.679  74.95   0
       292    668.5184    347.8940 300.3149488 +22.6798151     365.2001     72.45921      1.121     2.26     4.371284     20.40142      78.8985         6     0.739     0.566  48.97   0
       293    636.7631    346.5465 300.3054958 +22.6699150     377.3872     72.33043      1.018     2.27     4.290944     20.40142     58.35466         6     0.831     0.425 -89.77   0
       294    137.5543    338.0435 300.1529526 +22.5178465     210.8359     72.34884      1.206     3.97     4.203813     20.40142     30.16269         5     0.911     0.496  87.16   0
       295    422.7319    336.5792 300.2421049 +22.6029193     1113.061     72.31201      1.196     2.23     4.425553     20.40142     188.1186        13     0.962     0.726  58.20   0
       296    229.8622    336.7009 300.1820798 +22.5451394     267.1437     72.40405      1.267     2.98      4.37062     20.40142     42.58352         7     0.832     0.593 -34.43   0
       297    934.4664    332.5260 300.4028232 +22.7550441     369.9965     72.36725      1.119     3.04     3.861874     20.40142     48.64235         8     0.940     0.590  45.65   0
       298    667.5844    328.4754 300.3209613 +22.6739564     2136.066     72.31201      1.142     2.06     4.367867     20.40142      326.314        20     1.031     0.884  77.99   0
       299    928.9175    322.8123 300.4042459 +22.7505904     3190.275     72.29359      1.247     2.00     3.866321     20.40142      561.386        25     1.095     0.890  67.39   0
       300    990.0900    317.2462 300.4251309 +22.7673032     499.7495     72.29359      1.279     2.66     3.893472     20.40142     62.86679         8     0.752     0.699 -45.57   0
       301    300.2866    313.8559 300.2113918 +22.5596942     166.9753     72.38565      1.275     3.23     4.352892     20.40142     38.61108         5     0.717     0.679 -60.87   0
       302    866.0561    312.7458 300.3879137 +22.7288758     201.1209     72.36725      1.298     3.92     3.946656     20.40142     29.53349         5     0.862     0.510 -53.76   0
       303    998.3282    310.7528 300.4298083 +22.7679023     1607.754     72.29359      1.223     1.97     3.906742     20.40142     272.3579        19     0.994     0.900 -88.55   0
       304    375.8723    312.3239 300.2353988 +22.5819104     532.1884     72.38565      1.125     2.31     4.364821     20.40142     95.44011         9     0.808     0.691   6.66   0
       305     81.5606    306.6771 300.1457342 +22.4920544      644.279     72.29359      1.433     2.98     4.313162     20.40142     97.55762        11     1.056     0.714  70.34   0
       306     50.8687    306.8769 300.1361344 +22.4829073      1425.06     72.40405      1.606     3.11     4.406708     20.40142     167.1253        20     1.232     0.893 -36.82   0
       307    944.5375    303.1769 300.4154903 +22.7496218     517.2638     72.29359      1.245     3.01     3.886588     20.40142     80.43809         8     0.786     0.708 -81.25   0
       308    788.3572    300.0296 300.3678225 +22.7019547     364.4035     72.34884      1.391     2.67     4.428871     20.40142     43.90486         7     0.729     0.642  85.46   0
       309    134.3829    298.5536 300.1647835 +22.5055629     354.9835     72.34884      1.205     2.62     4.319236     20.40142     62.34281         9     0.939     0.609 -80.78   0
       310    930.0946    295.6495 300.4134295 +22.7431340     309.2113     72.36725      1.266     1.90     3.880729     20.40142     68.93549         5     0.692     0.433 -21.89   0
       311    810.6544    292.0971 300.3773462 +22.7063518     294.6442     72.40405      1.036     2.72     4.376048     20.40142     60.39095         6     0.799     0.475  87.81   0
       312    739.1907    289.7802 300.3558281 +22.6842852     731.4752     72.29359      1.146     2.35     4.368702     20.40142     119.2228         9     0.852     0.623  57.21   0
       313    329.6188    289.5149 300.2284138 +22.5614982      303.522     72.25674      1.059     2.43     4.337697     20.40142     64.42849         6     0.800     0.511  43.68   0
       314    837.3932    278.8264 300.3899874 +22.7105438     2056.481     72.31201      1.249     2.11     4.172695     20.40142     349.0221        20     1.087     0.828  88.64   0
       315    255.9519    276.4984 300.2097294 +22.5356797     2155.555     72.34884      1.278     2.28     4.336939     20.40142     295.8617        19     1.048     0.818  65.95   0
       316    143.5040    276.3442 300.1748252 +22.5019238     182.5905     72.40405      1.353     4.61     4.353608     20.40142     29.88954         6     1.034     0.584  30.54   0
       317    333.7843    271.4729 300.2355643 +22.5575664     1122.394     72.31201      1.407     2.94      4.33561     20.40142     142.6377        15     1.037     0.873 -37.64   0
       318     85.6822    271.8672 300.1583108 +22.4833012     285.6628     72.42244      1.101     1.77      4.38381     20.40142     71.73824         6     0.677     0.557  -3.80   0
       319    735.8187    270.5670 300.3610127 +22.6777539     581.1436     72.29359      1.221     2.53     4.389953     20.40142     98.86631         9     0.812     0.780  51.89   0
       320    775.1002    270.3468 300.3733244 +22.6894539     259.1426     72.40405      1.381     4.17     4.430379     20.40142     36.74797         6     0.871     0.604  35.50   0
       321    842.9250    267.3159 300.3954473 +22.7088914     348.7428     72.40405      1.254     4.23     4.127144     20.40142     35.97971         7     0.732     0.697   2.46   0
       322    150.5600    263.6991 300.1811212 +22.5004100     789.0056     72.31201      1.438     2.79     4.353976     20.40142     109.2042        16     1.050     0.938  50.65   0
       323    268.8046    263.0409 300.2180925 +22.5356690     307.7257     72.33043      1.064     2.21     4.320898     20.40142     54.90872         6     0.722     0.537 -47.82   0
       324    688.4046    260.3050 300.3495713 +22.6606051     1458.564     72.21986      1.099     2.20     4.375831     20.40142     238.5813        16     0.998     0.754  68.65   0
       325    753.4497    259.9794 300.3699422 +22.6799910      546.741     72.31201      1.186     2.04     4.417758     20.40142     101.8659         6     0.725     0.497  89.10   0
       326    172.2173    256.9315 300.1900481 +22.5049606     566.9017     72.31201      1.317     3.34       4.3508     20.40142     78.00903        11     0.990     0.772 -47.90   0
       327    461.8104    253.1846 300.2813298 +22.5906803     309.8753      72.2383      1.048     2.88     4.386749     20.40142     64.48936         6     0.869     0.555 -63.02   0
       328    960.0671    252.8096 300.4366796 +22.7397892     955.9615     72.31201      1.237     2.12     4.005414     20.40142      161.256        12     0.860     0.795  37.51   0
       329    612.9213    251.2218 300.3290087 +22.6353866     1161.879     72.31201      1.222     1.99     4.417858     20.40142     220.5936        15     1.048     0.779 -79.61   0
       330    692.6461    251.9998 300.3535876 +22.6594887     800.9822     72.31201      1.204     1.97     4.382301     20.40142     122.4336        10     0.776     0.696  -3.06   0
       331    434.1653    247.4975 300.2745724 +22.5807634     382.0585     72.31201      1.326     3.29      4.36829     20.40142     44.31751         7     0.864     0.583 -75.42   0
       332    808.5161    242.5100 300.3927716 +22.6914586     1438.424     72.45921      1.110     2.06     4.392464     20.40142     205.5463        17     1.013     0.795  87.57   0
       333    539.0833    242.9905 300.3086893 +22.6109032     956.7149     72.25674      1.217     1.96     4.444839     20.40142     184.0223        13     1.065     0.662 -87.13   0
       334    820.3588    241.6222 300.3967509 +22.6947492     756.7181     72.34884      1.136     2.21     4.307917     20.40142     120.7192        12     0.887     0.707 -61.23   0
       335    866.9138    240.6161 300.4115896 +22.7083980     278.6339     72.27516      1.071     2.52     3.960106     20.40142     57.86854         8     0.808     0.633  89.67   0
       336    830.6236    237.5428 300.4012741 +22.6966498     229.1749     72.31201      1.276     3.45     4.223772     20.40142     25.92432         5     1.096     0.313 -69.41   0
       337    981.2164    232.5160 300.4498611 +22.7402840     1627.171     72.27516      1.261     2.21     4.176348     20.40142     251.3517        18     1.051     0.856  78.62   0
       338    937.1906    231.8771 300.4363376 +22.7269229     973.5242     72.27516      1.243     2.19     3.929246     20.40142     182.9499        16     1.102     0.819  49.91   0
       339    171.4216    225.4118 300.2000273 +22.4956744     743.2972     72.29359      1.261     2.39       4.3508     20.40142     88.92632        11     0.862     0.750   6.91   0
       340     33.1765    220.2031 300.1587617 +22.4527307     2385.563     72.27516      1.489     2.98     4.521105     20.40142     245.9507        26     1.271     1.013  74.10   0
       341    856.2501    216.8616 300.4159727 +22.6983765     845.1701     72.36725      1.155     1.93     4.088016     20.40142     143.5818        13     0.939     0.799 -86.73   0
       342    190.5505    213.4004 300.2098698 +22.4979607     5696.095     72.29359      1.321     2.30     4.360556     20.40142      716.973        37     1.239     1.033  59.77   0
       343    172.2687    213.9408 300.2040120 +22.4926355     367.4257     72.33043      1.462     4.75     4.359743     20.40142     42.49778         8     1.036     0.617 -87.17   0
       344    173.9315    204.1528 300.2077041 +22.4903241     586.8021     72.29359      1.394     2.95     4.367873     20.40142     86.07452        10     0.931     0.721 -62.16   0
       345    989.4167    200.5568 300.4627882 +22.7335476     18237.91     72.33043      1.263     2.16     4.271646     20.40142     2775.249        46     1.201     1.045  84.76   0
       346    834.6262    194.6724 300.4164310 +22.6855237     3518.942     72.31201      1.216     2.19     4.319541     20.40142     531.7516        24     1.079     0.897  85.98   0
       347    938.3449    193.2985 300.4492144 +22.7161752     2844.852     72.40405      1.257     2.17     4.113869     20.40142     393.0152        24     1.101     0.966  77.73   0
       348    384.1354    190.1236 300.2776202 +22.5492942     687.5977     72.40405      1.381     3.53     4.370295     20.40142     97.95171        13     1.135     0.866  40.70   0
       349    137.0412    190.8876 300.2005419 +22.4754574     364.3378     72.29359      1.176     2.81     4.446506     20.40142     43.69388         7     0.842     0.542 -44.03   0
       350    498.6634    187.4224 300.3141353 +22.5828308     252.9941     72.29359      1.311     3.42     4.441309     20.40142     42.55755         5     0.723     0.468 -16.59   0
       351    308.1730    181.9568 300.2566411 +22.5241862       755.33     72.33043      1.595     3.13     4.347428     20.40142     73.45007        14     1.011     0.899  70.55   2
       352    312.4781    180.4558 300.2584669 +22.5250453     476.3883     72.34884      1.675     3.60      4.35311     20.40142     39.79441         7     0.925     0.548  59.02   2
       353     74.4610    179.3971 300.1848238 +22.4533979     671.9625     72.29359      1.478     3.35     4.713657     20.40142     70.47596        11     1.053     0.748 -89.15   0
       354    435.5004    177.1263 300.2978179 +22.5609506     1682.985     72.44083      1.188     2.15      4.38321     20.40142     248.7883        19     1.017     0.857  80.41   0
       355    363.3630    177.8146 300.2751509 +22.5395347     465.6273     72.31201      1.181     1.97     4.382532     20.40142     71.47674         7     0.729     0.582  62.12   0
       356    496.8993    176.3892 300.3171653 +22.5791326     352.0601     72.21986      1.236     2.60      4.44086     20.40142     55.27672         9     0.871     0.654  68.17   0
       357    178.7371    173.0378 300.2192908 +22.4828320     490.4439     72.33043      1.413     3.87     4.393076     20.40142      58.3569         9     1.051     0.620 -48.60   0
       358    723.8020    166.4002 300.3910653 +22.6442166     460.6835     72.09064      1.222     1.81     4.504548     20.40142     64.39332         5     0.636     0.480 -13.68   0
       359    869.4178    161.1597 300.4381482 +22.6863029     367.2061     72.33043      1.232     3.59      4.44174     20.40142     54.36433         5     0.816     0.454  40.85   0
       360    999.8452    157.8775 300.4798865 +22.7243936     3709.772     72.29359      1.324     2.01     4.294167     20.40142     587.1195        27     1.077     1.031  59.26   2
       361    209.4895    157.2604 300.2339674 +22.4875196     5976.453     72.40405      1.322     2.38     4.433765     20.40142     701.2242        32     1.199     1.000  62.69   0
       362    715.7540    157.5851 300.3914172 +22.6392730     355.9948     72.33043      1.178     3.18      4.53084     20.40142     49.96101         7     0.887     0.568  58.44   0
       363     60.3947    156.4874 300.1878844 +22.4426050     766.2957      72.2383      1.594     3.27     4.913322     20.40142     98.94739        14     1.144     0.851  65.09   0
       364    838.5229    153.7616 300.4309168 +22.6749280      376.957     72.29359      1.450     3.98     4.460648     20.40142     62.21888         6     1.053     0.519  61.17   0
       365    181.1154    150.9684 300.2271880 +22.4772087     356.9787     72.31201      1.418     4.44     4.480165     20.40142     51.67741        10     1.189     0.581  60.49   0
       366    225.0132    148.5547 300.2416170 +22.4896726     258.0151     72.31201      1.084     3.10     4.495631     20.40142     53.34541         7     0.890     0.638 -22.78   0
       367    455.5691    142.4404 300.3153135 +22.5569985     6254.579     72.34884      1.221     2.19      4.40628     20.40142     873.7642        34     1.159     0.996  81.07   0
       368    340.9556    141.8890 300.2798332 +22.5225024     689.5725     72.33043      1.438     3.12     4.403957     20.40142     86.32739        12     1.086     0.692  80.51   0
       369    512.4365    136.8986 300.3348103 +22.5724405     341.7205     72.31201      1.087     2.48     4.450112     20.40142     57.91304         6     0.747     0.494 -85.80   0
       370    708.0630    132.0056 300.3973177 +22.6296175     886.2587     72.27516      1.389     2.05      4.64407     20.40142     131.8705        13     0.892     0.829  60.01   2
       371    649.3714    133.3798 300.3785893 +22.6124390     348.6254     72.31201      1.228     2.60     4.765051     20.40142     49.25653         5     0.709     0.450  19.33   0
       372    800.6716    130.8104 300.4265628 +22.6569986     292.4685     72.31201      1.044     2.42     4.471435     20.40142     69.59744         7     0.800     0.565 -53.67   0
       373     19.9765    128.7501 300.1843243 +22.4225260     163.7021     72.31201      1.272     3.09     5.086454     20.40142     32.86205         5     0.796     0.484  59.00   0
       374    823.6149    125.8922 300.4353090 +22.6624523     230.7901      72.2383      1.822     4.52     4.466688     20.40142     28.06573         5     1.310     0.444  58.17   0
       375    148.4113    126.5748 300.2249344 +22.4604027     397.3765     72.31201      1.122     2.68     4.709863     20.40142     62.41869         7     0.914     0.486   6.58   0
       376    583.9000    122.5018 300.3617281 +22.5897068     6160.539     72.55106      1.218     2.06     4.674011     20.40142     1014.279        33     1.135     0.947  74.22   0
       377    507.0762    124.7759 300.3370734 +22.5673518     379.4965     72.33043      1.110     2.23     4.447288     20.40142     101.3449         8     0.948     0.521  61.47   0
       378    358.8605    121.7462 300.2919352 +22.5220814     1498.443     72.36725      1.287     2.30     4.412533     20.40142     222.9392        18     1.189     0.767  82.11   0
       379    624.8860    119.9050 300.3753335 +22.6012341     800.7047     72.49596      1.223     2.15      4.83136     20.40142     137.9293        11     0.799     0.780 -76.99   0
       380    640.8675    115.8738 300.3816181 +22.6048610     508.2606     72.38565      1.084     2.23     4.865631     20.40142     111.2083         9     0.855     0.619  63.12   0
       381    107.5468    113.9949 300.2163148 +22.4445422     776.8796     72.29359      1.547     2.67     4.921192     20.40142     91.13044        13     0.972     0.824  19.06   0
       382    950.2599    112.2784 300.4792104 +22.6964404     365.2913     72.34884      1.526     4.35     4.414863     20.40142     52.32367         6     1.169     0.626 -50.80   0
       383    910.8712    112.9827 300.4666988 +22.6848557     372.7532     72.33043      1.180     2.64     4.430953     20.40142     87.23375         9     0.930     0.638 -69.37   0
       384    679.3986    111.2386 300.3951230 +22.6150657     461.0747     72.33043      1.191     2.49     4.889334     20.40142     75.24507         7     0.766     0.597 -75.91   0
       385    628.1227    107.3932 300.3803990 +22.5986072     2645.497      72.2383      1.200     2.17     4.907683     20.40142     416.6273        19     1.039     0.817  81.00   0
       386    268.6565    108.1231 300.2682985 +22.4911408     450.8418     72.34884      1.287     3.47     4.560639     20.40142     57.85932        10     1.005     0.658  29.92   0
       387    643.4658    106.1530 300.3855798 +22.6028450     903.4454     72.33043      1.774     4.70     4.928162     20.40142     93.08779        15     1.447     0.782  38.51   0
       388    714.5917     98.8233 300.4101129 +22.6220333     1560.665     72.31201      1.252     2.38     4.724466     20.40142     210.3303        17     0.950     0.891  68.43   0
       389    874.5876     97.4616 300.4604192 +22.6695332      400.666     72.27517      1.299     2.64     4.463364     20.40142     58.80548         6     0.854     0.443  72.86   0
       390    461.3947     97.2310 300.3317878 +22.5457546     294.0761     72.29359      1.242     3.42     4.411543     20.40142     30.07531         5     0.762     0.443  70.49   0
       391    792.5544     93.7008 300.4360678 +22.6438990      351.313     72.33043      1.747     4.99     4.487231     20.40142     38.07746         8     1.131     0.631 -75.31   0
       392    652.5883     92.1150 300.3929734 +22.6015413     695.6461     72.25674      1.184     2.71     4.997143     20.40142     106.5188        11     0.979     0.708 -72.90   0
       393    458.1254     91.5934 300.3325985 +22.5431556     1077.918     72.25674      1.236     2.31     4.395392     20.40142     143.7077        14     0.985     0.787 -85.22   0
       394     31.2967     91.5765 300.1998946 +22.4152495     423.5728      72.2383      1.270     4.34     5.033607     20.40142     66.35043        11     1.253     0.685 -50.98   0
       395    361.9559     89.6562 300.3033041 +22.5137908       805.28     72.31201      1.288     2.24     4.405332     20.40142     127.8697        13     0.987     0.751  76.34   0
       396    744.4200     88.1148 300.4228792 +22.6278843      554.629      72.2383      1.278     2.59     4.622927     20.40142     73.67004         9     0.863     0.695  20.02   0
       397   1004.9131     86.2277 300.5047053 +22.7053002      2388.15     72.31201      1.332     2.44     4.537441     20.40142     312.0626        21     1.091     0.922  85.95   0
       398    133.4776     79.7634 300.2354723 +22.4424864     3763.306     72.27517      1.419     2.56     4.967297     20.40142     448.2921        31     1.254     1.055  65.81   0
       399    701.5550     80.0958 300.4121241 +22.6127466     614.3274     72.33043      1.077     2.01     4.873194     20.40142     117.7314         9     0.770     0.668  22.31   0
       400    555.8432     77.0060 300.3677456 +22.5682297     354.3765     72.33043      1.252     3.70     4.495585     20.40142     41.50815         7     0.966     0.618  88.34   0
       401    459.0529     77.1680 300.3375646 +22.5392886     303.5952     72.33043      1.195     3.29     4.357139     20.40142     50.65065         6     0.920     0.573  19.57   0
       402    694.8091     72.0256 300.4126393 +22.6084070     840.6646     72.31201      1.184     2.23     4.927399     20.40142     136.6271         9     0.753     0.708  73.36   0
       403    660.4391     71.5612 300.4020835 +22.5979836      266.194     72.38565      1.187     3.01      5.00989     20.40142     55.48128         5     0.926     0.474  47.61   0
       404    249.4014     71.6551 300.2741360 +22.4748976     1091.491      72.2383      1.197     2.39     4.810098     20.40142     158.6984        13     0.930     0.762  82.17   0
       405    476.1610     68.9658 300.3455484 +22.5420558     351.6535     72.34884      1.273     2.27     4.346287     20.40142     55.85757         6     0.850     0.441  54.74   0
       406    732.6160     67.1031 300.4260143 +22.6183096      809.556     72.21986      1.437     3.88     4.800528     20.40142     76.55314        11     1.131     0.656  85.66   0
       407    655.7682     67.0198 300.4021011 +22.5952797     269.2598     72.31201      1.116     2.13     5.008545     20.40142     76.54168         7     0.741     0.575  84.90   0
       408    752.4499     63.2499 300.4334438 +22.6231389     2214.422     72.34884      1.216     2.24     4.732253     20.40142     280.1342        20     1.103     0.852  67.66   0
       409    458.2258     61.6286 300.3423455 +22.5345758     399.3924     72.29359      1.195     2.63     4.317438     20.40142     77.49185         9     0.831     0.722 -82.02   0
       410    135.9329     58.8365 300.2430202 +22.4372134     943.4241     72.31201      1.408     2.90     4.974655     20.40142     125.4098        13     1.080     0.751  62.01   0
       411    927.3921     56.6745 300.4901097 +22.6736042     709.5224     72.27517      1.289     2.66     4.824495     20.40142       111.77        14     1.007     0.799  17.72   0
       412    700.8994     55.7427 300.4198161 +22.6055490     955.5999     72.40405      1.269     2.28     4.950369     20.40142     159.7339        13     0.994     0.682  81.24   0
       413    408.5377     53.9688 300.3293671 +22.5174922     457.3211     72.33043      1.983     5.27     4.287784     20.40142     28.00705         9     1.197     0.654 -79.76   0
       414    151.3925     48.5297 300.2511661 +22.4388869     257.3476     72.29359      1.435     4.09     4.997016     20.40142     41.94685         6     1.106     0.432  53.29   0
       415    458.4167     48.3584 300.3467072 +22.5308198     417.4848     72.33043      1.239     3.46     4.281059     20.40142     53.65204         5     0.733     0.473  75.54   0
       416    285.6939     45.4159 300.2939281 +22.4782350     387.5932      72.2383      1.137     3.15      4.84442     20.40142     58.99926         7     1.008     0.440 -60.16   0
       417    785.9320     39.8284 300.4514715 +22.6264259     292.0853     72.31201      1.226     4.10     4.583112     20.40142     51.33681         7     1.064     0.611 -16.49   0
       418    689.0055     38.7969 300.4216048 +22.5971165     178.3414     72.12759      1.183     3.11     5.009189     20.40142     46.20481         8     0.820     0.662  40.34   0
       419    553.2734     40.6481 300.3787335 +22.5570107     852.5701     72.31201      1.161     2.43     4.362839     20.40142     117.9133        13     0.937     0.754  64.37   0
       420    162.7900     38.1493 300.2580736 +22.4393216      452.961     72.31201      1.300     2.86     5.030558     20.40142     68.37086         8     0.853     0.640   4.08   0
       421    716.5796     35.5079 300.4312616 +22.6044251     759.7599      72.2383      1.245     2.47     5.005325     20.40142     93.01912        11     0.958     0.654  60.81   0
       422    525.2121     33.7464 300.3722349 +22.5466243     1961.745     72.33043      1.273     2.23     4.245447     20.40142     308.7427        21     0.993     0.956 -43.01   0
       423    248.0194     31.5090 300.2867215 +22.4629528       645.89      72.2383      1.311     2.73     4.930681     20.40142     82.17107         9     0.855     0.674  77.01   0
       424    421.3706     30.8351 300.3408598 +22.5146890     213.2083     72.33043      1.052     3.06     4.238102     20.40142     37.84097         5     0.725     0.458 -74.20   0
       425    482.4543     27.6061 300.3609161 +22.5320552     1327.794     72.29359      1.279     2.51     4.227154     20.40142     176.3053        18     1.077     0.832  89.47   0
       426    587.9341     24.3158 300.3948202 +22.5626946     1356.854     72.42244      1.305     2.43     4.761276     20.40142     182.9525        15     1.115     0.765 -71.04   0
       427    183.0528     23.4263 300.2691445 +22.4411654     424.7337     72.33043      1.316     1.76     5.021784     20.40142     68.77225         5     0.649     0.456  24.51   0
       428    413.3605     21.6087 300.3413584 +22.5096388     296.1604     72.31201      1.226     3.67     4.222457     20.40142     44.00027         5     0.963     0.415 -73.82   0
       429    231.7818     20.7400 300.2851638 +22.4549947     442.3316     72.27517      1.299     3.66     4.942317     20.40142     61.56976         9     0.906     0.745 -88.07   0
       430    408.2509     18.1534 300.3408886 +22.5071156     2280.985     72.34884      1.351     2.37     4.216372     20.40142     293.3997        19     1.062     0.879  74.15   0
       431    522.9069   1020.3463 300.0510136 +22.8291682     1452.952     70.91715      1.627     3.58     2.342348     20.40142     116.4366        23     1.217     1.117  59.02  16
       432    662.6069     16.7151 300.4205401 +22.5828654     169.7185      72.2383      1.150     3.09     5.022523     20.40142     35.95842         5     0.724     0.455  71.67   0
       433      5.3346     16.1150 300.2162938 +22.3858043     717.3469     72.27516      0.601     0.68     4.746718     20.40142     401.5267         5     0.474     0.413  11.19   0
       434    416.9189   1016.8414 300.0191744 +22.7963559     989.1196     72.27516      1.558     3.87     2.288107     20.40142     79.99118        17     1.173     0.989  49.75  16
       435    700.2443   1016.8168 300.1073789 +22.8813603      244.236     72.33043      1.569     4.22     2.830452     20.40142     30.59064         6     0.780     0.651  12.02   0
