#   1 NUMBER                 Running object number                                     
#   2 X_IMAGE                Object position along x                                    [pixel]
#   3 Y_IMAGE                Object position along y                                    [pixel]
#   4 ALPHA_J2000            Right ascension of barycenter (J2000)                      [deg]
#   5 DELTA_J2000            Declination of barycenter (J2000)                          [deg]
#   6 FLUX_APER              Flux vector within fixed circular aperture(s)              [count]
#   7 FLUXERR_APER           RMS error vector for aperture flux(es)                     [count]
#   8 FLUX_RADIUS            Fraction-of-light radii                                    [pixel]
#   9 FWHM_IMAGE             FWHM assuming a gaussian core                              [pixel]
#  10 BACKGROUND             Background at centroid position                            [count]
#  11 THRESHOLD              Detection threshold above background                       [count]
#  12 FLUX_MAX               Peak flux above background                                 [count]
#  13 ISOAREA_IMAGE          Isophotal area above Analysis threshold                    [pixel**2]
#  14 A_IMAGE                Profile RMS along major axis                               [pixel]
#  15 B_IMAGE                Profile RMS along minor axis                               [pixel]
#  16 THETA_IMAGE            Position angle (CCW/x)                                     [deg]
#  17 FLAGS                  Extraction flags                                          
         1    858.8710     15.5121 300.4333888 +22.6232687     2234.621     72.53447      1.514     3.34     5.435328     20.41743     279.7033        24     1.230     1.028  70.25   0
         2    564.4330     13.7624 300.3422524 +22.5346194     595.2603     72.40562      1.613     4.10     4.935998     20.41743     55.36855        10     0.975     0.799 -57.83   0
         3    242.2010     10.9727 300.2429304 +22.4372919     957.5576     72.33189      1.506     3.71     5.556216     20.41743     99.90605        16     1.253     0.855   6.57   0
         4    807.4252      8.1853 300.4197313 +22.6057648     793.6345     72.38719      1.355     2.96     5.400395     20.41743     111.6017        15     1.030     0.932  -0.37   0
         5    514.6523      6.2314 300.3291995 +22.5175477     347.7976     72.38719      1.433     2.67      4.95985     20.41743     35.15291         5     0.716     0.454 -75.00   0
         6    427.3409      1.3718 300.3036089 +22.4900011     313.1405     56.48805      1.596     3.34      4.99076     20.41743     44.12925         5     0.743     0.473   9.91  24
         7    707.5683   1012.5103 300.0625521 +22.8642089     9445.023     72.33189      1.965     4.37     2.453867     20.41743     533.9822        52     1.546     1.475 -43.17   3
         8    268.6514   1014.7409 299.9252832 +22.7331150     4854.525     72.42403      8.568    25.52     53.23471     20.41743     92.49165       361     5.999     5.427  59.69  19
         9    287.1734   1014.6193 299.9310794 +22.7386416     5518.343     72.38719      9.058    28.06     50.18806     20.41743     98.36394       475     6.452     5.806 -47.35  27
        10    306.6293   1002.8350 299.9409605 +22.7411069     8123.735     72.38719      9.665    31.82     33.09634     20.41743     169.8225       861    10.992     5.435  63.78  19
        11    246.7348   1011.8763 299.9194040 +22.7257135     1208.156     72.46087      7.627    10.45     55.38868     20.41743     44.36433        16     2.958     1.029  56.24  19
        12    241.4802   1020.1900 299.9150664 +22.7265173     3297.901     71.25418      6.597    21.93     60.59872     20.41743     74.28647       148     4.838     3.116 -20.28  27
        13    235.6482   1004.2268 299.9184472 +22.7201931     2353.704     72.38719      7.757    21.98     53.02996     20.41743     52.31238       122     5.399     2.485  73.79  19
        14    144.7146   1017.3212 299.8859360 +22.6966357     4545.912     72.49767     10.451    36.29     49.87815     20.41743     91.57797       415     7.464     4.914   7.20  27
        15    142.9447    974.1155 299.8994405 +22.6837291     4633.725     72.46087     31.517   100.01     27.11089     20.41743     96.75935      4400    23.519    15.641 -69.24  26
        16    566.5031   1003.6244 300.0215301 +22.8193361     474.6983     72.27654      1.793     4.95     2.848289     20.41743     33.73476         7     1.201     0.577  35.17   0
        17    485.7434    953.8498 300.0125934 +22.7808321     658.0094     72.42403      1.983     5.66     3.213806     20.41743     52.26567        12     1.407     0.829 -20.82   0
        18     51.0463   1001.4540 299.8620084 +22.6639572     794.6272     72.40562      4.133     5.81     3.856421     20.41743     46.80554        10     1.291     0.933 -74.35   0
        19    926.6173    950.7567 300.1508850 +22.9121903     368.5311     72.38719      2.225     5.21     3.286663     20.41743      27.4325         5     1.300     0.589  62.09   0
        20    995.1140    999.0412 300.1565304 +22.9465819     732.1954     72.35033      2.109     8.13     3.060583     20.41743     37.40759        19     1.425     1.298 -16.73   0
        21    999.5422    945.8967 300.1751998 +22.9326587     2089.498     72.44245      1.970     4.60     3.446627     20.41743     114.1516        34     1.470     1.385 -27.91   0
        22    650.1252    943.0179 300.0672730 +22.8270482     330.3964     72.36876      1.601     5.32     3.221462     20.41743     26.56406         6     1.140     0.700 -30.72   0
        23    498.5575    941.2125 300.0206901 +22.7810548     402.5155     72.35033      1.838     3.43     3.220048     20.41743     31.45765         5     0.789     0.431 -68.11   0
        24    188.2005    997.3049 299.9059563 +22.7039622     653.3698     72.23961      4.794     5.40     51.48488     20.41743     31.78278         5     1.047     0.786  80.48   1
        25    788.8527    935.2717 300.1129940 +22.8664371     613.4006     72.36876      1.816     6.67     3.480783     20.41743     38.96073        15     1.612     0.775  38.90   0
        26    823.4180    928.7672 300.1258778 +22.8749369     1042.904     72.35033      1.820     6.42     3.476847     20.41743     67.34174        20     1.496     1.052 -42.07   0
        27    600.6036    930.1142 300.0560545 +22.8084913      507.127     72.29499      1.885     4.47      2.89327     20.41743     39.77762         6     1.013     0.561  16.80   0
        28    184.0002    977.8962 299.9109646 +22.6971412     1290.494     72.23961     12.581    15.18     39.69933     20.41743     42.29786        33     3.754     1.707  35.01   3
        29     32.9523    926.2331 299.8808551 +22.6369807     563.1911     72.40562      1.956     6.15     3.771318     20.41743      45.5277        11     1.409     0.755 -50.02   0
        30    845.4479    922.6056 300.1347457 +22.8797752     11108.97     72.35033      1.828     3.84     3.418486     20.41743     697.9683        56     1.480     1.448 -23.52   0
        31    891.2861    922.2350 300.1491502 +22.8934132     475.1812     72.35033      1.806     6.08     3.367318     20.41743     37.70267         9     1.092     0.951 -69.21   0
        32    197.3902    986.6903 299.9122642 +22.7036812     1445.285     72.31344      6.220     8.94     45.47536     20.41743     52.21698        19     2.122     1.051  69.07   2
        33    157.0701    914.7447 299.9231369 +22.6709636     1324.396     72.38719      7.335     6.88     5.280028     20.41743     62.06203        21     1.911     1.179 -86.39   0
        34    215.9893    983.8550 299.9189654 +22.7084540     1264.555     72.36876      5.660     7.99     44.08337     20.41743      62.5435        23     1.787     1.315  51.16   3
        35    550.6707    911.3546 300.0466155 +22.7881312     438.5942     72.35033      1.688     5.60     3.236134     20.41743     48.09158         8     1.461     0.604 -32.01   0
        36    853.9516    904.5833 300.1432567 +22.8771541     1381.981     72.40562      1.819     4.44     3.419577     20.41743     89.64402        25     1.347     1.222 -88.02   0
        37    210.8421    984.0915 299.9172891 +22.7069762     1143.273     72.36876      6.583    10.56     43.98167     20.41743     47.81388        24     2.403     1.294  50.99   2
        38    706.2626    901.8344 300.0981458 +22.8320756     405.5075     72.36876      1.628     4.82     3.623914     20.41743     46.22075         7     1.083     0.650  58.92   0
        39    892.0137    898.1112 300.1572226 +22.8867091     882.5658     72.31344      2.129     6.01     3.422314     20.41743     53.20234        20     1.403     1.133 -27.56   0
        40   1000.5223    895.6221 300.1918570 +22.9185234     450.4771     72.35033      1.860     4.02     3.587787     20.41743      44.7789         6     1.109     0.658 -21.80   0
        41    940.9116    889.4962 300.1752650 +22.8988962      560.174     72.55286      1.872     5.93     3.490791     20.41743     46.08773        11     1.048     0.945 -23.64   0
        42    791.7522    888.4479 300.1291253 +22.8538738     734.1776     72.40562      1.717     5.47      3.54992     20.41743     57.74578        16     1.386     0.925 -31.95   0
        43    803.2176    885.3776 300.1336954 +22.8564311      626.846     72.35033      1.605     4.56     3.539002     20.41743      54.4946        15     1.188     0.973 -29.08   0
        44    504.4807    884.6849 300.0409159 +22.7666256     4117.373     72.51608      1.697     3.18     3.564871     20.41743     370.6694        34     1.326     1.219  71.04   0
        45    282.7984    873.9730 299.9754620 +22.6970269     510.9529     72.31344      2.056     6.51     4.805169     20.41743     31.27596        10     1.209     0.984 -51.28   0
        46    720.3383    981.8594 300.0765004 +22.8592498     6871.814     72.40562      1.903     3.98     2.892266     20.41743     421.8526        48     1.495     1.456 -41.20   0
        47    548.5290    872.7845 300.0584911 +22.7764290     245.6332     72.36876      1.154     1.91     3.722592     20.41743     55.18301         5     0.676     0.470 -69.86   0
        48    229.5684    870.6973 299.9599840 +22.6801094     851.4175     72.33189      1.986     5.25     5.518973     20.41743      52.1277        17     1.265     1.075 -44.73   0
        49    206.7825    867.3798 299.9539823 +22.6723184     1784.375     72.35033      1.912     3.96     4.579265     20.41743     126.1851        29     1.368     1.306 -13.80   0
        50    311.6080    976.3641 299.9511190 +22.7350169     73.16222     72.36876      1.464     6.20     21.10946     20.41743     36.63251        11     1.188     0.909  10.48   0
        51     81.9242    856.6947 299.9186712 +22.6317693       472.57     72.51608      1.933     7.58     3.662402     20.41743     38.43422        13     1.533     1.108 -45.00   0
        52    738.2452    855.7830 300.1230804 +22.8284571     290.8681     72.38719      1.458     3.86     3.601277     20.41743     32.20399         5     0.999     0.427 -44.47   0
        53    816.1840    848.8635 300.1496079 +22.8498422     561.3148     72.35033      1.550     4.26     3.537513     20.41743     59.17187        12     1.153     0.859 -69.73   0
        54    600.6380    975.5283 300.0412937 +22.8215235     482.0983     72.33189      2.424     4.20     2.771668     20.41743     31.22961         6     1.065     0.473   9.61   0
        55    684.4874    842.8881 300.1105323 +22.8086362     4773.521     72.53447      1.616     3.14     3.658511     20.41743     418.9515        36     1.269     1.245 -38.54   0
        56    629.0337    972.5203 300.0511108 +22.8291806     1600.029     72.31344      1.858     4.72     2.826267     20.41743     101.4754        26     1.379     1.270 -29.45   0
        57    486.5095    839.7987 300.0499188 +22.7483635     516.7035     72.29499      1.434     3.93     3.723394     20.41743     46.07637         9     1.013     0.652  18.29   0
        58    234.8070    836.7767 299.9726396 +22.6719614     1358.075     72.35033      1.726     3.77     4.343776     20.41743     114.4587        22     1.336     1.036  40.17   0
        59    704.9086    835.3138 300.1193537 +22.8125877     707.3635     72.53447      1.547     3.60     3.643248     20.41743     73.52037        13     1.094     0.835 -10.95   0
        60    253.7904    833.5489 299.9795884 +22.6767345     524.5906     72.38719      1.653     5.35     4.308781     20.41743     34.00394        10     1.258     0.643 -47.97   0
        61    621.5550    825.8000 300.0964951 +22.7848598     415.2249     72.35033      1.895     4.45     3.748876     20.41743     28.04466         5     1.146     0.491 -85.73   0
        62    860.4980    822.6474 300.1719387 +22.8556050     4186.108     72.40562      1.726     3.45     3.474644     20.41743     317.9688        38     1.383     1.247  22.70   0
        63    269.6430    816.8060 299.9899578 +22.6766940      462.608     72.38719      1.620     3.83     4.184764     20.41743     49.44978         7     0.821     0.647 -67.13   0
        64    577.4320    815.0728 300.0862487 +22.7685485     581.5458     72.36876      1.481     4.26     3.827674     20.41743     68.31918        11     1.074     0.828  30.98   0
        65    223.8952    813.2380 299.9769003 +22.6619400     974.5253     72.35033      1.769     4.15      4.11977     20.41743     91.16102        16     1.208     0.999 -69.27   0
        66    639.4107    808.2959 300.1077438 +22.7851942     508.2956     72.29499      1.544     4.48     3.746806     20.41743     55.11364        12     1.040     0.929 -70.83   0
        67    373.5343    805.1329 300.0260497 +22.7045262     53586.93     72.42403      1.631     3.06     3.924514     20.41743     5279.108       101     1.474     1.435 -30.65   0
        68    631.4908    804.2393 300.1065970 +22.7816553     1527.439     72.35033      1.523     3.05     3.772137     20.41743     158.5685        21     1.125     1.043  49.04   0
        69    301.8820    803.1373 300.0044216 +22.6824519     321.9769     72.46087      1.332     3.95     4.076946     20.41743     35.74437         6     0.766     0.584 -50.35   0
        70    660.4055    800.2083 300.1169090 +22.7891705     944.1081     72.22115      1.623     3.09     3.704372     20.41743     82.45011        15     0.982     0.944  57.22   0
        71     59.8845    799.8057 299.9303193 +22.6088536     833.3553     72.29499      1.778     4.11     4.011959     20.41743     72.11476        15     1.192     0.996   7.04   0
        72     26.7725    800.2458 299.9198951 +22.5990374     826.3637     72.40562      1.990     4.97      4.22085     20.41743     78.63235        15     1.320     1.028 -19.57   0
        73    670.3486    799.3571 300.1202815 +22.7919082     1078.889     72.40562      1.276     2.40     3.681062     20.41743      317.175        13     1.123     0.746 -31.14   0
        74    991.4955    795.7130 300.2215271 +22.8871387     397.1977     72.55286      1.705     6.48     3.592526     20.41743     32.73259        11     1.253     0.942  69.59   0
        75    776.7275    795.1040 300.1547933 +22.8225862     529.2331     72.49767      1.689     4.73     3.627127     20.41743     50.38467         9     1.057     0.695 -26.52   0
        76    814.2949    785.1085 300.1697456 +22.8309808      901.996     72.55286      1.771     4.21     3.617342     20.41743     61.23498        17     1.270     0.908  55.57   0
        77    423.2435    782.3896 300.0489008 +22.7129206     31114.45     72.36876      1.569     2.93     3.972888     20.41743     2885.534        66     1.366     1.317 -67.19   0
        78    437.6456    782.8989 300.0532147 +22.7173876      1987.93     72.38719      1.580     3.09     3.957254     20.41743     206.9785        26     1.255     1.113 -19.62   0
        79    946.2935    778.2461 300.2131126 +22.8685775     2824.863     72.38719      1.696     3.54     3.662565     20.41743     227.1382        31     1.335     1.215  86.44   0
        80    434.1945    776.7443 300.0541416 +22.7145874     674.3321     72.35033      1.665     4.18     3.992251     20.41743     63.78128        13     1.115     0.942  26.91   0
        81    704.3334    774.4728 300.1389521 +22.7949600     1016.851     72.40562      1.633     3.46     3.696032     20.41743     81.25031        15     1.104     0.925  62.55   0
        82    305.7150    774.2774 300.0149932 +22.6753292     745.8347     72.47927      1.546     2.94     4.074619     20.41743     84.54694        13     0.954     0.872 -65.82   0
        83    540.8301    774.2024 300.0881429 +22.7458474     490.4404     72.33189      1.673     4.68     3.924673     20.41743     51.27412         8     1.017     0.698  22.34   0
        84    551.4405    769.1324 300.0930925 +22.7475758     891.5222     72.33189      1.569     3.48     3.928151     20.41743     75.99506        16     1.075     0.957 -83.93   0
        85    110.2940    769.6349 299.9557798 +22.6153433     490.9778     72.33189      1.587     5.27      3.93809     20.41743     54.35188        13     1.058     0.976   2.79   0
        86    952.2905    766.3345 300.2188538 +22.8669553     635.8486     72.49767      1.905     4.01     3.699477     20.41743     49.01468        10     1.159     0.691  62.95   0
        87    452.8188    765.0919 300.0637218 +22.7168334     312.3922     72.29499      1.467     5.92      4.04864     20.41743     45.49103         8     1.054     0.937  27.11   0
        88    410.0169    764.9547 300.0504537 +22.7039530     361.7056     72.38719      1.620     2.27     4.060028     20.41743     42.75333         5     0.627     0.558  89.46   0
        89    705.6837    763.3674 300.1429821 +22.7921784     431.7821     72.33189      1.634     4.53     3.708471     20.41743     34.55743         7     0.924     0.631  69.76   0
        90    497.0912    764.1028 300.0778160 +22.7298308     551.4772     72.55286      1.489     3.16     4.017652     20.41743     52.60317         9     0.810     0.741 -43.53   0
        91    139.1704    763.8244 299.9666374 +22.6223467     469.3117     72.36876      1.717     5.27     3.906579     20.41743      38.8495        10     1.147     0.683   6.64   0
        92    930.1401    761.0129 300.2136786 +22.8587892     367.5358     72.33189      1.481     4.57     3.785984     20.41743     33.64784         7     0.876     0.678 -29.05   0
        93    303.5255    758.6088 300.0194047 +22.6701803     566.9316     72.35033      1.608     3.61     4.086434     20.41743     63.78046         8     1.039     0.488  -1.22   0
        94    626.5936    749.2239 300.1229539 +22.7644043     278.4224     72.35033      1.423     3.69     3.898157     20.41743     45.19604         9     0.959     0.795  46.02   0
        95    596.3671    747.1074 300.1142329 +22.7547324     634.8189     72.31344      1.521     3.72     3.947061     20.41743     60.17978        11     1.002     0.735  10.59   0
        96    618.3405    744.4583 300.1219335 +22.7605621     1326.454     72.44245      1.469     2.86     3.926893     20.41743     137.0247        21     1.227     1.027  74.67   0
        97    505.6431    746.2436 300.0862808 +22.7272740     271.5874     72.44245      1.344     3.66     4.085032     20.41743     32.77891         6     0.709     0.665  34.25   0
        98   1012.7547    743.5941 300.2450965 +22.8785457     4565.612     72.36876      1.758     3.59     3.499969     20.41743     354.3659        38     1.383     1.306 -44.89   0
        99    537.8303    743.9718 300.0970342 +22.7362767      286.581     72.36876      1.490     3.28     4.004022     20.41743     39.10672         5     0.805     0.483  28.03   0
       100    699.9990    739.6998 300.1489038 +22.7836829     362.2844     72.20267      1.627     3.54     3.755895     20.41743     33.00347         7     0.716     0.697  10.58   0
       101   1001.3184    735.3034 300.2442249 +22.8727383      1808.05     72.51608      1.767     3.73     3.576191     20.41743     124.9393        30     1.334     1.300  57.15   0
       102    364.1119    728.8934 300.0478974 +22.6798401     921.9967     72.53447      1.593     3.90     4.151988     20.41743     90.00235        16     1.184     0.968  13.88   0
       103    230.1123    729.6331 300.0060033 +22.6398430     178.6483     72.35033      1.461     4.70     4.116958     20.41743     34.38268         5     0.977     0.642 -75.49   0
       104    827.6273    726.3446 300.1929983 +22.8181119     2579.932     72.36876      1.677     3.19     3.886754     20.41743     208.5337        31     1.425     1.183   4.39   0
       105     50.2680    716.4077 299.9544344 +22.5820709     705.5601     72.35033      1.609     3.28     4.171043     20.41743     71.77029        14     1.054     0.892  -8.02   0
       106    212.9405    712.6977 300.0061699 +22.6298350     590.3994     72.44245      1.520     4.65     4.137786     20.41743     64.30077        11     0.957     0.880  47.28   0
       107    909.8099    711.7764 300.2233430 +22.8385616     652.7269     72.36876      1.708     4.41     4.157914     20.41743     53.09418        11     1.115     0.728  49.99   0
       108    946.0430    703.2548 300.2374063 +22.8469730     147234.4     72.36876      1.625     3.12     4.170357     20.41743     12400.86       173     1.587     1.526  78.97   0
       109    798.6122    703.7534 300.1912997 +22.8029304     748.6981     72.36876      1.406     2.84     3.946021     20.41743     79.87882        13     0.972     0.837 -89.58   0
       110    978.7139    696.2606 300.2498645 +22.8547545     435.7437     72.47927      1.533     6.41     4.141229     20.41743     43.59743        10     1.176     0.981 -75.98   0
       111    632.3023    692.0544 300.1433083 +22.7497138     1757.451     72.46087      1.494     2.64     4.145764     20.41743     186.2765        23     1.215     1.008 -66.78   0
       112    813.5819    689.3707 300.2006367 +22.8032892     9471.331     72.35033      1.533     2.78      4.13176     20.41743     948.2849        51     1.342     1.250 -24.57   0
       113    314.9734    684.5145 300.0470390 +22.6523721     4818.189     72.36876      1.480     2.73     4.260318     20.41743     481.7506        37     1.257     1.176   7.63   0
       114    396.9839    682.5319 300.0731829 +22.6764072     992.0476     72.36876      1.423     2.94      4.45014     20.41743     122.2308        17     1.108     1.001 -77.29   0
       115     28.7498    682.8278 299.9586625 +22.5659887     1722.801     72.38719      1.759     3.56     4.152459     20.41743     152.9285        24     1.221     1.173  -8.96   0
       116    272.6087    679.9369 300.0353572 +22.6383484     585.2377     72.33189      1.738     4.49     4.241848     20.41743     50.59181        12     0.959     0.941  29.50   0
       117    605.0835    677.9730 300.1394104 +22.7375119     805.5853     72.36876      1.465     3.36     4.348014     20.41743     85.77474        13     1.036     0.845  61.67   0
       118    596.9888    670.1871 300.1394203 +22.7328508     3120.423     72.27654      1.373     2.43     4.400566     20.41743     391.8554        26     1.092     1.042  43.49   0
       119    587.2739    663.9650 300.1384179 +22.7281525     1431.845     72.33189      1.411     2.66     4.445099     20.41743     163.6668        20     1.040     1.009  52.99   0
       120      5.2470    664.0004 299.9574816 +22.5535382     186.5525     72.12873      1.374     3.77     4.116126     20.41743     34.32988         5     0.813     0.502  31.36  16
       121    515.5482    663.1298 300.1163681 +22.7064041     251.0994     72.35033      1.390     4.51     4.446831     20.41743     39.84926         7     0.955     0.720 -36.83   0
       122    980.5864    661.9799 300.2615865 +22.8454718     350.7196     72.33189      1.434     5.10     4.410925     20.41743     46.97481         8     1.012     0.779  56.22   0
       123    250.4891    660.1605 300.0349069 +22.6260412     664.3087     72.35033      1.482     3.88     4.235101     20.41743     70.28583        13     1.124     0.869 -31.71   0
       124    264.8269    658.6231 300.0398624 +22.6299024     669.9796     72.35033      1.445     2.63     4.217578     20.41743     71.53797         9     0.850     0.668 -66.51   0
       125    290.5383    655.5017 300.0488682 +22.6367218     500.3493     72.46087      1.578     3.91     4.183676     20.41743     47.40973        12     1.021     0.846 -58.34   0
       126    611.2911    654.3593 300.1490142 +22.7325978     443.8645     72.36876      1.352     4.76      4.48457     20.41743     49.63417         9     1.036     0.724  45.45   0
       127    512.0843    653.7267 300.1183450 +22.7026677     1846.263     72.47927      1.434     2.88     4.498721     20.41743     221.8867        22     1.130     0.994 -31.36   0
       128    321.8952    655.4695 300.0586265 +22.6461202     368.0904     72.49767      1.426     3.06     4.266089     20.41743     35.10694         6     0.775     0.499   0.71   0
       129    545.5043    652.8445 300.1290309 +22.7124367     234.0731     72.38719      1.212     3.58     4.569273     20.41743     42.76884         6     0.962     0.497 -85.94   0
       130    165.9859    648.6273 300.0123952 +22.5973775     19536.64     72.38719      1.608     3.06     4.135283     20.41743     1935.061        65     1.419     1.360  27.99   0
       131     87.1438    650.3176 299.9873561 +22.5742000     654.3524     72.42403      1.430     4.36     4.298145     20.41743     67.44678        10     1.269     0.614 -53.03   0
       132    597.0588    648.9527 300.1463404 +22.7267790     1032.138     72.42403      1.387     3.57     4.538918     20.41743      110.603        15     1.192     0.811 -25.29   0
       133    632.0507    648.1854 300.1574822 +22.7370504     430.2778     72.36876      1.690     4.45     4.440028     20.41743     48.91385         7     1.085     0.520  33.50   0
       134    350.0495    640.2536 300.0723226 +22.6502028     280.6771     72.40562      1.416     3.82     4.341348     20.41743      37.7739         5     0.837     0.501  59.88   0
       135   1015.0984    635.2866 300.2810196 +22.8481454     1046.441     72.53447      1.625     3.42      4.38907     20.41743     89.48767        17     1.078     1.007 -47.34   0
       136    111.9689    632.7585 300.0007697 +22.5766178     1513.784     72.38719      1.970     4.80     4.393067     20.41743     121.0908        30     1.609     1.175 -80.16   0
       137    881.7586    633.1714 300.2401390 +22.8075874     552.5652     72.38719      1.539     4.46     4.487652     20.41743     54.65845         9     0.988     0.668  34.39   0
       138    177.9347    633.5812 300.0209947 +22.5966499     386.1519     72.33189      1.902     4.54     4.197571     20.41743     54.51184         5     1.211     0.648 -17.21   0
       139    560.4712    629.4418 300.1412907 +22.7102102     520.3251     72.33189      1.521     3.19     4.761192     20.41743     70.93534         8     0.962     0.615 -17.62   0
       140    955.4417    627.8544 300.2648334 +22.8281384     741.5195     72.36876      1.542     3.51     4.459857     20.41743     61.80801        12     0.999     0.806  37.89   0
       141    352.9891    628.3702 300.0770965 +22.6476766     360.8978     72.36876      1.464     3.88     4.353126     20.41743     42.63749         6     0.836     0.646  40.70   0
       142    950.7399    627.4847 300.2634877 +22.8266235     338.6655     72.47927      1.518     3.16     4.464357     20.41743     41.88931         5     0.738     0.432  24.83   1
       143    699.1270    626.0264 300.1855650 +22.7507999     223.8404     72.36876      1.446     4.80      4.45226     20.41743     32.65336         7     1.014     0.644 -88.92   0
       144    516.9896    622.1035 300.1301434 +22.6950663     665.4739     72.29499      1.391     2.59     4.722611     20.41743     96.51356        11     0.914     0.756  -6.86   0
       145    664.8617    620.3755 300.1767310 +22.7389063     446.4589     72.36876      1.359     3.53     4.610296     20.41743     49.63248        10     0.938     0.746  40.98   0
       146    712.2204    619.1970 300.1918609 +22.7527646     527.2778     72.31344      1.541     2.48     4.444087     20.41743     74.76788         9     0.846     0.708  88.92   0
       147    682.8154    618.6552 300.1828800 +22.7437946     414.0916     72.35033      1.210     2.93     4.567127     20.41743     72.84841        12     1.000     0.810 -16.09   0
       148    561.5803    617.6790 300.1454566 +22.7071676     847.9251     72.36876      1.449     4.00     4.850174     20.41743     92.31828        16     1.260     0.864 -16.86   0
       149    995.0229    613.3044 300.2819004 +22.8358179      3368.12     72.27654      1.567     3.05      4.42952     20.41743     288.7001        28     1.233     1.137 -17.34   0
       150    526.7593    613.2222 300.1360681 +22.6954478     1657.378     72.40562      1.352     2.73     4.842439     20.41743     193.7261        21     1.060     0.996 -62.47   0
       151    877.4320    608.8030 300.2467062 +22.7992941     341.2085     72.35033      1.487     4.12     4.487372     20.41743     36.27657         5     0.925     0.524  37.67   0
       152     88.7245    606.8383 300.0019686 +22.5622119     5027.098     72.33189      1.674     3.22     4.579766     20.41743     470.8905        39     1.345     1.280  39.72   0
       153    555.6782    603.8729 300.1481040 +22.7014365     334.1986     72.47927      1.327     3.19      4.95107     20.41743     45.02417         6     0.752     0.599 -39.10   0
       154    390.2349    599.8983 300.0979258 +22.6506823     8942.405     72.35033      1.409     2.56     4.455458     20.41743     1026.312        41     1.214     1.157  83.52   0
       155    512.6478    596.9258 300.1369700 +22.6865407     8825.539     72.36876      1.369     2.40     4.820217     20.41743     1191.572        38     1.214     1.077  61.61   0
       156    759.0270    593.5865 300.2147574 +22.7594424     331.3866     72.36876      1.254     3.14     4.306419     20.41743     41.72178         7     0.731     0.664   0.22   0
       157    277.6706    594.0030 300.0648431 +22.6152263     333.3762     72.31344      1.424     4.74     4.011278     20.41743     38.18076         7     0.986     0.647  67.08   0
       158   1008.9851    588.3711 300.2943525 +22.8328391     12407.85     72.38719      1.587     2.97     4.471391     20.41743     1168.484        53     1.395     1.285 -81.57   0
       159    924.2665    591.0188 300.2670799 +22.8082199      1854.84     72.35033      1.493     2.87     4.483963     20.41743     175.6693        24     1.202     1.054 -48.00   0
       160    573.2336    586.5442 300.1591956 +22.7017276     11475.04     72.38719      1.350     2.43     4.918531     20.41743     1367.341        44     1.201     1.150  76.56   0
       161    742.4710    582.7034 300.2131351 +22.7513562     560.4028     72.47927      1.369     2.76     4.332346     20.41743      68.6656         8     0.869     0.610   4.77   0
       162    300.7284    582.0580 300.0758897 +22.6187177     1419.791     72.40562      1.426     2.72     4.011761     20.41743     175.0991        17     1.016     0.955  46.29   0
       163    458.6001    581.3879 300.1252011 +22.6658755       369.67     72.18419      1.474     2.92     4.669075     20.41743     52.80592         6     0.928     0.390 -69.36   0
       164      2.2437    579.1121 299.9841188 +22.5283093     1970.998     61.33389      1.395     3.02     4.167388     20.41743      214.802        19     1.167     0.894 -86.62  24
       165    547.7037    579.4244 300.1535624 +22.6920301     304.4656     72.27654      1.402     2.65     4.981279     20.41743     51.23235         6     0.822     0.493  47.03   0
       166    847.8158    574.8374 300.2485086 +22.7806670     731.3433     72.36876      1.364     3.23     4.371629     20.41743     95.82201        12     1.031     0.756  82.38   0
       167    504.9447    574.7587 300.1417722 +22.6778706      4280.79     72.33189      1.363     2.46       4.8606     20.41743     583.4229        25     1.089     1.011  71.38   0
       168    483.1873    573.3419 300.1354629 +22.6709401      1250.37     72.33189      1.283     2.54     4.802404     20.41743     145.0637        14     0.975     0.795  -4.87   0
       169    237.7024    572.4647 300.0594152 +22.5970593     676.3036     72.47927      1.387     2.62     4.252863     20.41743     76.09357        12     0.908     0.798 -81.64   0
       170    924.8145    570.4641 300.2739264 +22.8024810     1537.722     72.33189      1.520     3.14     4.481463     20.41743     146.9841        20     1.183     0.945 -22.19   0
       171    621.5233    562.2678 300.1821104 +22.7092375     198545.7     72.46087      1.364     2.39     4.877164     20.41743      22446.1       194     1.462     1.418 -14.38   0
       172    445.1442    568.5635 300.1251799 +22.6581611     372.1757     72.36876      1.325     5.15     4.637419     20.41743     37.34976         9     1.051     0.713  27.00   0
       173    805.2432    567.0947 300.2377582 +22.7656869     828.5499     72.38719      1.361     3.04     4.299309     20.41743      100.444        17     1.166     0.859  61.27   0
       174    899.2060    565.0725 300.2676953 +22.7932605     344.2503     72.31344      1.731     5.81     4.437376     20.41743      29.7115         7     1.589     0.598 -49.26   0
       175    307.5974    562.3049 300.0844395 +22.6151129      3452.26     72.27654      1.472     2.61     4.025538     20.41743     379.5315        29     1.152     1.126  66.45   0
       176    873.9570    558.8227 300.2618557 +22.7839009     720.6057     72.42403      1.991     5.87     4.383214     20.41743     63.00857        12     1.234     0.790  53.65   0
       177    512.1940    542.8528 300.1543884 +22.6708892      2790.47     72.33189      1.456     2.63     4.975654     20.41743     308.9378        28     1.423     0.938 -86.15   0
       178    356.2378    545.1136 300.1051443 +22.6247710     447.0082     72.35033      1.242     3.75     4.152671     20.41743     56.03407         9     0.958     0.679  56.23   0
       179    962.0140    542.9227 300.2944669 +22.8057146     272.1478     72.38719      1.412     4.67      4.52046     20.41743     33.26362         6     1.061     0.584  73.89   0
       180    923.7518    539.1923 300.2837504 +22.7931814     312.2059     72.38719      1.132     3.19     4.470671     20.41743     52.00261         6     0.757     0.550 -33.86   0
       181    829.1609    531.3372 300.2568218 +22.7625863     327.9407     72.36876      1.232     3.64     4.360453     20.41743     52.94173         8     1.007     0.592  16.95   0
       182    909.2426    528.7310 300.2826247 +22.7858302     1762.733     72.33189      1.521     2.85     4.429782     20.41743     193.6592        20     1.120     1.042 -41.00   0
       183     38.9378    527.3893 300.0123053 +22.5244963     828.7057     72.29499      1.773     3.95     4.520637     20.41743     67.54765        17     1.190     0.978  37.12   0
       184    780.2582    526.4416 300.2431755 +22.7465275     2544.173     72.36876      1.354     2.49     4.420958     20.41743     314.0052        20     1.045     0.982  37.27   0
       185   1023.0884    519.7566 300.3210327 +22.8173532     675.6393     59.56852      1.622     3.20     4.528924     20.41743     80.55061        11     1.009     0.738  68.83  26
       186    685.1845    523.1474 300.2146339 +22.7170901     444.7998     72.35033      1.522     4.78     4.726105     20.41743     45.44712        10     1.045     0.897 -58.74   0
       187    567.4332    522.5295 300.1781772 +22.6816176     846.2574     72.36876      1.440     2.59     4.979339     20.41743      94.7279        12     0.943     0.770  25.66   0
       188    909.3868    518.8588 300.2858751 +22.7830380     2441.041     72.35033      1.710     3.34     4.424089     20.41743     227.8893        29     1.559     1.081  65.00   0
       189    662.7877    515.5316 300.2101328 +22.7081913     848.8511     72.38719      2.378     7.10     4.816615     20.41743     62.29803        17     1.981     0.714  84.92   0
       190    448.1366    516.9396 300.1428729 +22.6442470     158.6832     72.40562      1.095     3.55     4.825417     20.41743     40.04105         5     0.974     0.373 -32.30   0
       191    947.5012    513.9498 300.2993501 +22.7930453     4249.338     72.44245      1.476     2.67     4.472349     20.41743     451.9896        33     1.225     1.121 -72.99   0
       192    501.1143    515.6251 300.1597814 +22.6597541     401.8319     72.33189      1.118     2.56     4.978576     20.41743      57.9159         8     0.785     0.672  71.02   0
       193    608.2411    509.7964 300.1950131 +22.6901957     293.7041     72.38719      1.151     3.73     4.964185     20.41743     49.96138         5     0.885     0.451 -43.97   0
       194    179.3831    504.2136 300.0634525 +22.5599915     868.3993     72.31344      1.556     3.56     4.601259     20.41743     95.26967        13     1.142     0.741   0.29   0
       195    840.4198    497.9926 300.2711563 +22.7563840     341.5694     72.33189      1.445     4.91     4.398023     20.41743     39.79396         9     1.094     0.741 -73.17   0
       196    226.8044    496.5868 300.0806638 +22.5720297     161.7277     72.22115      1.165     3.63     4.398807     20.41743     32.03971         5     0.981     0.386 -84.27   0
       197    518.9740    494.9969 300.1720354 +22.6591887     704.8988     72.33189      0.441   -10.86     4.985368     20.41743     566.4317         5     0.412     0.403  -0.62   0
       198    172.3587    494.6505 300.0643744 +22.5551418     426.9149     72.36876      1.283     2.59     4.683411     20.41743     55.66968         7     0.843     0.552 -33.19   0
       199    779.4830    488.3990 300.2552853 +22.7353716     569.6617     72.25807      1.664     4.59     4.597379     20.41743     60.88711         9     1.081     0.752 -80.86   0
       200    668.5621    486.1772 300.2214607 +22.7014949     390.2866     72.38719      1.264     4.67     4.828976     20.41743     52.23852         9     1.185     0.554  59.78   0
       201    388.6252    486.8240 300.1341399 +22.6177615     216.8941     72.33189      1.408     2.92     4.711619     20.41743     38.00906         5     0.755     0.420  67.48   0
       202    721.0957    484.4421 300.2383833 +22.7167400     836.6463     72.38719      1.324     2.36      4.76049     20.41743     106.0984        11     0.919     0.697  71.21   0
       203    781.7828    476.6728 300.2598085 +22.7326934     914.6021     72.36876      1.410     2.70     4.632532     20.41743     94.63736        14     0.957     0.850  13.82   0
       204    938.9157    472.9689 300.3099784 +22.7787018     981.2127     72.38719      1.392     3.02     4.490153     20.41743     115.2045        14     1.058     0.895  73.07   0
       205    897.3692    470.5062 300.2978274 +22.7655499     253.7407     72.29499      1.401     5.15     4.470187     20.41743     38.00352         6     1.210     0.619 -36.97   0
       206    923.3303    469.2339 300.3063325 +22.7729607     525.4813     72.36876      1.302     2.83      4.52146     20.41743     74.03329        13     0.947     0.852 -58.24   0
       207    904.3700    469.7013 300.3002708 +22.7674157     315.2103     72.31344      1.418     3.79     4.488172     20.41743     38.59431         5     0.952     0.433 -75.41   0
       208    667.5992    467.1864 300.2273257 +22.6957543      3241.07     72.20267      1.382     2.49       4.8372     20.41743     358.7077        24     1.064     1.018 -53.53   0
       209    143.8548    458.6111 300.0672169 +22.5362557     374.2225     72.36876      1.431     3.73     4.876049     20.41743     46.97572         8     0.955     0.711  73.02   0
       210    507.3012    454.1549 300.1816610 +22.6439679     349.1394     72.38719      1.374     4.66      5.01107     20.41743     54.26941         8     1.070     0.577  67.86   0
       211    439.0253    454.6336 300.1602645 +22.6236367     271.9059     72.36876      1.424     3.23      5.03922     20.41743     29.60931         5     0.866     0.481   1.40   0
       212    951.0334    446.1075 300.3224756 +22.7746145     632.2758     72.31344      1.457     2.72     4.639073     20.41743     71.74757        10     0.869     0.729  -4.58   0
       213    687.2106    443.4027 300.2411524 +22.6948026     312.6636     72.18419      1.204     4.61      4.81461     20.41743     45.34038         7     0.882     0.685  76.67   0
       214    778.2790    441.3372 300.2701870 +22.7214961     972.2248     72.46087      1.273     2.67     4.744895     20.41743      139.506        13     0.981     0.773  42.04   0
       215    573.6567    441.6617 300.2063657 +22.6602718     369.0961     72.44245      1.123     2.97     5.015922     20.41743     53.41923         7     0.849     0.601 -20.72   0
       216    281.9164    439.1862 300.1164245 +22.5720948     638.7488     72.33189      1.411     4.46     4.757926     20.41743       71.377        10     1.070     0.680  51.41   0
       217    344.5130    435.0587 300.1372247 +22.5896819     3795.588     72.46087      1.448     2.47      4.93477     20.41743     462.4365        31     1.203     1.137  85.13   0
       218    291.7066    429.8820 300.1224874 +22.5723615     7462.068     72.51608      1.458     2.61     4.845884     20.41743     918.8241        39     1.223     1.148  73.60   0
       219    432.5503    424.1061 300.1681583 +22.6129350     4720.231     72.42403      1.334     2.32     5.110012     20.41743     609.1738        33     1.159     1.043  67.24   0
       220    676.6697    420.7804 300.2452124 +22.6851485     18480.42     72.38719      1.347     2.41     4.822727     20.41743     2628.013        59     1.339     1.188  37.25   0
       221    694.1989    421.0664 300.2505781 +22.6904831      886.303     72.35033      1.793     4.59      4.81268     20.41743     75.89829        17     1.494     0.769 -38.86   0
       222     52.1915    418.4018 300.0517958 +22.4972260     198.6208     72.18419      1.149     3.49     5.116396     20.41743     32.73467         5     0.753     0.467  14.54   0
       223    873.3511    410.9986 300.3096569 +22.7412619     370.0433     72.35033      1.414     3.92     4.940109     20.41743     50.72622         7     1.119     0.583  44.57   0
       224   1010.4870    403.3650 300.3548858 +22.7801378     726.0081     72.35033      1.514     3.63     4.619449     20.41743      72.4148        16     1.165     0.887 -51.07   0
       225    547.2044    402.5510 300.2108261 +22.6411164     261.7121     72.35033      1.126     2.23     5.043247     20.41743     58.89937         5     0.723     0.461  19.57   0
       226    231.3957    400.9343 300.1131354 +22.5459703     2103.382     72.36876      1.472     2.68     4.964463     20.41743     234.5686        21     1.084     0.999  41.67   0
       227    617.3392    390.2079 300.2366615 +22.6585915     6596.208     72.35033      1.329     2.39     5.016481     20.41743     776.9127        35     1.232     1.020  70.99   0
       228    331.9535    389.5674 300.1480822 +22.5728632     660.7292     72.40562      1.419     2.80     5.154192     20.41743     81.56077        10     0.908     0.729  85.57   0
       229    189.7346    383.0822 300.1059816 +22.5283547     626.8177     72.47927      1.836     3.74     4.974125     20.41743     57.30935        12     0.966     0.935  22.47   0
       230    877.1650    382.1351 300.3202124 +22.7341125     322.0815     72.36876      1.383     2.92     4.952324     20.41743     41.23939         6     0.768     0.537  48.81   0
       231     37.1759    380.4780 300.0594385 +22.4818465     1311.172     72.36876      1.577     2.89     5.310106     20.41743     143.3927        17     1.063     0.966  14.32   0
       232    821.5724    379.2365 300.3038291 +22.7166289     762.9079     72.36876      1.026     2.91      4.90777     20.41743     122.1131        18     1.122     0.951 -83.98   0
       233    731.0525    380.5187 300.2752141 +22.6898808     405.0545     72.40562      1.104     1.98     4.853164     20.41743     64.16584         6     0.715     0.499  -3.62   0
       234    524.0106    376.5000 300.2120617 +22.6266866     6119.444     72.27654      1.353     2.36     5.066296     20.41743      827.596        36     1.186     1.061 -89.67   0
       235      6.1174    378.0381 300.0505865 +22.4718289     1276.911     72.33189      1.994     5.57     5.429278     20.41743      88.8968        20     1.600     0.873 -42.61  16
       236    915.9855    370.9564 300.3359396 +22.7425270     1424.191     72.38719      1.425     2.67     5.011072     20.41743     179.8594        18     1.096     0.954  45.77   0
       237   1013.3530    370.8317 300.3663370 +22.7716470      586.933     72.40562      1.671     3.51     4.994008     20.41743     65.09503        12     1.088     0.881 -59.48   0
       238    508.4059    365.2578 300.2108536 +22.6187824     437.5109     72.33189      1.266     3.08     5.094548     20.41743     51.77197        10     0.860     0.796 -57.51   0
       239     14.8823    365.5699 300.0573530 +22.4708833     391.2591     72.38719      1.514     5.16     5.437485     20.41743     34.00417         9     1.047     0.718 -29.95   0
       240    591.1982    363.0670 300.2373308 +22.6429654      412.973     72.36876      1.262     3.73     5.039637     20.41743     48.58709         8     0.864     0.686  63.65   0
       241     35.5252    361.7796 300.0649924 +22.4759892     984.7361     72.36876      1.601     3.33     5.376824     20.41743     124.0196        18     1.237     0.954  41.61   0
       242    888.8263    358.4086 300.3315457 +22.7307884     563.9613     72.36876      1.374     3.23     4.983082     20.41743     72.52668        12     1.108     0.761 -37.30   0
       243    411.5410    355.6683 300.1838309 +22.5869955     2466.585     72.38719      1.310     2.38     5.313555     20.41743     331.5723        20     1.080     0.918  73.52   0
       244    130.0341    352.8798 300.0972325 +22.5017858     1005.205     72.31344      1.514     3.41       5.0918     20.41743     110.6448        16     1.190     0.820  47.39   0
       245    380.9061    345.1465 300.1777167 +22.5747921     29367.41     72.42403      1.385     2.42     5.332693     20.41743     3692.786        72     1.310     1.220  71.59   0
       246    358.2231    348.7672 300.1694884 +22.5690312     270.1763     72.36876      1.436     3.85      5.32709     20.41743     28.11245         5     0.907     0.469 -45.25   0
       247    915.6665    342.7379 300.3449962 +22.7343236     1267.703     72.40562      1.440     2.81     5.042015     20.41743     149.9619        19     1.074     0.987 -24.57   0
       248    870.8602    340.4742 300.3317653 +22.7202552     202.3793     72.40562      1.099     4.07     4.933053     20.41743     44.29129         7     1.021     0.463  11.79   0
       249     77.2408    332.9359 300.0873042 +22.4802305     5063.082     72.33189      1.610     2.89     5.273419     20.41743     533.0001        38     1.338     1.233  39.31   0
       250    830.9016    331.5692 300.3222023 +22.7057297     521.8815     72.35033      1.306     2.99     4.915586     20.41743     89.71689        10     0.970     0.762 -21.24   0
       251    953.9653    331.6272 300.3605402 +22.7425991     275.1042     72.38719      1.463     3.84     5.122629     20.41743     33.71619         5     0.891     0.474  -7.34   0
       252    479.7303    330.5178 300.2132024 +22.6002152     476.9989     72.47927      1.216     2.88     5.169339     20.41743     68.07228         6     0.766     0.573  32.61   0
       253    255.1130    331.0794 300.1431708 +22.5330413     374.0208     72.53447      1.377     5.09     5.081324     20.41743     52.81889         9     0.991     0.738  70.85   0
       254    791.3713    324.9406 300.3120363 +22.6919858     2003.737     72.36876      1.431     2.58      4.90982     20.41743     258.2598        22     1.115     0.961 -85.33   0
       255    599.5375    319.5841 300.2540339 +22.6329788     407.3904     72.33189      1.313     2.88      5.00929     20.41743     60.13526         6     0.900     0.410  69.25   0
       256   1006.4115    318.0330 300.3813033 +22.7543947     440.5467     72.35033      1.235     4.06      5.21437     20.41743      57.8064        10     1.090     0.657 -25.88   0
       257    860.3854    311.2062 300.3379962 +22.7087092      167.073     72.25807      1.249     2.53     4.872351     20.41743     35.15567         5     0.712     0.453  71.14   0
       258    453.1325    309.4522 300.2117613 +22.5861963     2186.261     72.38719      1.548     3.35     5.269198     20.41743      225.574        26     1.371     0.964  66.87   0
       259    665.6281    308.0980 300.2783360 +22.6494815     296.9599     72.31344      1.250     3.86     4.925051     20.41743     35.88878         5     0.890     0.480 -85.69   0
       260    892.4156    302.4331 300.3508247 +22.7157800      704.803     72.35033      1.376     2.75     4.960228     20.41743     96.90246        11     0.913     0.804  -0.49   0
       261    884.8279    303.3207 300.3481718 +22.7137629     442.0395     72.38719      1.514     3.44     4.933508     20.41743     40.96489         5     0.787     0.434 -15.13   0
       262     25.4641    300.3478 300.0817959 +22.4553534     832.6501     72.40562      2.106     6.72     5.521995     20.41743     63.16013        16     1.976     0.834 -39.34   0
       263    791.8138    300.1243 300.3202246 +22.6849892     208.6536     72.38719      1.174     2.01     4.891571     20.41743     50.92607         6     0.710     0.534 -38.08   0
       264    774.3493    299.9460 300.3148416 +22.6797072     509.8253     72.40562      1.355     2.78     4.864185     20.41743     62.36213         8     0.869     0.608  74.98   0
       265    742.6529    299.2288 300.3052008 +22.6700074     184.7755     72.38719      1.046     3.52     4.815414     20.41743     46.31974         7     0.858     0.602  65.96   0
       266    528.9034    288.8679 300.2420136 +22.6029939     1116.223     72.47927      1.325     2.53     5.193462     20.41743      155.202        15     0.954     0.873  54.74   0
       267    102.0822    289.4127 300.1091371 +22.4751971     289.7988     72.35033      1.401     4.32      5.19085     20.41743     35.50703         6     0.967     0.549 -73.47   0
       268    335.6195    289.2020 300.1817821 +22.5451602     296.3764     72.29499      1.264     3.99     5.365989     20.41743     31.87116         6     1.228     0.372 -27.38   0
       269    912.5009    282.6245 300.3635107 +22.7161019     238.5804     72.31344      1.057     2.79     5.025606     20.41743     52.49343         6     0.814     0.525 -47.33   0
       270    773.8190    280.8705 300.3208640 +22.6740684     2170.334     72.40562      1.368     2.39     4.858681     20.41743     295.9518        24     1.095     1.022  89.64   0
       271      6.9740    266.1131 300.0871577 +22.4399884     72992.91     72.31344      1.666     3.13      5.60412     20.41743     6123.935       116     1.608     1.473  60.91  24
       272    482.1039    264.7510 300.2352735 +22.5820454     629.2811     72.42403      1.382     3.23     5.283145     20.41743     77.80499        11     1.014     0.782 -48.14   0
       273    157.1743    258.9745 300.1361231 +22.4829859     1362.389     72.33189      1.709     3.53     5.268818     20.41743      132.686        24     1.291     1.194  20.84   0
       274    188.0614    258.6478 300.1458259 +22.4921536      506.369     72.42403      1.278     4.08     5.291167     20.41743     66.46794        11     1.058     0.768 -78.15   0
       275    894.7761    252.7514 300.3676752 +22.7022101     484.1075     72.36876      1.537     4.51     4.890063     20.41743     47.75998         9     0.990     0.736  53.73   0
       276    240.9915    250.8724 300.1647964 +22.5057919     405.3203     72.35033      1.273     2.69      5.40294     20.41743     63.83146        10     0.880     0.712 -89.28   0
       277     96.3826    247.8539 300.1208445 +22.4615659     284.6176     72.35033      1.374     4.99     5.347732     20.41743     38.71103         7     1.012     0.764 -15.54   0
       278    845.4854    242.3463 300.3556880 +22.6844613     764.5481     72.42403      1.323     2.79     4.854339     20.41743     78.31576        11     0.906     0.756  66.01   0
       279    436.0276    241.6416 300.2284337 +22.5616028      328.153     72.38719      1.429     4.81      5.43102     20.41743     37.10667         7     0.902     0.728 -86.04   0
       280    936.1116    235.4213 300.3861806 +22.7096049     429.8671     72.29499      1.740     4.61      4.91243     20.41743     33.96136         7     0.955     0.631  54.76   0
       281    943.6888    231.1395 300.3899314 +22.7106426     2146.874     72.44245      1.468     2.73     4.940263     20.41743     219.5452        26     1.258     1.016 -83.00   0
       282    362.0966    228.5143 300.2096966 +22.5356772     2064.484     72.55286      1.365     2.56     5.524509     20.41743     254.1237        21     1.121     0.927  62.37   0
       283    842.0956    223.1490 300.3608573 +22.6779297     471.6617     72.44245      1.368     3.55     4.859287     20.41743     67.46941        10     0.933     0.791  32.41   0
       284    440.1928    223.6448 300.2355653 +22.5576840     999.0678     72.38719      1.438     3.30     5.459194     20.41743     107.3042        14     0.971     0.940  -3.72   0
       285    191.6206    223.6950 300.1582662 +22.4831912     223.1369     72.27654      1.155     2.37     5.509361     20.41743     47.43458         5     0.712     0.439  68.25   0
       286    948.7954    219.9516 300.3951515 +22.7089556     375.7077     72.35033      1.374     2.40     4.934403     20.41743     44.69384         5     0.754     0.483 -30.64   0
       287    256.9403    215.8460 300.1811115 +22.5005211     729.3077     72.40562      1.373     2.91     5.591418     20.41743     89.60499        13     0.974     0.881  53.26   0
       288     37.5902    216.9287 300.1126130 +22.4350629     455.2149     72.35033      2.874     5.25     5.523484     20.41743     36.26268         5     1.049     0.741  14.00   0
       289    374.5416    214.7765 300.2180213 +22.5354633     335.6582     72.36876      1.538     4.99     5.503917     20.41743     35.93182         8     1.048     0.671  48.11   0
       290    109.5594    213.4948 300.1360785 +22.4556597     150.4984     72.38719      1.433     5.31     5.463676     20.41743     33.70193         5     1.069     0.870  50.07   0
       291    859.6313    212.1749 300.3698806 +22.6800265     550.6154     72.36876      1.276     3.31     4.838398     20.41743     70.17762        10     0.955     0.756 -62.29   0
       292    794.7122    212.6415 300.3495005 +22.6607221      1642.73     72.36876      1.320     2.44     4.917089     20.41743     215.4514        19     1.066     0.899  32.07   0
       293    278.0590    208.9023 300.1899275 +22.5048587     420.9289     72.44245      1.317     3.91     5.575326     20.41743     70.44521        11     1.041     0.766  59.24   0
       294    798.8298    204.1194 300.3535468 +22.6595063     935.1667     72.36876      1.595     2.86     4.927045     20.41743     104.3281        13     1.077     0.754 -52.84   0
       295    719.2807    203.2815 300.3290384 +22.6354436     1170.849     72.53447      1.292     2.39     4.936208     20.41743     166.2439        17     1.021     0.896 -80.24   0
       296    645.5530    195.1516 300.3087154 +22.6110262     1055.526     72.40562      1.416     2.59     5.111765     20.41743     112.0391        18     1.058     0.927 -68.13   0
       297    926.8483    193.7292 300.3968125 +22.6948483     872.2779     72.35033      1.518     3.64     4.799806     20.41743     93.69308        17     1.183     1.058  75.92   0
       298    914.7616    194.8257 300.3926893 +22.6915453      1317.26     72.38719      1.401     2.55     4.806764     20.41743     177.8993        18     1.030     0.940  21.89   0
       299    973.1005    193.0684 300.4114466 +22.7085035     186.9007     72.46087      1.237     4.05     4.922777     20.41743     39.58505         6     1.145     0.453 -36.23   0
       300     16.5254    183.4364 300.1169305 +22.4191379     292.1831     72.31344      1.286     5.51      5.52391     20.41743     32.68076         7     1.075     0.795  33.03   0
       301     67.2284    181.0048 300.1334640 +22.4336448     410.6585     72.33189      1.495     4.81     5.544673     20.41743     45.67818         7     1.046     0.627  83.96   0
       302    277.4121    177.1541 300.2000196 +22.4955521     662.6615     72.36876      1.293     3.31     5.546569     20.41743     92.01193        12     1.005     0.816  32.52   0
       303    139.4554    172.1648 300.1587650 +22.4527645     2171.161     72.38719      1.482     2.60     5.584548     20.41743     233.1727        24     1.162     1.020  34.46   0
       304    962.5841    169.0560 300.4159533 +22.6984528      870.046     72.35033      1.482     3.83     4.791447     20.41743     73.13295        15     1.164     0.905  54.42   0
       305     88.8228    168.7379 300.1441476 +22.4366003      607.044     72.35033      1.934     5.40     5.585413     20.41743     53.48121        11     1.330     0.773  57.58   0
       306    296.8938    165.3688 300.2098965 +22.4980083     5598.595     72.29499      1.485     2.60     5.493555     20.41743     615.9622        40     1.292     1.202  73.24   0
       307    278.7957    166.2664 300.2039793 +22.4928416     350.0656     72.36876      1.499     3.67     5.530617     20.41743     53.80892         8     0.928     0.801  53.80   0
       308     81.0391    159.8062 300.1446253 +22.4317037     1344.181     72.40562      1.557     3.11     5.595718     20.41743     131.5893        18     1.103     0.952 -32.60   0
       309    280.2147    156.2415 300.2076702 +22.4903892     512.0169     72.38719      1.411     3.71     5.525901     20.41743     68.93544         9     1.059     0.690  71.85   0
       310    940.9570    146.9657 300.4163723 +22.6856290     3491.417     72.42403      1.453     2.77     4.761556     20.41743     398.1086        30     1.227     1.108  55.82   0
       311    490.3392    142.0370 300.2776244 +22.5492750     665.3546     72.38719      1.358     2.49     5.272935     20.41743     91.28721        11     0.924     0.729  77.09   0
       312    243.2708    142.8251 300.2005356 +22.4754650     266.8686     72.36876      1.246     3.14     5.642872     20.41743     45.58985         6     0.738     0.575 -50.97   0
       313    604.9407    139.8917 300.3139867 +22.5829877     468.6464     72.44245      1.499     2.57      5.31814     20.41743      49.1824         6     0.784     0.608  -2.67   0
       314    414.3628    134.0583 300.2565747 +22.5242207     670.5812     72.36876      1.596     2.02     5.182878     20.41743     70.83093         7     0.685     0.630  73.09   0
       315    418.7188    132.2590 300.2585129 +22.5250092     495.9019     72.42403      1.623     4.13     5.151658     20.41743     51.23721         6     0.753     0.646  18.22   0
       316    180.4221    131.0392 300.1848243 +22.4532435     517.6319     72.40562      1.368     3.72     5.617077     20.41743     67.56072        12     1.046     0.903   7.03   0
       317    541.7911    129.4620 300.2977115 +22.5610764     1725.558     72.31344      1.376     2.37     5.220134     20.41743      237.407        18     1.019     0.941  66.07   0
       318    469.8205    129.9027 300.2751737 +22.5396430      572.226     72.29499      1.362     2.88     5.146097     20.41743     73.70358        10     0.916     0.685  62.36   0
       319    603.4297    128.6075 300.3171741 +22.5792935      362.879     72.36876      1.423     4.83     5.218571     20.41743     40.67031         9     1.035     0.736 -63.45   0
       320    285.0488    125.0078 300.2192971 +22.4828718     361.8398     72.36876      1.200     2.65     5.534414     20.41743      60.3182         7     0.850     0.520  41.63   0
       321    757.7634    123.1130 300.3670153 +22.6239316     187.7928     72.35033      1.305     4.49     4.976068     20.41743     39.53558         5     0.937     0.742 -10.25   0
       322    830.3022    118.7829 300.3910190 +22.6444045     468.9105     72.29499      1.783     5.35     5.038033     20.41743       56.484         9     1.430     0.625 -63.61   0
       323    186.7788    114.1719 300.1922664 +22.4503077     252.2662     72.35033      1.404     4.33     5.618166     20.41743     26.96065         5     0.847     0.631 -50.27   0
       324    975.6984    113.3712 300.4380939 +22.6863685     377.6874     72.29499      1.523     3.55     4.754536     20.41743     38.07106         6     0.858     0.504  45.99   0
       325    315.8053    109.2937 300.2339522 +22.4875776     5960.679     72.25807      1.469     2.52      5.51463     20.41743     671.1149        41     1.330     1.162  72.75   0
       326    822.7015    109.7825 300.3915680 +22.6395421     252.9547     72.29499      1.442     3.92       5.0906     20.41743     36.56016         5     0.737     0.691  51.17   0
       327    166.8748    108.9569 300.1877719 +22.4428447     686.4189     72.35033      1.409     2.80     5.572594     20.41743     75.56487        10     0.859     0.747 -26.91   0
       328    945.1723    106.9781 300.4306486 +22.6753946     480.7444     72.36876      1.517     4.32     4.760754     20.41743     38.63771         6     0.824     0.646 -85.66   0
       329     10.4480    105.7927 300.1402103 +22.3950399     753.0337     72.38719      1.665     4.83     5.676756     20.41743     83.88551        13     1.362     0.820  15.30   0
       330    287.6643    102.9696 300.2272529 +22.4773288     487.0188     72.38719      1.585     3.86     5.544189     20.41743     42.45561         6     0.967     0.448 -80.06   0
       331    331.2764    100.7479 300.2415321 +22.4897600     344.8839     72.36876      1.175     3.32     5.508873     20.41743       49.929         8     0.926     0.591  77.49   0
       332     77.4922     99.9189 300.1629342 +22.4134558     410.4019     72.51608      1.300     3.01       5.6352     20.41743     57.76004         8     0.827     0.654  -1.29   0
       333    561.8990     94.6940 300.3152387 +22.5571121     6115.127     72.55286      1.398     2.50      4.93638     20.41743      819.488        35     1.220     1.059  58.55   0
       334    447.2763     94.5975 300.2796029 +22.5227495      590.035     72.27654      1.228     2.77     4.840553     20.41743     78.65112        11     1.016     0.666 -51.25   0
       335    618.8383     89.7318 300.3345712 +22.5727395     417.4701     72.33189      1.444     3.18     4.927405     20.41743     46.40662         8     0.854     0.683  -8.71   0
       336    756.3124     86.0552 300.3785744 +22.6128472     375.3925     72.40562      1.694     4.24     5.043298     20.41743     40.46411         6     0.897     0.571  -2.06   0
       337    814.5267     84.2636 300.3972916 +22.6297600     867.2926     72.40562      1.544     2.67      5.20049     20.41743     94.92733        15     0.997     0.854 -77.14   0
       338    907.2684     83.2083 300.4265366 +22.6572164     445.0569     72.35033      1.382     4.29     4.868706     20.41743     48.52969         9     0.917     0.849  21.65   0
       339    974.9971     80.9835 300.4483726 +22.6768462     204.8648     72.27654      1.161     3.71     4.766836     20.41743     29.47177         5     0.654     0.604  -0.04   0
       340    613.0498     77.1634 300.3368424 +22.5673949      487.386     72.38719      1.428     3.90     4.927405     20.41743     58.68224         8     1.029     0.671  75.93   0
       341    254.8168     78.2575 300.2250507 +22.4603903     410.9042     72.35033      1.284     3.15     5.620549     20.41743     51.62303         8     0.854     0.658   2.46   0
       342    690.2219     74.6531 300.3616848 +22.5897825     6374.052     72.36876      1.449     2.52     4.950382     20.41743     821.6163        36     1.312     1.060  73.29   0
       343    465.1679     73.5832 300.2919793 +22.5220737     1437.482     72.35033      1.406     2.63      4.87411     20.41743     186.7134        21     1.201     0.977 -65.90   0
       344    971.5239     73.3658 300.4497585 +22.6736164     209.8501     72.36876      1.560     5.26     4.773262     20.41743     31.41902         5     1.011     0.774 -87.63   0
       345    731.3962     72.0911 300.3753387 +22.6013742      980.001     72.27654      1.489     3.04      5.01903     20.41743     102.1976        14     1.024     0.846  82.74   0
       346     63.2120     71.8672 300.1675893 +22.4011247     1560.598     72.36876      0.775     1.68     5.549818     20.41743     584.7664         7     0.682     0.441  -9.67   0
       347    801.4135     69.9428 300.3978470 +22.6217181     386.6381     72.33189      1.405     3.67      5.27082     20.41743       41.671         6     0.792     0.490  85.56   0
       348    747.3842     68.3502 300.3815311 +22.6050858     596.6499     72.40562      1.410     2.80     5.083405     20.41743     73.52514        12     0.966     0.771 -48.21   0
       349    214.1256     66.5159 300.2162085 +22.4448247     713.0917     72.46087      1.630     3.42     5.572897     20.41743     84.34365        12     0.998     0.904  19.15   0
       350     61.0548     66.8939 300.1685309 +22.3990508     319.7651     72.42403      1.307     4.14     5.539631     20.41743     43.27088         7     0.910     0.538 -45.30   0
       351   1016.8307     65.7323 300.4663604 +22.6849786     577.1196     72.35033      1.604     2.91     4.773836     20.41743     67.64023        12     0.956     0.824  55.33   0
       352    785.8914     63.3772 300.3951386 +22.6151843     505.4728     72.29499      1.437     3.77     5.234713     20.41743     62.12704        11     1.090     0.705  77.68   0
       353    734.4783     59.5327 300.3803685 +22.5986877      2703.18     72.47927      1.426     2.56      5.07944     20.41743     312.0389        27     1.218     1.014 -88.47   0
       354    375.2830     60.8581 300.2681436 +22.4914913      298.924     72.46087      1.144     3.40     5.356138     20.41743     51.33767         7     0.886     0.713   3.02   0
       355    749.7149     58.7012 300.3853840 +22.6030103     854.5369     72.53447      1.895     4.82     5.132494     20.41743     99.16075        17     1.546     0.758  45.71   0
       356     27.8085     53.8115 300.1624453 +22.3853295     898.7457     72.25807      1.753     3.79     5.716794     20.41743     72.06684        17     1.108     1.050 -47.78   0
       357    820.8867     51.1623 300.4100005 +22.6221488     1464.987     72.35033      1.391     2.68     5.286013     20.41743     181.2466        21     1.127     0.952  61.61   0
       358    758.8410     44.2898 300.3928968 +22.6016002     716.1542     72.36876      1.333     2.69     5.218614     20.41743     95.15459        11     0.930     0.757  61.33   0
       359    564.5562     43.6467 300.3326081 +22.5432426     1065.231     72.40562      1.473     2.54     4.935807     20.41743     136.6996        17     1.142     0.923  77.91   0
       360    137.2295     43.7081 300.1997051 +22.4152306     600.7819     72.33189      1.684     4.53     5.148372     20.41743     57.38396        12     1.099     0.978  -4.00   0
       361    468.2913     41.8978 300.3032184 +22.5139081      734.461     72.55286      1.305     2.47     4.925244     20.41743     104.8834        12     0.878     0.816 -23.92   0
       362    850.5912     40.5081 300.4227093 +22.6279770     467.6113     72.29499      1.298     2.57     5.303036     20.41743     59.41278         9     0.892     0.662  33.00   0
       363    807.8674     32.5843 300.4119637 +22.6129112     583.1747     72.36876      1.200     2.70     5.342741     20.41743     78.22366        10     0.868     0.731 -85.44   0
       364    239.7336     31.8277 300.2354069 +22.4425403     3789.705     72.35033      1.579     2.72     5.576291     20.41743     443.0824        30     1.282     1.107  60.95   0
       365     31.8665     32.2187 300.1707014 +22.3803496     395.2856     72.35033      1.536     2.57     5.692313     20.41743     42.15419         6     0.744     0.542 -45.29   0
       366    662.0835     28.9271 300.3677395 +22.5682171     523.1705     72.49767      1.918     3.72     4.927405     20.41743     35.95591         5     0.637     0.626  60.05   0
       367    801.0753     24.3634 300.4125111 +22.6085149     930.5076     72.31344      1.485     2.77     5.360236     20.41743     115.2591        14     1.107     0.827  87.74   0
       368    355.7416     23.9484 300.2740258 +22.4750370     1189.132     72.42403      1.482     2.81      5.66914     20.41743     141.2683        17     1.102     0.918 -85.22   0
       369    766.6065     23.3937 300.4020866 +22.5979185     455.1571     72.22115      1.859     3.80     5.311621     20.41743     41.88194         7     0.879     0.815  48.72   0
       370    838.7712     19.3720 300.4258743 +22.6183628     686.3785     72.33189      1.780     3.43     5.402081     20.41743     69.86879         8     0.968     0.568  71.87   0
       371    762.1248     19.2778 300.4020240 +22.5953938     474.2191     72.47927      1.394     3.00     5.319087     20.41743     56.54682         7     0.739     0.641  47.24   0
       372    615.4385   1019.5965 300.0315640 +22.8385991      2465.29     72.40562      1.914     4.78      2.58585     20.41743     150.0443        31     1.436     1.326  78.11  16
       373    802.2134   1015.5743 300.0910331 +22.8934784     760.5979     72.36876      2.066     7.08     2.535084     20.41743     44.64571        18     1.378     1.019  55.50  16
       374    522.5870    969.2151 300.0190582 +22.7962933     1062.523     72.31344      1.801     4.61     3.039611     20.41743     77.11717        20     1.242     1.115 -32.56   0
       375    452.8020    967.1290 299.9980271 +22.7747525     7230.533     72.31344      2.006     9.53     3.300649     20.41743     688.0057        49     1.878     1.350 -11.74   0
       376    702.0294   1014.6613 300.0601276 +22.8631640     8613.639     72.38719      1.986     4.23     2.416013     20.41743     487.4215        51     1.552     1.490 -84.24  19
