#   1 NUMBER                 Running object number                                     
#   2 X_IMAGE                Object position along x                                    [pixel]
#   3 Y_IMAGE                Object position along y                                    [pixel]
#   4 ALPHA_J2000            Right ascension of barycenter (J2000)                      [deg]
#   5 DELTA_J2000            Declination of barycenter (J2000)                          [deg]
#   6 FLUX_APER              Flux vector within fixed circular aperture(s)              [count]
#   7 FLUXERR_APER           RMS error vector for aperture flux(es)                     [count]
#   8 FLUX_RADIUS            Fraction-of-light radii                                    [pixel]
#   9 FWHM_IMAGE             FWHM assuming a gaussian core                              [pixel]
#  10 BACKGROUND             Background at centroid position                            [count]
#  11 THRESHOLD              Detection threshold above background                       [count]
#  12 FLUX_MAX               Peak flux above background                                 [count]
#  13 ISOAREA_IMAGE          Isophotal area above Analysis threshold                    [pixel**2]
#  14 A_IMAGE                Profile RMS along major axis                               [pixel]
#  15 B_IMAGE                Profile RMS along minor axis                               [pixel]
#  16 THETA_IMAGE            Position angle (CCW/x)                                     [deg]
#  17 FLAGS                  Extraction flags                                          
         1    582.5082     14.3658 300.3948072 +22.5626303     1372.599     72.56579      1.217     2.30     5.017055     20.48345     175.0193        14     0.874     0.842 -40.82   0
         2    226.8229     11.3483 300.2851152 +22.4552467     427.6476     72.60278      1.222     2.48      5.07369     20.48345     71.29298         7     0.766     0.616  28.36   0
         3    923.0225     10.2981 300.5022353 +22.6633623     255.8577     72.52878      1.232     4.30     4.129632     20.48345     36.22629         7     0.787     0.670 -11.72   0
         4    402.8735      8.2852 300.3408641 +22.5070972     2171.525     72.71366      1.307     2.38     5.054721     20.48345     305.5382        20     1.052     0.909  55.30   0
         5     50.1173      6.2906 300.2318369 +22.4008490     1405.755     72.71366      1.500     2.86     5.738146     20.48345     140.8376        20     1.137     0.997  76.93  16
         6    656.9658      6.9360 300.4204043 +22.5827821     157.5143     72.60278      1.067     2.17     4.812432     20.48345     46.18942         5     0.603     0.578 -85.77   0
         7    533.9288      2.7614 300.3834432 +22.5447509     483.0426     63.99235      1.210     2.32      5.03875     20.48345      80.8136         7     0.719     0.638  22.88  16
         8    193.2569      1.3858 300.2779091 +22.4423291     50.10436     56.76541      0.937     3.49      5.08272     20.48345     28.37273         5     0.761     0.462  14.80  24
         9    517.6794   1010.4599 300.0510702 +22.8292300     1569.195     72.65824      1.670     3.57     2.903589     20.48345     126.7171        23     1.195     1.125  32.34   0
        10    193.6171   1021.9850 299.9465297 +22.7352739     2004.962      65.1773      4.103    11.24     12.43942     20.48345     61.69093        50     2.400     1.886  10.92  27
        11    182.1612   1021.7079 299.9430596 +22.7317551      2398.05     66.36133      8.600    21.08     15.04458     20.48345     68.61563       123     5.315     2.321   4.76  27
        12    188.9240   1014.6459 299.9474599 +22.7317616     1694.589     72.60278      8.754    14.91     12.89201     20.48345     55.13621        55     4.413     1.401  37.33  19
        13    113.8674   1022.9970 299.9214189 +22.7116189     867.6997     60.27567     14.532    15.84     31.04049     20.48345     41.87959        19     3.699     1.887   3.75  27
        14     80.8599   1016.2172 299.9133714 +22.6997647     1352.041     72.54729      7.891    12.18     40.51891     20.48345     39.24284        25     2.957     1.397  74.84  19
        15     84.8957   1016.9830 299.9143759 +22.7011961      1287.97     72.51026      6.910    10.87     39.01957     20.48345     42.65505        22     2.661     1.237  61.93  19
        16     88.0664   1023.2922 299.9133073 +22.7039559     1152.316     58.74146      4.868     9.44     39.66312     20.48345     64.94025        20     2.311     1.076 -32.95  27
        17    100.5986   1022.3093 299.9175205 +22.7074375     1928.901     63.63467     11.533    19.05     33.87909     20.48345     54.66109        71     3.526     2.859 -13.59  27
        18     35.4428   1001.4383 299.9040744 +22.6818916     2239.328     72.69519      6.375    22.11     52.23362     20.48345      57.6943       116     4.533     2.995 -28.20  19
        19     34.4446   1010.5711 299.9007921 +22.6842084     1853.587     72.63976      3.298    11.38     59.11149     20.48345     61.61045        37     2.239     1.612  -9.42  19
        20     42.7302   1022.9513 299.8993361 +22.6902436     1507.399      60.5202      4.310    13.38     62.36863     20.48345     63.84434        40     3.503     1.422 -11.53  27
        21     38.7149   1018.9991 299.8993753 +22.6879054     3151.736     72.49174      4.462    36.05     61.90133     20.48345     65.35991       201     8.625     4.183   2.30  27
        22     97.7238   1011.1604 299.9202561 +22.7033798     617.7911     72.56579      5.953     5.45      31.4131     20.48345     31.33537         5     1.665     0.504  55.76   1
        23     56.4804   1007.0152 299.9087935 +22.6898071      1211.11     72.58429     13.058    14.76     47.41531     20.48345     42.39016        26     3.071     1.973 -85.02  19
        24    411.4034   1007.1450 300.0190795 +22.7963904     1047.058     72.54729      1.597     3.25     2.688923     20.48345     88.75299        16     1.050     0.952 -14.68   0
        25     65.3435   1006.1417 299.9118308 +22.6922184     1425.547     72.67672      8.293    11.60     43.22052     20.48345     44.80835        19     3.449     1.087 -87.78  19
        26     68.2131   1003.6754 299.9135249 +22.6923735     1520.005     72.62128     10.302    12.05     41.08451     20.48345     59.60255        26     2.759     1.465  65.90  19
        27    342.0026   1005.0775 299.9981655 +22.7749698     6464.113     72.51026      1.650     3.29      3.82764     20.48345     586.0032        40     1.340     1.279 -34.83   0
        28     76.1348   1000.5928 299.9169888 +22.6938690     627.7939     72.58429      5.446     5.19     36.68089     20.48345     31.36832         5     1.041     0.732 -68.05   1
        29     49.4798    992.8853 299.9112177 +22.6836564     1179.858     72.75058      7.924     8.63     42.40718     20.48345     57.52471        20     1.684     1.235 -17.11   1
        30     44.0864    982.4984 299.9129228 +22.6790607     1228.888     72.76903     11.228    12.54     37.55393     20.48345     39.19939        30     2.558     1.712  72.16   3
        31     52.0611    971.0780 299.9191161 +22.6781832     1181.329     72.65824      8.210    13.17     29.36319     20.48345     37.82805        27     4.429     1.089  -7.53   3
        32     29.4451    991.2711 299.9055205 +22.6771775     960.1954     72.56579      8.980     8.31     47.72647     20.48345     44.07944        22     1.812     1.501 -28.19   3
        33     34.3004    975.6068 299.9121260 +22.6741475     2194.112     72.49174      5.622    21.05     36.36661     20.48345     55.96273       100     4.435     2.774 -16.20   3
        34     39.4121    987.3134 299.9099041 +22.6790366     1265.513     72.54729      7.011     7.80     42.01679     20.48345     51.95324        19     1.752     0.971 -66.96   3
        35     35.7414    986.5231 299.9090212 +22.6777079     1700.422     72.63976     10.955    12.57     42.91572     20.48345     56.35786        36     2.494     1.762 -69.18   3
        36    374.9190    991.9120 300.0126882 +22.7810739      331.237     72.73212      1.418     2.75     3.365196     20.48345     61.42223         6     0.839     0.734 -77.46   0
        37    888.3466    983.6211 300.1752672 +22.9326946     2164.146     72.60278      1.696     3.62     3.647244     20.48345     161.4756        30     1.289     1.253  35.46   0
        38    538.6325    980.9419 300.0671995 +22.8270500      382.757     72.62128      1.451     3.61     3.284431     20.48345     42.12888         6     0.839     0.623  57.11   0
        39    386.4860    979.9014 300.0201951 +22.7811012     450.8525     72.76903      1.524     3.77     3.271145     20.48345     39.52546         6     0.818     0.499  88.43   0
        40    570.9511    978.1970 300.0781534 +22.8359577     224.2838     72.60278      1.316     3.91      3.46686     20.48345     28.36438         5     0.857     0.511 -58.51   0
        41    677.3931    972.4754 300.1131604 +22.8662426     912.6651     72.52878      1.810     5.00     3.285974     20.48345     67.63413        16     1.515     0.734  60.18   0
        42   1003.7441    971.7701 300.2151088 +22.9638821      467.806     72.62128      2.049     3.00     3.735163     20.48345     30.18973         5     0.815     0.637  43.50   0
        43    712.0366    966.7564 300.1258127 +22.8749909     1087.249     72.65824      1.511     3.39     3.133339     20.48345     104.4001        18     1.147     0.956 -45.28   0
        44    489.6649    967.7148 300.0562636 +22.8085655     330.8768     72.69519      1.434     4.78     3.107524     20.48345     34.61275         8     0.987     0.655  68.73   0
        45    734.1761    960.4251 300.1347702 +22.8798132     11496.19     72.56579      1.559     3.02     3.098535     20.48345     983.8033        48     1.311     1.260 -53.04   0
        46    924.0834    959.6223 300.1942200 +22.9365180      3505.59     72.56579      1.167     4.65     3.664178     20.48345     1582.348        11     1.113     0.551 -22.50   0
        47    779.6609    960.4141 300.1489455 +22.8934487     426.5495     72.56579      1.428     3.81     3.062938     20.48345     55.92848        11     0.977     0.813  75.54   0
        48    867.0343    953.7488 300.1783458 +22.9177307     312.6074     72.62128      1.575     5.28      3.58568     20.48345     35.02336         7     0.999     0.807  29.07   0
        49     45.9008    951.8623 299.9234554 +22.6708273     161.5865     72.69519      1.300     5.48     19.56522     20.48345     44.55759         9     1.054     0.802  42.90   0
        50    439.3404    948.5665 300.0468354 +22.7879751     395.5982     72.63976      1.445     5.04     3.292905     20.48345     40.28725         9     0.926     0.894 -51.16   0
        51    785.8204    948.1342 300.1548613 +22.8917711     418.2209     72.58429      1.471     4.84     3.174447     20.48345     54.25025         6     1.108     0.599 -14.18   0
        52    742.8163    942.5380 300.1432831 +22.8772708     1514.308     72.58429      1.551     3.03     3.258545     20.48345     144.9697        22     1.198     1.067  68.38   0
        53     36.1330    943.8094 299.9230419 +22.6655868     22.04413     72.60278      1.215     4.46     15.46155     20.48345     28.89364         5     0.788     0.716  55.85   0
        54    925.6193    941.2032 300.2006932 +22.9316904     455.9112     72.54729      1.502     4.23     3.637566     20.48345     38.85806         6     0.754     0.677  40.51   0
        55    595.1412    939.8024 300.0981795 +22.8321992     538.7213     72.56579      2.064     6.69      3.60448     20.48345     39.95102        13     1.551     0.809  18.99   0
        56    780.8793    935.9285 300.1572936 +22.8867865      778.361     72.71365      1.493     3.61     3.294098     20.48345     73.84896        14     1.100     0.864 -72.72   0
        57    889.8014    933.4622 300.1920451 +22.9187318     423.0721     72.56579      1.569     5.10     3.588115     20.48345     40.27904         9     0.983     0.748  23.03   0
        58    829.3082    927.0754 300.1752668 +22.8987644     522.9583     72.76903      1.431     4.48     3.441856     20.48345     55.26841        12     1.001     0.871 -34.07   0
        59    680.6212    926.0247 300.1292821 +22.8538820     663.3798     72.56579      1.502     4.00     3.411394     20.48345     72.56947        15     1.138     0.936 -81.76   0
        60    393.1803    922.7162 300.0408861 +22.7667115     4234.508     72.54729      1.465     2.78     3.580803     20.48345     469.3967        30     1.160     1.122 -29.67   0
        61    691.9313    923.3365 300.1336797 +22.8565021     533.6802     72.65824      1.376     3.61     3.413634     20.48345     59.48219         8     0.886     0.756 -89.29   0
        62    844.0610    919.2239 300.1824199 +22.9009331     255.3649     72.60278      1.592     2.64     3.510156     20.48345     31.22337         5     0.915     0.705   5.44   0
        63    172.0537    911.7363 299.9757048 +22.6972011      223.641     72.63976      1.241     4.25     4.992775     20.48345     39.83339         7     0.745     0.692 -35.67   0
        64    436.5315    911.1474 300.0581370 +22.7764003     335.7128     72.62128      1.272     3.00     3.654102     20.48345     46.65932         7     0.860     0.574  -8.37   0
        65     55.2271    911.2587 299.9395629 +22.6619922      554.311     72.60278      2.355     4.14     5.782292     20.48345     40.16275         6     0.739     0.662 -71.58   0
        66    118.7488    908.6470 299.9601460 +22.6803142     687.8704     72.63976      1.659     3.43     6.047163     20.48345      62.7287        12     0.979     0.835  82.52   0
        67     27.0132    907.2761 299.9320955 +22.6523797     752.4283     72.62128      4.083     6.36     5.070007     20.48345     43.79466        12     1.419     0.870 -36.40   0
        68     95.5269    905.5486 299.9539394 +22.6724548     1630.842     72.62128      1.715     3.25     6.394353     20.48345     163.5517        25     1.329     1.241   8.79   0
        69    967.3480    894.2959 300.2289693 +22.9307282     2175.748     72.67672      1.678     3.36      3.64302     20.48345     164.4214        26     1.246     1.146 -13.33   0
        70    921.5432    892.8092 300.2151696 +22.9165739     2255.326     72.58429      1.614     3.00     3.632807     20.48345     197.7407        25     1.164     1.103 -46.95   0
        71    627.1959    893.3275 300.1232824 +22.8284781     422.7629     72.54729      1.728     4.62      3.51827     20.48345     33.36944         8     1.061     0.572 -58.47   0
        72   1018.5582    888.8329 300.2467191 +22.9445051     337.5798     72.65824      1.501     4.69     3.651628     20.48345     33.34588         8     0.898     0.696  35.88  16
        73    705.1046    886.7435 300.1496893 +22.8499506     579.7385     72.67672      1.346     3.30     3.440513     20.48345     73.97877         8     0.834     0.624  32.45   0
        74    127.5212    886.7170 299.9700059 +22.6766619     517.2836     72.73212      2.062     3.14     4.959985     20.48345     50.04317         5     0.955     0.469  48.81   0
        75    452.3839    884.7516 300.0716571 +22.7735850     267.2865     72.63976      1.220     4.61     3.798533     20.48345     30.97026         6     0.919     0.658 -13.29   0
        76    573.1765    880.8539 300.1105209 +22.8086986     4728.361     72.62128      1.381     2.61     3.634991     20.48345     542.8892        29     1.119     1.075 -23.66   0
        77    375.3264    878.2242 300.0498074 +22.7485948     575.5557     72.63976      1.437     3.96     3.904219     20.48345     73.19373        10     1.046     0.661 -44.66   0
        78    593.7225    873.1214 300.1194333 +22.8126418    -5402.994     72.71366      1.432     3.57     3.567885     20.48345     91.74641        15     1.153     0.936   2.49   0
        79    123.2564    874.9086 299.9725220 +22.6719969     1361.935     72.65824      1.682     3.34       4.5087     20.48345     152.0045        21     1.167     1.127 -19.59   0
        80    142.8380    871.7920 299.9796202 +22.6769813     364.3997     72.62128      1.221     2.70     4.333063     20.48345     68.17957         7     0.950     0.601  68.65   0
        81    510.1932    864.1672 300.0963437 +22.7850207     150.9583     72.60278      1.127     3.60     3.805842     20.48345     29.76243         6     0.749     0.573  50.25   0
        82    749.2463    860.4745 300.1719871 +22.8556451     4322.641     72.60278      1.434     2.61     3.522622     20.48345     452.5041        31     1.199     1.072 -83.69   0
        83    966.2165    860.5371 300.2395997 +22.9206946     1217.181     72.58429      1.709     3.29     3.675674     20.48345     122.5045        23     1.250     1.177  87.36   0
        84   1004.1152    860.6681 300.2513773 +22.9320885     471.6041     72.69519      1.886     5.75     3.665197     20.48345     39.74032         9     1.207     0.771  28.83   0
        85    480.2129    857.2753 300.0892552 +22.7740510     397.2984     72.62128      1.567     3.88     3.851978     20.48345     41.08937         5     0.893     0.482  46.62   0
        86    157.5892    854.7815 299.9897372 +22.6765326     586.7345     72.56579      1.741     4.25     4.123239     20.48345     55.64867         9     1.035     0.691 -16.77   0
        87    466.1497    853.1378 300.0862247 +22.7686456     576.5171     72.65824      1.392     2.35     3.887484     20.48345     88.05735        10     0.849     0.714 -78.43   0
        88    112.4389    851.0939 299.9769072 +22.6619233     1052.794     72.62128      1.632     3.61       4.0465     20.48345     95.29169        19     1.146     1.071 -79.44   0
        89    527.9182    846.3966 300.1076412 +22.7852385     492.3031     72.51026      1.366     3.68     3.786443     20.48345      61.2753        10     0.967     0.782 -21.18   0
        90    262.2267    843.2115 300.0260249 +22.7046181     52820.73     72.60278      1.489     2.72      4.20118     20.48345     5789.964        94     1.390     1.351 -81.72   0
        91    520.0460    842.1416 300.1065750 +22.7816566     1589.537     72.63976      1.343     2.91     3.798408     20.48345     183.2129        19     1.067     0.973 -18.76   0
        92    932.9418    841.3057 300.2354794 +22.9052006      1018.24     72.67672      1.587     3.01     3.869981     20.48345     90.04884        13     0.947     0.879 -11.66   0
        93    235.8828    841.6526 300.0183420 +22.6962657     212.6633     72.63976      1.450     5.09     4.192405     20.48345     30.54748         6     1.069     0.685 -79.41   0
        94    190.6881    841.4067 300.0043739 +22.6826321     524.6837     72.51026      1.374     2.89     4.138098     20.48345     55.76909         9     0.919     0.651 -78.24   0
        95    549.0098    838.2197 300.1168664 +22.7892179     803.2336     72.58429      1.271     2.68     3.759247     20.48345     107.7084        14     0.965     0.857 -53.83   0
        96    559.9520    836.4058 300.1208627 +22.7919789     493.9957     72.58429      1.316     3.43     3.734388     20.48345     63.05312         9     0.907     0.770 -51.15   0
        97    879.7941    833.7118 300.2213790 +22.8870926     377.2512     72.51026      1.504     5.02     3.948459     20.48345     40.00006         7     1.011     0.704 -15.15   0
        98    665.3488    832.6004 300.1549192 +22.8224911      365.449     72.56579      1.286     3.19     3.666348     20.48345     59.12631         9     0.851     0.783 -11.55   0
        99    460.5019    829.5864 300.0921277 +22.7601951     280.9292     72.49174      1.430     3.80     3.907757     20.48345     47.33038         5     0.963     0.498  86.86   0
       100    702.9577    823.0221 300.1697491 +22.8310175     840.1627     72.63976      1.334     3.14     3.739048     20.48345     110.5201        13     1.036     0.834  30.21   0
       101    311.9344    820.4230 300.0488926 +22.7129979     31035.13     72.58429      1.440     2.60     4.163199     20.48345     3380.653        79     1.351     1.306  66.80   0
       102    835.0016    816.1537 300.2131275 +22.8686266     2777.307     72.60278      1.395     2.63     4.014451     20.48345     329.8188        24     1.126     0.974 -41.46   0
       103    323.0863    815.0320 300.0541139 +22.7147976     731.2266     72.58429      1.604     3.14     4.145943     20.48345     69.20147        14     1.049     0.864 -36.09   0
       104    592.9578    812.3474 300.1389635 +22.7949727     906.6067     72.60278      1.296     2.64     3.728329     20.48345     119.3887        12     0.917     0.773 -44.29   0
       105    194.5917    812.0754 300.0151265 +22.6753937     729.8034     72.58429      1.456     3.33     4.097322     20.48345     84.22886        14     1.104     0.879  66.63   0
       106    429.3315    812.2323 300.0880731 +22.7458669     411.4781     72.60278      1.147     2.39     4.023886     20.48345     72.89378         7     0.768     0.608 -61.96   0
       107    439.9243    807.2041 300.0930042 +22.7476017     829.7938     72.51026      1.344     2.46     3.989869     20.48345     111.4149        13     0.982     0.774  47.20   0
       108    360.4558    806.7754 300.0684215 +22.7236405     280.4511     72.60278      1.647     5.09      4.10099     20.48345     26.72241         5     1.010     0.726   6.49   0
       109    841.2707    803.7595 300.2191127 +22.8669466     552.2025     72.56579      1.688     5.47     4.136193     20.48345      55.4749        11     1.308     0.744 -59.58   0
       110    342.2396    803.3062 300.0638840 +22.7171806     428.5041     72.62128      1.242     2.85     4.128739     20.48345     42.35723         6     0.749     0.535  50.87   0
       111    326.1510    820.9758 300.0531339 +22.7174218      1933.48     72.60278      1.409     2.69     4.133937     20.48345     226.6526        22     1.103     1.035  84.57   0
       112    385.9179    801.8704 300.0779368 +22.7298718     455.3667     72.71365      1.663     4.05     4.095346     20.48345     59.40635        10     1.125     0.726  53.17   0
       113     27.5421    801.4273 299.9666873 +22.6222025     658.8604     72.60278      1.837     4.72     3.758068     20.48345     58.83524        12     1.267     0.936  53.48   0
       114    594.2155    801.2642 300.1429597 +22.7921691     373.3846     72.58429      1.716     3.74     3.761434     20.48345     40.79225         6     0.750     0.637 -48.68   0
       115    818.9381    798.6329 300.2138194 +22.8587813     407.3945     72.60278      1.254     2.81     4.053642     20.48345     57.42228         6     0.777     0.482  -1.12   0
       116    192.0727    796.4903 300.0194118 +22.6701690     516.0053     72.76903      1.475     3.65     4.071018     20.48345     66.41865         7     0.881     0.667 -14.13   0
       117    515.2243    786.8298 300.1230634 +22.7643399     421.5897     72.60278      1.321     3.11     3.877127     20.48345      60.5069         7     0.819     0.617  57.15   0
       118    522.7043    785.8002 300.1257264 +22.7662876     304.5703     72.47322      1.148     2.76     3.875928     20.48345     51.85884         5     0.859     0.530 -37.39   0
       119    485.2473    785.2861 300.1142356 +22.7549069      653.416     72.58429      1.537     2.94     3.906138     20.48345     82.47215        11     1.003     0.724  55.04   0
       120    394.0731    784.2791 300.0861943 +22.7272717     297.4665     72.71366      1.178     3.11     4.088875     20.48345     44.51376         7     0.743     0.642   8.44   0
       121    901.4200    781.3649 300.2451468 +22.8785408     4427.205     72.62128      1.391     2.59     4.282453     20.48345     488.4807        28     1.105     1.088 -71.84   0
       122    506.9561    782.5519 300.1218811 +22.7606328     1454.582     72.62128      1.366     2.76     3.899655     20.48345     182.2963        17     1.064     0.912  47.73   0
       123    426.6322    782.2123 300.0969958 +22.7364449     344.9095     72.58429      1.045     1.71     4.054559     20.48345     62.54317         5     0.633     0.472 -76.24   0
       124    588.8701    777.2496 300.1491050 +22.7836742     374.6109     72.60278      1.327     4.10      3.81164     20.48345     39.20465         8     0.967     0.616 -59.82   0
       125    889.8231    772.8174 300.2443109 +22.8726110     -975.653     72.56579     -6.433     2.64     4.290223     20.48345     192.4953        18     1.027     0.913 -33.65   0
       126    252.8315    767.1155 300.0478505 +22.6799766     950.1054     72.58429      1.399     2.59     4.121044     20.48345      127.294        14     1.087     0.785 -41.60   0
       127    269.6204    767.2966 300.0530114 +22.6850657     270.9517     72.51026      1.335     3.50     4.113966     20.48345     35.89995         5     0.758     0.466 -76.90   0
       128    716.3155    764.2166 300.1930348 +22.8181408     2552.203     72.56579      1.380     2.45     3.885641     20.48345     314.5171        28     1.320     0.990   8.15   0
       129    920.9626    763.0605 300.2571927 +22.8791394     1581.679     72.62128      1.358     2.64     4.291168     20.48345     199.3388        19     1.026     0.943 -41.19   0
       130    934.7715    753.8310 300.2644998 +22.8806259     243.2809     72.60278      1.192     3.31     4.267257     20.48345     39.05738         6     0.745     0.624 -16.45   0
       131    101.3816    751.0379 300.0060086 +22.6299202     755.4375     72.60278      1.681     3.65     3.992283     20.48345     80.36452        13     1.131     0.762 -11.72   0
       132    798.3697    749.8383 300.2232770 +22.8386060     674.2489     72.60278      1.448     3.71     4.127001     20.48345     76.48946        12     1.183     0.654  39.12   0
       133    834.6655    741.0846 300.2374355 +22.8469694     147371.6     72.71366      1.349     2.36     4.244873     20.48345     19053.88       164     1.395     1.331 -72.03   0
       134    597.0085    744.9319 300.1621475 +22.7768387     353.2368     72.58429      1.328     2.58     3.843236     20.48345     59.16697         8     0.776     0.683 -43.58   0
       135    981.6432    742.9083 300.2826688 +22.8915308     1267.972     72.60278      1.445     2.93     4.032604     20.48345     126.5979        18     1.085     0.927 -44.58   0
       136    687.2317    741.3718 300.1914031 +22.8028643     719.4783     72.60278      1.249     3.06     3.886197     20.48345     103.7256        14     1.017     0.900 -26.08   0
       137    867.6204    733.8159 300.2500714 +22.8547569     329.2899     72.58429      1.224     3.01     4.309659     20.48345     57.03498         8     0.871     0.657  72.95   0
       138    520.8853    730.0524 300.1432870 +22.7497440     1668.433     72.62128      1.285     2.18     4.091273     20.48345      252.175        18     0.972     0.873  32.55   0
       139    702.1627    727.2803 300.2006358 +22.8032943     9321.327     72.56579      1.275     2.25     3.891587     20.48345     1275.049        36     1.088     1.051 -48.80   0
       140    203.6072    722.6268 300.0470127 +22.6524484     4892.547     72.60278      1.411     2.55     4.063879     20.48345     643.7073        33     1.169     1.106 -55.66   0
       141    285.6786    720.6060 300.0731845 +22.6764910      1200.76     72.52878      1.417     2.63     4.018355     20.48345     148.8649        16     0.971     0.930  35.74   0
       142    160.9516    718.4386 300.0351168 +22.6384486     551.3765     72.62128      1.529     4.66     4.002807     20.48345      47.5387        10     1.136     0.659 -49.76   0
       143    494.0862    716.1130 300.1394777 +22.7377078     711.1318     72.73212      1.275     2.37     4.101597     20.48345     125.8749        12     0.966     0.826 -76.08   0
       144    485.6685    708.1969 300.1394314 +22.7329119     3295.068     72.58429      1.212     2.07     4.103901     20.48345     513.7393        21     0.963     0.912 -70.63   0
       145    475.8654    701.9252 300.1384194 +22.7281725     1296.064     72.65824      1.203     1.95     4.102945     20.48345     246.5256        14     0.880     0.791  88.35   0
       146    404.0449    700.8959 300.1164067 +22.7063396     191.5652     72.62128      1.100     2.75     4.071901     20.48345     44.98097         5     0.773     0.498  60.28   0
       147    869.7943    699.9321 300.2617654 +22.8456763     536.9199     72.56579      1.511     2.77     4.281475     20.48345     56.53485         8     0.826     0.626  45.84   0
       148    386.1538    699.6317 300.1112518 +22.7006111     228.3078     72.63976      1.616     4.19     4.061207     20.48345     31.64747         6     1.197     0.418 -33.85   0
       149    139.0264    698.3064 300.0348476 +22.6260965     716.7926     72.52878      1.478     3.30     3.999184     20.48345     69.48604        13     1.056     0.793  82.67   0
       150    153.5081    696.5948 300.0399042 +22.6299509     568.5133     72.51026      1.408     3.14     4.005591     20.48345     81.10983        13     1.114     0.749  63.54   0
       151    922.7628    692.8494 300.2805823 +22.8595112     518.1001     72.60278      1.299     3.68     4.100543     20.48345     78.93063        10     1.153     0.677  65.66   0
       152    178.8345    693.7005 300.0487159 +22.6367197     480.5732     72.58429      1.259     3.33     4.020886     20.48345     60.46237         9     0.927     0.637 -17.92   0
       153    400.6814    691.6722 300.1183586 +22.7026842     1800.133     72.73212      1.276     2.18     4.067932     20.48345     284.2296        17     0.949     0.892 -43.32   0
       154    499.9973    692.0460 300.1491412 +22.7325732     424.8381     72.60278      1.212     2.80     4.102785     20.48345     60.58414         7     0.836     0.547  48.36   0
       155    434.3445    690.8030 300.1291145 +22.7125299     290.6443     72.56579      1.439     4.88     4.086092     20.48345      39.1939         7     1.017     0.664  86.83   0
       156    976.3436    688.9381 300.2985631 +22.8744384     773.0419     72.67672      1.324     3.28     3.998038     20.48345     102.8316        14     1.136     0.803  57.86   0
       157     54.5649    686.7395 300.0123663 +22.5974346      19642.1     72.62128      1.555     2.73      3.88176     20.48345     2411.415        65     1.361     1.308  44.32   0
       158    485.6102    687.1041 300.1462699 +22.7268410     1072.701     72.52878      1.265     2.24     4.104531     20.48345      154.637        12     0.873     0.731 -32.72   0
       159    520.8635    686.1754 300.1575441 +22.7371446     353.4911     72.58429      1.220     3.28     4.101831     20.48345     62.76958         9     1.008     0.619 -28.97   0
       160    856.6519    682.7618 300.2632503 +22.8368068     191.9278     72.62128      1.035     3.41     4.250911     20.48345     33.92783         5     0.750     0.450  74.81   0
       161    239.0293    678.3096 300.0724295 +22.6503642     192.9084     72.56579      1.113     3.22     4.023505     20.48345     37.88123         7     0.745     0.648 -16.09   0
       162    903.6248    673.2094 300.2809996 +22.8481359     1116.618     72.60278      1.291     2.25     4.095952     20.48345     150.2512        15     0.954     0.827 -59.43   0
       163      1.4169    671.0439 300.0009602 +22.5769842     874.8255     57.02499      1.447     4.59       3.6862     20.48345     130.9919        13     1.488     0.608  88.03  24
       164    770.4964    671.1755 300.2401649 +22.8076636     658.6292     72.51026      1.680     2.77     3.921375     20.48345     62.21534         9     0.834     0.736 -69.41   0
       165     67.0267    671.3185 300.0212495 +22.5967525     379.5753     72.58429      1.418     3.50     3.883399     20.48345      63.3731         6     1.062     0.553  36.02   0
       166    448.8218    667.5104 300.1411904 +22.7101868     405.9494     72.52878      1.174     2.69     4.112043     20.48345     60.65219        10     0.895     0.714 -88.11   0
       167    843.8184    665.7079 300.2647935 +22.8280633     858.8774     72.52878      1.622     3.00     4.148938     20.48345     88.30586        11     1.002     0.716  83.88   0
       168    241.7357    666.4063 300.0771397 +22.6477616     454.9081     72.56579      1.362     3.54     4.006106     20.48345     52.66292         5     0.847     0.443 -47.58   0
       169    588.3634    664.4772 300.1856106 +22.7511524     285.0427     72.56579      1.254     3.85     4.132805     20.48345     44.03959         8     0.926     0.664  86.81   0
       170    405.7866    659.6921 300.1303416 +22.6950384     724.3612     72.52878      1.274     2.82      4.08808     20.48345     105.6514        13     0.986     0.828 -46.18   0
       171    553.6956    658.1635 300.1768694 +22.7389473      553.103     72.60278      1.237     3.82     4.193569     20.48345     78.49998         9     1.004     0.656  51.50   0
       172    600.9648    656.8789 300.1920040 +22.7527485     332.8481     72.54729      1.213     2.79     4.154923     20.48345     79.98604        10     0.934     0.683  59.20   0
       173    571.1031    656.4468 300.1828468 +22.7436729     615.8661     72.63976      1.448     2.39     4.189043     20.48345     88.44046         9     0.837     0.655  64.85   0
       174    450.0185    655.6362 300.1454222 +22.7071378     911.0353     72.60278      1.303     2.18     4.161409     20.48345     149.7803        16     1.110     0.850  21.99   0
       175    415.4315    651.1749 300.1361104 +22.6954864     1692.125     72.60278      1.249     2.14     4.116913     20.48345     248.6055        17     0.942     0.873 -65.39   0
       176    883.6907    651.0228 300.2819964 +22.8357905     3256.242     72.52878      1.274     2.28     4.099442     20.48345     448.9523        24     1.079     0.924 -50.04   0
       177    981.6451    649.0213 300.3131920 +22.8645576     714.7319     72.65824      1.345     3.00        3.932     20.48345     85.97652        10     0.911     0.747  61.10   0
       178    390.8710    646.4158 300.1300162 +22.6867558     277.3157     72.60278      1.288     3.43     4.082141     20.48345     34.52184         5     0.788     0.431 -21.16   0
       179    444.6041    641.8528 300.1482170 +22.7015586     300.5451     72.60278      1.157     2.59     4.205857     20.48345     51.35495         7     0.820     0.585  14.11   0
       180    922.9881    641.1589 300.2974549 +22.8447289     350.2853     72.58429      1.389     3.08     3.936075     20.48345     54.69705         8     0.917     0.706  16.24   0
       181    278.7594    637.9546 300.0978976 +22.6507050     9087.039     72.67672      1.289     2.27     3.960002     20.48345     1399.015        39     1.149     1.058  81.97   0
       182    401.2442    634.9753 300.1369613 +22.6865833     8915.244     72.62128      1.246     2.10     4.115557     20.48345     1359.381        36     1.066     1.054 -31.30   0
       183    805.7769    632.3384 300.2637825 +22.8070806     257.4144     72.58429      1.243     3.44     3.922273     20.48345     32.66366         5     0.767     0.447 -14.37   0
       184    647.8022    631.3576 300.2148842 +22.7594597     200.3818     72.60278      1.181     2.18     4.107076     20.48345     48.50379         5     0.706     0.444 -19.11   0
       185     45.0916    631.0516 300.0275216 +22.5786238     134.3842     72.65824      1.198     3.87     3.957062     20.48345     35.20338         5     0.818     0.526 -27.06   0
       186   1005.7571    630.0882 300.3268665 +22.8663388     952.7564     72.60278      1.320     2.75     3.897379     20.48345     121.5812        13     0.976     0.811   7.82   0
       187    897.5494    626.1638 300.2943967 +22.8328006     12552.89     72.60278      1.276     2.26     3.961754     20.48345     1572.806        46     1.164     1.091 -85.44   0
       188    813.0028    628.7267 300.2672084 +22.8082082     2012.463     72.51026      1.328     2.11      3.93403     20.48345     329.9123        21     1.120     0.894 -74.20   0
       189    461.7966    624.5430 300.1591923 +22.7017453     11507.94     72.56579      1.219     2.11      4.33008     20.48345     1798.553        39     1.072     1.055  73.66   0
       190    189.2781    619.9721 300.0759234 +22.6187056     1367.108     72.62128      1.431     2.76     3.903292     20.48345     160.3508        20     1.149     1.031 -44.08   0
       191    631.1641    620.2455 300.2133139 +22.7512824       651.48     72.63976      1.404     2.40     4.207192     20.48345     86.80094         8     0.771     0.665  31.97   0
       192    347.1615    619.0190 300.1253231 +22.6657864     187.5247     72.62128      1.158     2.03      4.00327     20.48345     56.97052         5     0.616     0.537  -1.94   0
       193    436.0897    617.2888 300.1535504 +22.6919556     376.2014     72.76903      1.288     2.74     4.261829     20.48345     55.60541         8     0.793     0.724   8.60   0
       194    393.4387    612.7991 300.1417395 +22.6778785     4504.026     72.62128      1.210     2.14     4.123322     20.48345      678.701        26     1.038     0.947  78.93   0
       195    736.2071    612.5186 300.2485450 +22.7805428     799.4063     72.52878      1.197     2.20     3.886341     20.48345     128.3777        15     0.962     0.846  31.83   0
       196    371.8254    611.1269 300.1355594 +22.6709177     1314.952     72.63976      1.313     2.20     4.065057     20.48345     195.7627        17     0.978     0.886 -39.44   0
       197    125.8820    610.3556 300.0593463 +22.5969288     926.8146     72.56579      1.767     3.75     3.942469     20.48345     106.7804        15     1.215     0.819  74.37   0
       198    510.0929    600.2424 300.1821199 +22.7092490     198798.7     72.62128      1.242     2.04     4.493489     20.48345     31299.67       205     1.383     1.371  87.13   0
       199    813.3944    608.0315 300.2740561 +22.8023809     1501.604     72.60278      1.365     2.69     3.897152     20.48345     195.8655        19     1.115     0.870 -44.25   0
       200     59.3217    608.5409 300.0392565 +22.5764383     391.2077     72.63976      1.490     5.16     4.028725     20.48345     45.79288         9     0.915     0.822  28.60   0
       201    913.2387    606.6247 300.3056384 +22.8318865     206.8827     72.62128      1.115     3.31     3.881779     20.48345     31.73759         5     0.738     0.449 -18.10   0
       202    693.6938    605.0108 300.2377404 +22.7656472     1005.746     72.54729      1.266     2.10      4.00221     20.48345     152.3517        14     1.003     0.804  85.44   0
       203    333.5470    606.4055 300.1251874 +22.6580841     352.5181     72.56579      1.004     2.44     3.981206     20.48345     64.22421         5     0.700     0.458  68.44   0
       204    196.2092    600.2625 300.0844821 +22.6151308      3490.45     72.54729      1.307     2.44      3.88404     20.48345       391.83        27     1.069     1.046  61.10   0
       205    762.0886    596.0053 300.2619754 +22.7835549     622.8878     72.51026      1.516     2.95     3.947759     20.48345     72.24638         8     0.877     0.674  75.47   0
       206    780.9547    594.1594 300.2684541 +22.7886772     357.3628     72.67672      1.296     3.18        3.931     20.48345     44.04612         5     0.949     0.385 -61.09   0
       207    541.8074    587.0801 300.1962688 +22.7149771     331.7081     72.52878      1.514     3.89     4.452489     20.48345     33.85423         6     0.762     0.570 -43.65   0
       208    400.5921    584.5522 300.1531433 +22.6719166     394.8657     72.62128      1.174     2.28     4.219136     20.48345     56.05708         5     0.709     0.444  70.18   3
       209    400.6713    580.4823 300.1544903 +22.6707723     2535.183     72.73212      1.199     2.15     4.233244     20.48345     371.9073        20     1.004     0.881 -77.08   2
       210    244.7918    583.0078 300.1051908 +22.6247525      509.045     72.45469      1.588     3.32     3.901322     20.48345     63.36065         8     0.884     0.740 -16.11   0
       211    850.2230    580.1477 300.2945962 +22.8054035     256.2822     72.62128      1.275     2.57     3.948341     20.48345     42.01393         6     0.737     0.547  48.25   0
       212    987.0051    577.6369 300.3380626 +22.8456500     157.5967     72.63976      1.215     4.60     3.864472     20.48345     31.91248         6     1.292     0.465  -5.80   0
       213    811.9141    576.6638 300.2837876 +22.7929266     384.4546     72.69519      1.254     3.80     3.930397     20.48345     51.32343         6     1.011     0.410 -14.75   0
       214    829.9873    571.8135 300.2909966 +22.7969474     263.3892     72.52878      1.200     2.57      3.94369     20.48345     42.66688         5     0.780     0.478 -51.09   0
       215    717.9196    568.8582 300.2570345 +22.7625234     406.0181     72.63976      1.144     2.12     4.150034     20.48345     78.57115         8     0.765     0.655 -43.20   0
       216    969.6370    567.9312 300.3357993 +22.8376595     1125.589     72.58429      0.646     0.95     3.864124     20.48345     574.6385         6     0.483     0.408  -9.19   0
       217    797.5958    566.6254 300.2825868 +22.7857534     1631.103     72.56579      1.138     2.11     3.949339     20.48345     289.2313        16     0.945     0.818  60.10   0
       218    684.5186    566.8180 300.2472923 +22.7519292     321.9481     72.58429      1.335     2.02     4.113342     20.48345     52.78954         5     0.677     0.477  72.02   0
       219    668.9016    564.3237 300.2432383 +22.7465331     2422.791     72.75058      1.188     2.03     4.117811     20.48345     377.5457        21     0.990     0.892  80.01   0
       220     28.6562    564.5737 300.0440158 +22.5546282      334.072     72.60278      1.141     3.38     3.808936     20.48345     36.74048         5     0.982     0.337 -68.72   0
       221    913.3269    561.6154 300.3202913 +22.8189803     411.8496     72.60278      1.192     3.19     3.884679     20.48345      61.4007         9     1.006     0.649  29.92   2
       222    911.9933    557.2180 300.3213042 +22.8173173     745.9401     72.56579      1.347     2.73     3.886619     20.48345      108.661        14     0.947     0.897  26.04   3
       223    878.7025    561.5574 300.3095148 +22.8085931     295.4575     72.60278      1.434     3.42     3.939004     20.48345     35.60464         5     0.742     0.455  19.89   0
       224    573.7583    560.8137 300.2147500 +22.7170123     465.5489     72.62128      1.190     2.20     4.378211     20.48345     80.33572         8     0.804     0.614 -84.17   0
       225    455.9813    560.3113 300.1782533 +22.6815646     611.3122     72.54729      1.161     2.15     4.451787     20.48345     113.9886        12     0.852     0.810   7.36   0
       226    926.2465    558.2787 300.3254040 +22.8218909     1427.406     72.60278      1.259     2.25     3.863956     20.48345     193.0008        14     0.904     0.815  85.42   0
       227    797.9708    556.7380 300.2859161 +22.7830254     2221.702     72.62128      1.408     2.55     3.964946     20.48345     336.6076        27     1.449     0.977  77.02   0
       228    551.3110    555.0234 300.2096427 +22.7086218     589.2249     72.52878      1.192     1.99     4.355435     20.48345     94.02499         7     0.681     0.633  89.22   0
       229    337.1062    554.8489 300.1430453 +22.6443561     342.5103     72.63976      1.144     3.05     3.979477     20.48345     63.47111         8     0.901     0.658  26.31   0
       230    389.6657    553.8932 300.1597049 +22.6598409     364.7873     72.73212      1.033     2.35     4.238666     20.48345     75.87989         7     0.791     0.589 -61.35   0
       231    836.0826    551.7833 300.2994045 +22.7930187     4236.863     72.56579      1.221     2.03     3.960706     20.48345     725.5056        25     1.029     0.932 -78.67   0
       232    550.9705    550.7502 300.2109250 +22.7072929     465.8882     72.62128      1.409     2.03     4.344555     20.48345     63.78302         7     0.694     0.636  12.71   0
       233    477.2758    551.5336 300.1877319 +22.6854284     166.3802     72.69519      0.963     2.78     4.490784     20.48345     42.11581         5     0.718     0.438 -24.86   0
       234    496.6715    547.2844 300.1951488 +22.6900225     303.3653     72.71366      1.147     2.88     4.453691     20.48345     71.37234         6     0.779     0.610 -65.98   0
       235    927.8369    542.2462 300.3311088 +22.8177601     736.2874     72.63976      1.210     2.56     3.861344     20.48345     108.9842        11     0.870     0.774 -19.62   0
       236     68.2352    542.3148 300.0635410 +22.5601186     1016.082     72.58429      1.419     2.95     3.794293     20.48345     99.91811        15     0.958     0.945  79.42   0
       237    728.7632    535.9725 300.2710970 +22.7563264     298.6422     72.60278      1.214     2.61     4.321091     20.48345     51.93342         7     0.756     0.615 -73.80   0
       238    334.5944    535.3199 300.1486082 +22.6379982     337.6854     72.52878      1.005     3.02     3.979218     20.48345     44.51445         5     0.741     0.428 -66.57   0
       239    924.0603    531.2898 300.3334907 +22.8134805     367.1523     72.69519      1.198     2.43     3.869907     20.48345     69.36224         8     0.883     0.586  63.61   0
       240     60.6110    532.2290 300.0644486 +22.5549384     469.5401     72.60278      1.269     3.05     3.790662     20.48345     59.70229         7     0.818     0.623  -8.50   0
       241    557.4070    524.2941 300.2215233 +22.7016254     359.3847     72.49174      1.209     2.63     4.314199     20.48345     59.50334         8     0.855     0.625  75.14   0
       242    609.5044    522.3093 300.2383891 +22.7166681     680.5776     72.78748      1.077     2.06     4.386529     20.48345     110.9537        11     0.806     0.732 -32.07   0
       243   1017.0621    519.8939 300.3661989 +22.8380544     1122.116     72.69519      1.362     3.13     3.874108     20.48345     146.3697        14     1.046     0.841  70.87  16
       244    588.6700    520.3394 300.2325416 +22.7098589     242.5145     72.63976      1.242     3.09     4.358914     20.48345     43.12713         5     0.738     0.451 -14.26   0
       245    924.1008    514.8213 300.3388532 +22.8087599     478.0596     72.52878      1.199     2.51      3.87272     20.48345     91.82981        10     0.882     0.690  79.63   0
       246    670.3302    514.5520 300.2598525 +22.7326664      856.236     72.58429      1.124     2.10     4.160347     20.48345     131.0377        11     0.835     0.716  72.82   0
       247    827.4863    510.6777 300.3100788 +22.7786334     949.4832     72.73212      1.170     2.18     3.965755     20.48345     169.1958        13     0.896     0.778 -60.21   0
       248    811.9380    506.9878 300.3064313 +22.7729161     631.9246     72.56579      1.330     2.59     3.965755     20.48345     113.0421        13     0.942     0.863 -38.82   0
       249    792.4041    507.1998 300.3002745 +22.7671258     226.4582     72.41762      0.976     3.08     4.019517     20.48345     53.96067         5     0.718     0.469  74.62   0
       250    556.1527    505.1237 300.2273599 +22.6957446     3220.981     72.60278      1.184     2.01     4.292973     20.48345     546.5383        22     0.929     0.911 -38.22   0
       251    916.7298    503.9454 300.3400877 +22.8034270     444.2605     72.63976      1.243     4.12     3.885462     20.48345     68.81496         9     1.048     0.657  68.23   0
       252     18.7428    497.0508 300.0628692 +22.5322878     308.6224     72.65824      1.669     5.49     3.651914     20.48345     31.72569         7     1.146     0.743 -89.70   0
       253     32.1609    496.7049 300.0671492 +22.5362140     510.4824     72.58429      1.723     4.52     3.708558     20.48345     52.70704         7     1.154     0.568  19.82   0
       254    327.8579    492.8654 300.1603028 +22.6237934     298.8468     72.63976      0.989     1.95      3.98218     20.48345     63.09222         6     0.715     0.518  57.23   0
       255    561.9927    492.7174 300.2332077 +22.6939321     171.4457     72.52878      1.182     2.55     4.291377     20.48345     43.19191         5     0.847     0.450  -0.61   0
       256    396.0929    491.9997 300.1818092 +22.6440015     367.9764     72.47322      1.204     2.20     4.096291     20.48345     71.55799         9     0.758     0.719 -64.91   0
       257    455.6199    487.6165 300.2017546 +22.6605867     176.6724     72.58429      0.836     3.51     4.271986     20.48345     30.54149         5     1.066     0.334 -69.62   0
       258    967.4692    484.0246 300.3623815 +22.8128952     1368.744     72.60278      1.334     2.40     3.871087     20.48345     181.4603        17     0.959     0.951  -6.84   0
       259    839.1706    483.8470 300.3224359 +22.7744236     484.4788     72.62128      1.148     3.13     3.965755     20.48345     76.66546        10     0.945     0.698   3.22   0
       260    925.7747    482.7722 300.3497855 +22.8000505     1043.501     72.58429      1.342     2.15     3.875382     20.48345     156.8424        12     0.848     0.785   3.52   0
       261    462.3129    479.6055 300.2064393 +22.6602928     443.4673     72.52878      1.108     2.23     4.278656     20.48345     73.20979         7     0.748     0.603 -72.24   0
       262    666.6191    478.9692 300.2702542 +22.7213338     1071.382     72.60278      1.136     1.86     4.198614     20.48345     203.9819        13     0.833     0.790 -16.65   0
       263    170.5494    477.2916 300.1164522 +22.5721537     690.0069     72.63976      1.417     3.28     4.075369     20.48345      86.6084        14     1.090     0.936 -78.78   0
       264     10.8230    475.7884 300.0673145 +22.5238132     317.2373     72.60278      1.522     3.75     3.593338     20.48345     36.18272         5     0.918     0.440  45.94   0
       265    233.0196    473.1709 300.1372089 +22.5897049     3764.948     72.60278      1.285     2.14     4.017133     20.48345       568.77        27     1.068     1.007  66.00   0
       266    966.0854    471.2930 300.3660851 +22.8088213     4377.799     72.78748      1.268     2.18     3.871319     20.48345     647.1475        30     1.112     1.011 -89.15   0
       267    180.2316    467.9217 300.1225043 +22.5723688     7725.762     72.58429      1.332     2.34     4.104226     20.48345     967.7536        42     1.225     1.105  87.81   0
       268    321.0165    462.0613 300.1681791 +22.6129005      4759.22     72.54729      1.271     2.12     4.092404     20.48345     766.4975        28     1.073     0.962 -82.19   0
       269    946.1302    462.3825 300.3627557 +22.8002852     1877.232     72.63976      1.289     2.30     3.871319     20.48345      263.358        17     0.933     0.908   3.95   0
       270    565.2171    458.7125 300.2452555 +22.6851326     18323.71     72.52878      1.180     1.90     4.297112     20.48345     3265.602        52     1.109     1.041  80.68   0
       271    582.9285    458.7672 300.2507522 +22.6904555     778.5115     72.60278      1.679     5.73     4.320217     20.48345     83.01276        13     1.600     0.578 -41.67   0
       272    191.9542    456.6784 300.1297991 +22.5726578     230.1846     72.58429      1.190     2.72     4.143316     20.48345     45.59531         5     0.764     0.586  82.48   0
       273    808.9023    454.5436 300.3225187 +22.7569377     296.7634     72.69519      1.363     3.94     4.011928     20.48345     45.44667         6     0.888     0.675  84.96   0
       274    422.0649    455.1868 300.2018453 +22.6412182     261.4898     72.56579      1.239     3.81     4.223227     20.48345     30.60207         5     0.804     0.518 -55.27   0
       275    762.4656    449.0826 300.3098206 +22.7414601     343.9153     72.71366      1.168     2.03     4.214457     20.48345     60.22441         6     0.720     0.494 -82.38   0
       276    185.0584    445.9983 300.1311237 +22.5675251     432.8105     72.54729      1.372     3.28     4.199711     20.48345     48.39581         8     0.885     0.688  -2.09   0
       277    898.7086    441.3106 300.3548117 +22.7800291     887.9202     72.76903      1.574     2.86     3.915586     20.48345     98.61195        14     1.010     0.900 -12.47   0
       278    608.7479    440.0149 300.2648815 +22.6928057     326.9297     72.62128      1.278     4.22     4.338697     20.48345      35.3189         7     0.748     0.680 -56.54   0
       279    119.9486    439.0382 300.1131489 +22.5460023     2028.416     72.60278      1.293     2.29     4.234139     20.48345     286.8151        21     1.040     0.910  54.07   0
       280    505.8727    428.1600 300.2367028 +22.6585751     6547.037     72.58429      1.235     2.07     4.345627     20.48345     1088.406        33     1.112     0.951  87.00   0
       281    919.5385    428.3442 300.3655173 +22.7825393     1169.575     72.67672      1.171     2.18     3.884599     20.48345     168.2884        14     0.866     0.821  73.67   0
       282    220.6011    427.5249 300.1481704 +22.5728813     724.7466     72.49174      1.441     2.83     4.273857     20.48345      114.034        12     0.972     0.850  57.12   0
       283     78.1174    420.9431 300.1060268 +22.5282647     455.3191     72.69519      1.323     2.80     4.133491     20.48345     66.63918         7     0.807     0.670 -51.95   0
       284    765.6824    420.1516 300.3202178 +22.7341106     381.8877     72.62128      1.286     1.50     4.214443     20.48345      85.3263         5     0.662     0.415 -65.91   0
       285    709.9464    417.3396 300.3037648 +22.7166084     1179.686     72.65824      1.404     2.72     4.316434     20.48345     206.0354        20     1.249     0.897 -70.85   0
       286    619.5496    418.1794 300.2753356 +22.6897698     629.1871     72.60278      1.207     2.24     4.320216     20.48345     75.62171         8     0.728     0.673   6.11   0
       287    412.4908    414.4533 300.2120931 +22.6266532     6087.777     72.65824      1.152     2.08     4.438043     20.48345     807.4192        33     1.048     1.014  33.67   0
       288    990.8557    412.8777 300.3927814 +22.7994449      180.552     72.63976      1.213     4.10     3.884996     20.48345      35.2727         6     0.803     0.596  44.47   0
       289    902.1007    408.7516 300.3664420 +22.7716864     557.6966     72.63976      1.272     2.88     3.911609     20.48345     89.41027        10     0.875     0.768  -2.69   0
       290    804.4357    408.6347 300.3360345 +22.7424074     1218.549     72.67672      1.088     2.06     4.117713     20.48345     204.9034        14     0.844     0.807  88.79   0
       291    397.2504    403.1081 300.2110349 +22.6188279     467.9179     72.62128      1.125     2.82     4.436143     20.48345     63.64998         7     0.700     0.679  53.13   0
       292    479.7766    400.8273 300.2374551 +22.6429055     409.9253     72.58429      1.119     2.56     4.371782     20.48345     85.26577         8     0.872     0.597 -55.14   0
       293    460.3755    398.7532 300.2320906 +22.6364959     289.3059     72.62128      0.872     1.86     4.390467     20.48345     70.91528         5     0.717     0.389 -61.42   0
       294    777.1718    396.4030 300.3315092 +22.7307273     487.9039     72.56579      1.036     2.11     4.252957     20.48345     95.19779         8     0.749     0.640  35.45   0
       295    300.0502    393.7217 300.1838482 +22.5869978      2496.68     72.60278      1.254     2.06     4.374952     20.48345     405.1978        21     1.006     0.946  55.70   0
       296     18.6360    391.3717 300.0971499 +22.5019405     974.1673     72.62128      1.373     2.83     3.910427     20.48345     111.8656        14     0.967     0.828  -4.12   0
       297    647.3743    388.1003 300.2937673 +22.6894644     324.9126     72.54729      1.312     2.46     4.327993     20.48345     45.10322         5     0.731     0.428  67.55   0
       298    247.5204    387.0686 300.1696741 +22.5693403     313.0593     72.71366      1.390     3.78     4.386548     20.48345     31.48587         6     0.824     0.497  85.62   0
       299    269.3740    383.1581 300.1777384 +22.5747693     29399.83     72.63976      1.265     2.22     4.383138     20.48345      3755.87        70     1.225     1.145  63.74   0
       300    803.9592    380.3179 300.3450798 +22.7341268      1443.94     72.56579      1.168     2.14     4.219766     20.48345     240.5004        16     0.983     0.867 -75.01   0
       301    759.7657    378.0725 300.3320364 +22.7202468     170.2076     72.60278      1.025     2.21      4.37072     20.48345     63.84773         6     0.806     0.472 -54.74   0
       302    842.5425    369.9311 300.3604781 +22.7426950     292.8575     72.62128      1.332     3.30     4.052857     20.48345     46.42682         8     0.955     0.597 -46.84   0
       303    719.3334    369.3830 300.3222594 +22.7056405     525.6791     72.58429      1.192     2.36     4.429431     20.48345     81.72488        10     0.854     0.684 -57.50   0
       304    143.6001    369.7864 300.1429814 +22.5332224     483.9319     72.41762      1.214     2.88     4.417354     20.48345     61.19394         6     0.752     0.619  72.44   0
       305    367.8090    368.3718 300.2131526 +22.6000300     530.0448     72.60278      1.259     2.80     4.446334     20.48345     75.00481        10     0.918     0.687  79.30   0
       306    679.7850    362.7160 300.3121033 +22.6918795     1966.383     72.56579      1.185     2.06     4.337385     20.48345     324.9846        17     0.891     0.852  65.04   0
       307    488.0449    357.5342 300.2540831 +22.6329495     350.1148     72.60278      1.163     2.12     4.365128     20.48345     54.18835         6     0.729     0.493   7.92   0
       308    895.1196    355.6010 300.3815215 +22.7543178      688.493     72.49174      1.277     2.30     3.917665     20.48345     104.9226        10     0.788     0.773  61.29   0
       309    557.5258    354.7130 300.2766275 +22.6529566     359.8371     72.75058      2.004     4.24     4.328954     20.48345     35.11091         6     1.085     0.473  80.63   0
       310    341.5662    347.4224 300.2117898 +22.5861494     2164.641     72.62128      1.452     2.85     4.453987     20.48345     269.7708        22     1.264     0.898  61.84   0
       311    553.4193    346.0114 300.2781736 +22.6492266     419.4328     72.56579      1.457     3.83     4.340117     20.48345     52.99205         6     0.965     0.436  74.40   0
       312    780.6204    340.1468 300.3508469 +22.7155926     599.8726     72.58429      1.089     2.15     4.393569     20.48345      96.6664         9     0.756     0.699 -39.72   0
       313    663.0780    338.0750 300.3148980 +22.6797953     390.4215     72.71365      1.124     2.61      4.38758     20.48345     67.94478         7     0.841     0.531  46.23   0
       314    630.9360    337.0080 300.3052335 +22.6698613      345.793     72.58429      1.440     2.44     4.392753     20.48345     55.74336         6     0.734     0.545  56.95   0
       315    417.3538    326.7626 300.2420726 +22.6029294     1265.192     72.63976      1.247     2.33      4.42979     20.48345     175.9964        16     0.974     0.811  69.04   0
       316    224.5198    326.9397 300.1820407 +22.5451847     332.4285     72.65824      1.316     3.19     4.500274     20.48345     31.79343         6     0.778     0.500 -89.41   0
       317    928.8796    322.1737 300.4028991 +22.7548143     258.6845     72.60278      1.066     2.88     4.086863     20.48345      54.0969         6     0.889     0.446  53.25   0
       318    662.2682    318.7080 300.3209318 +22.6739877     2317.966     72.73212      1.214     1.90      4.46369     20.48345     374.4087        19     1.013     0.829  82.77   0
       319    923.5038    312.9470 300.4042175 +22.7505523     3151.427     72.67672      1.245     2.16     4.140599     20.48345     451.9826        22     1.000     0.962 -88.76   0
       320    470.0022    312.0369 300.2632351 +22.6144755      325.422     72.62128      1.033     1.97     4.431216     20.48345     57.00135         5     0.621     0.534  -0.05   0
       321    984.9642    307.3434 300.4252042 +22.7673375     415.4822     72.60278      1.205     2.61     4.394316     20.48345     70.19115         9     0.948     0.662 -64.20   0
       322    370.7259    302.4314 300.2354625 +22.5819691     639.3124     72.62128      1.171     2.64     4.466294     20.48345     93.11029        10     0.886     0.716  -0.52   0
       323    992.8883    300.6300 300.4298548 +22.7677787     1619.983     72.58429      1.335     2.36     4.468592     20.48345     258.8916        19     1.067     0.906 -54.04   0
       324     45.5498    296.9329 300.1361613 +22.4829141     1420.287     72.58429      1.579     3.40     4.421504     20.48345     155.5723        21     1.316     0.900 -16.46   0
       325     76.3093    297.0843 300.1456681 +22.4921807     556.3529     72.75058      1.256     2.40     4.449671     20.48345     90.96098         9     0.853     0.650 -20.04   0
       326    939.3013    293.4117 300.4154841 +22.7496640     412.6029     72.51026      1.142     3.09     4.299577     20.48345     60.83831         7     0.878     0.557  56.92   0
       327    919.7970    293.3789 300.4094125 +22.7438165     1675.709     72.54729      0.716     1.23     4.257885     20.48345     683.9826         7     0.527     0.453  63.17   0
       328    783.4568    290.3690 300.3678870 +22.7021345     367.5232     72.62128      1.303     3.00     4.387587     20.48345     43.75872         6     0.840     0.482  -1.71   0
       329    129.5123    288.8729 300.1648640 +22.5057755     549.4416     72.75058      1.415     2.23     4.469387     20.48345      70.4677         8     0.804     0.606  44.46   0
       330    924.2135    285.6026 300.4133135 +22.7429025     369.8077     72.43616      1.284     2.44     4.285621     20.48345     67.29001         6     0.796     0.616 -86.43   0
       331    805.6095    282.2660 300.3774208 +22.7064379     371.0954     72.58429      1.237     2.82     4.349215     20.48345     59.52835         9     0.964     0.692 -44.22   0
       332    733.9185    280.0913 300.3557857 +22.6843472     466.1373     72.73212      1.120     2.10     4.546008     20.48345     130.3915        10     0.831     0.650  84.61   0
       333    324.3677    279.5659 300.2284627 +22.5615104     322.6439     72.63976      1.256     3.03     4.498844     20.48345     76.45311         8     0.894     0.699 -55.33   0
       334    824.7493    272.7850 300.3864632 +22.7094426     256.7867     72.60278      1.190     2.16     4.346907     20.48345     54.08955         6     0.706     0.543  42.41   0
       335    832.1651    269.0515 300.3899863 +22.7105893     2053.574     72.62128      1.252     2.02     4.343906     20.48345     365.7178        19     1.021     0.840 -85.06   0
       336    250.5675    266.5160 300.2097473 +22.5356451     2149.536     72.56579      1.254     2.27     4.636194     20.48345     318.2509        21     1.070     0.903 -85.47   0
       337    328.3989    261.6680 300.2355241 +22.5575787     1047.414     72.56579      1.350     2.56     4.534738     20.48345     130.8014        13     0.943     0.805 -30.49   0
       338     80.7102    261.8995 300.1584521 +22.4834020     313.7869     72.76903      1.416     4.74     4.606169     20.48345     36.58953         7     0.946     0.674  78.82   0
       339    730.5100    260.8145 300.3609791 +22.6777860     517.1855     72.54729      1.147     2.58     4.583902     20.48345     88.06869        11     0.911     0.743  50.47   0
       340    837.3772    257.8814 300.3952357 +22.7089384     451.8777     72.56579      1.503     5.68     4.353327     20.48345     44.63851        11     1.121     0.835 -53.39   0
       341    145.1367    253.7255 300.1811239 +22.5003705     668.8653     72.63976      1.256     2.19     4.708602     20.48345     113.9729        13     1.015     0.712  86.61   0
       342    683.1456    250.4552 300.3495845 +22.6606258     1675.332     72.63976      1.158     2.03     4.628465     20.48345      280.774        15     0.896     0.813  35.52   0
       343    747.9205    249.9424 300.3699317 +22.6798740     468.1762     72.63976      1.115     1.80     4.574958     20.48345     113.1215         8     0.735     0.613 -55.69   0
       344    166.5343    247.1051 300.1899221 +22.5048842      581.738     72.73212      1.410     2.86     4.758175     20.48345     72.21234        11     0.972     0.718   9.79   0
       345    954.5450    242.7262 300.4366861 +22.7396514     928.3268     72.62128      1.268     2.40     4.491467     20.48345     133.5131        12     0.867     0.760  77.35   0
       346    607.6635    241.2932 300.3290475 +22.6353881      1247.44     72.71366      1.162     2.10     4.570482     20.48345      208.081        13     0.911     0.762 -60.68   0
       347    456.0921    242.9005 300.2813409 +22.5904486     386.2651     72.76903      1.403     3.68     4.446234     20.48345     43.06896         7     0.854     0.658 -53.83   0
       348    687.0715    241.9333 300.3535725 +22.6593521      737.139     72.63976      1.177     1.92     4.633738     20.48345      143.159        10     0.804     0.684  81.17   0
       349    428.8950    237.7594 300.2745456 +22.5808238     371.5315     72.62128      1.237     2.82     4.427029     20.48345     50.07269         8     0.804     0.675 -51.72   0
       350    533.8646    233.0513 300.3087436 +22.6109162     943.7777     72.63976      1.260     2.12     4.461464     20.48345     151.2231        11     0.878     0.776 -66.69   0
       351    815.1227    231.7886 300.3967653 +22.6947746     838.6523     72.60278      1.256     2.45     4.461572     20.48345     136.2527        13     1.005     0.725 -72.12   0
       352    803.0943    232.5329 300.3927747 +22.6913877      1411.62     72.75058      1.232     2.34     4.495229     20.48345     245.8912        18     1.004     0.919  19.86   0
       353    975.8834    222.6185 300.4498656 +22.7402544     1672.582     72.54729      1.272     2.21     4.660089     20.48345     264.5582        17     0.950     0.876 -71.41   0
       354    931.8614    221.9743 300.4363451 +22.7268948     1137.196     72.60278      1.242     2.18      4.40569     20.48345     193.5625        13     0.921     0.806 -69.73   0
       355    165.9277    215.3459 300.2000369 +22.4955845     702.9293     72.60278      1.432     2.70     4.938705     20.48345     82.67328        13     0.937     0.842 -14.34   0
       356     27.7494    210.3051 300.1587376 +22.4527150     2200.085     72.67672      1.401     2.65     4.644745     20.48345     256.8724        22     1.069     1.024  -7.40   0
       357    850.9828    206.8992 300.4160185 +22.6983527     734.2263     72.51026      1.263     2.31     4.377872     20.48345     140.1433        14     1.060     0.731  52.75   0
       358    185.1736    203.4301 300.2098844 +22.4979319     5737.383     72.60278      1.346     2.37     4.969357     20.48345     740.7116        33     1.206     1.039  49.86   0
       359    168.5317    194.3087 300.2076704 +22.4903250     578.3912     72.73212      1.269     3.18     5.005607     20.48345     69.24599         9     0.916     0.708  27.29   0
       360    984.0576    190.6234 300.4627953 +22.7334980     18171.27     72.60278      1.304     2.27     4.854172     20.48345     2963.437        47     1.171     1.081 -87.51   0
       361    829.2666    184.7709 300.4164275 +22.6854899     3554.509     72.60278      1.232     2.05     4.472888     20.48345     591.4106        24     1.067     0.906  89.45   0
       362    932.9648    183.4716 300.4491802 +22.7161519     2759.524     72.60278      1.255     2.10     4.518573     20.48345     448.9652        21     1.030     0.912 -88.10   0
       363    378.6135    180.1664 300.2775846 +22.5492159     633.5297     72.60278      1.264     2.55      4.72622     20.48345     87.15215         9     0.823     0.702  50.72   0
       364    493.3246    178.0544 300.3139654 +22.5829714     256.0748     72.63976      1.195     3.16     4.744534     20.48345     38.33674         5     0.800     0.477  35.87   0
       365    302.8102    171.8943 300.2566890 +22.5241284     695.1531     72.54729      1.523     2.60     4.876306     20.48345     92.90984         8     0.846     0.758  81.10   0
       366    306.8976    170.5899 300.2583832 +22.5249784     565.2392     72.49174      1.593     4.13     4.871674     20.48345     49.04071         8     0.972     0.595  73.24   0
       367     68.9707    169.1387 300.1848958 +22.4532561     569.3704     72.62128      1.365     2.87     4.970283     20.48345      76.4648        10     0.920     0.699 -24.59   0
       368    430.1195    167.3495 300.2977672 +22.5609635     1734.403     72.62128      1.248     2.13     4.796947     20.48345     262.4293        19     0.984     0.933  85.88   0
       369    358.0692    167.8266 300.2751959 +22.5395162     453.0059     72.60278      1.169     2.60     4.811889     20.48345     84.80392         7     0.823     0.621  -3.97   0
       370    491.5411    166.6327 300.3171150 +22.5791553     350.5678     72.62128      1.125     3.57     4.811184     20.48345     54.08669         8     0.985     0.634  31.34   0
       371    173.6361    162.9904 300.2194150 +22.4828625     348.3338     72.60278      1.249     2.70     5.106709     20.48345     65.45406         9     0.936     0.598 -40.00   0
       372    646.6367    161.1199 300.3671937 +22.6240167     278.2198     72.56579      1.098     3.46     4.825716     20.48345     39.90216         5     0.812     0.466 -37.18   0
       373    718.5791    156.8489 300.3909902 +22.6443281     282.9546     72.60278      1.058     2.18     4.866996     20.48345     66.80477         6     0.683     0.599 -36.10   0
       374    864.3184    150.9084 300.4383383 +22.6862432     312.7761     72.75058      1.391     3.28     4.409463     20.48345     53.76334         6     0.978     0.420  76.82   0
       375    204.1761    147.3865 300.2339689 +22.4875342     5929.427     72.60278      1.323     2.34      5.10458     20.48345     735.4613        39     1.220     1.066  72.23   0
       376    994.5519    147.9391 300.4799145 +22.7243599     3609.161     72.65824      1.338     2.35     5.073867     20.48345      448.407        24     1.116     0.941 -85.90   0
       377    710.5638    147.8511 300.3914113 +22.6393418     266.9596     72.62128      1.100     2.24     4.844346     20.48345      52.8028         7     0.789     0.573   8.53   0
       378     55.2174    146.6732 300.1879088 +22.4426842     709.7446     72.60278      1.462     3.17     5.130591     20.48345     88.88161        11     1.024     0.757  46.68   0
       379    833.5235    144.2989 300.4308821 +22.6751261     243.8628     72.75058      1.129     2.41     4.523971     20.48345     52.32128         5     0.684     0.464 -68.53   0
       380    175.8600    141.3068 300.2271385 +22.4773026     187.4345     72.67672      1.304     2.07     5.100827     20.48345     52.60665         6     0.695     0.594  76.92   0
       381    219.8767    138.5038 300.2417305 +22.4896882     188.5999     72.73212      0.967     2.83     5.099576     20.48345     48.97466         6     0.782     0.498   4.27   0
       382    450.2306    132.6088 300.3152928 +22.5570058     6126.987     72.60278      1.240     2.07     4.845591     20.48345     1001.611        34     1.139     0.983  78.99   0
       383    335.5669    132.4189 300.2796798 +22.5226036     548.0438     72.60278      1.149     2.72     4.947236     20.48345     95.40995        11     0.998     0.682 -82.67   0
       384    470.9929    127.0182 300.3235674 +22.5616179     267.6035     72.56579      1.249     4.28     4.849225     20.48345     40.11098         6     1.042     0.500  80.13   0
       385    702.6052    122.6128 300.3971170 +22.6297034     937.0042     72.47322      1.674     5.71     4.799917     20.48345     118.4789        18     1.794     0.840 -65.09   0
       386    644.2473    123.6459 300.3786033 +22.6125294     145.6091     72.62128      1.105     3.46     4.805155     20.48345     38.26532         5     0.915     0.418  82.34   0
       387    795.4280    120.6397 300.4266810 +22.6569207     317.0787     72.65824      0.966     2.34     4.697856     20.48345     82.48499         6     0.828     0.437 -70.74   0
       388    143.2682    116.5340 300.2250421 +22.4604216     453.6327     72.65824      1.283     4.49     5.075989     20.48345      61.0278         8     0.865     0.718  46.94   0
       389    501.5023    114.8669 300.3370039 +22.5672633     389.8355     72.69519      1.295     3.01     4.844575     20.48345     64.70055         7     0.920     0.483  80.46   0
       390    578.5632    112.5659 300.3617410 +22.5896779     6076.552     72.67672      1.189     2.20      4.82881     20.48345     896.4719        29     1.108     0.936  88.10   0
       391    353.4250    111.5681 300.2919962 +22.5219635     1355.735     72.60278      1.208     2.25     4.983312     20.48345      195.971        16     0.977     0.850  76.41   0
       392    619.8515    109.9075 300.3754604 +22.6012761     811.7922     72.65824      1.270     2.10     4.816809     20.48345     140.9146        13     0.993     0.717 -88.45   0
       393    689.5352    107.4870 300.3979504 +22.6214421     395.4669     72.69519      1.497     4.14     4.773637     20.48345     45.08277         7     0.898     0.654 -67.12   0
       394    635.6366    106.1551 300.3815934 +22.6049234      612.533     72.63976      1.254     2.45     4.802138     20.48345     87.15784        10     0.887     0.704  40.70   0
       395    102.2915    104.3039 300.2162738 +22.4446293     786.7524     72.78748      1.649     2.57      5.06641     20.48345     87.04655        12     0.921     0.787  64.64   0
       396    944.6129    103.2583 300.4788290 +22.6965651     302.8518     72.56579      1.278     3.43     4.667987     20.48345     43.94761         5     1.018     0.335  68.40   0
       397    905.5691    103.0890 300.4667083 +22.6848341     540.6786     72.58429      1.216     3.01     4.540912     20.48345     71.27776         8     0.876     0.591  78.03   0
       398    674.0334    101.2544 300.3951424 +22.6150096     496.3125     72.62128      1.206     2.71     4.764812     20.48345     80.19209        11     0.917     0.774 -29.06   0
       399    622.7986     97.4068 300.3804319 +22.5985650     2761.781     72.41762      1.244     2.31      4.81149     20.48345     395.0484        24     1.067     0.938 -87.85   0
       400    637.9502     96.3940 300.3854792 +22.6028100     887.8771     72.58429      1.656     4.55     4.797402     20.48345     105.9592        16     1.541     0.744  50.94   0
       401    263.5940     98.2926 300.2683624 +22.4912381     341.1284     72.51026      1.154     1.89     5.079519     20.48345     62.87873         5     0.660     0.459 -68.56   0
       402    709.2723     88.9748 300.4101021 +22.6220278     1540.011     72.62128      1.237     2.07     4.758716     20.48345     235.7295        15     0.979     0.783  83.19   0
       403    869.3776     87.2070 300.4605741 +22.6694364     404.9426     72.58429      1.385     2.95     4.498596     20.48345     38.88332         5     0.714     0.466  75.81   0
       404    787.3040     83.5958 300.4361615 +22.6438366     280.3091     72.51026      1.061     2.17     4.747692     20.48345       62.589         5     0.707     0.450 -79.70   0
       405    647.1412     82.0051 300.3930075 +22.6014250     768.1386     72.56579      1.349     2.21     4.799019     20.48345     118.8388        13     0.977     0.768  79.81   0
       406    452.8944     81.7070 300.3326275 +22.5431769     1020.517     72.76903      1.182     2.02     4.882551     20.48345     168.5076        14     0.912     0.777  79.47   0
       407    356.6803     79.9667 300.3032555 +22.5138596     746.4374     72.56579      1.246     2.39     5.013673     20.48345     124.8617        11     0.827     0.807 -28.82   0
       408     25.6781     81.3501 300.1999138 +22.4150764     480.8219     72.60278      1.537     3.24     5.968788     20.48345     82.23494         8     0.935     0.760  66.21   0
       409    739.0334     78.2184 300.4228627 +22.6278430     300.9645     72.58429      1.223     3.18     4.755666     20.48345     51.43164         8     0.831     0.650 -39.36   0
       410    999.5084     76.3140 300.5046885 +22.7052367     2285.399     72.76903      1.304     2.37     5.092793     20.48345     287.9745        20     1.069     0.903  86.19   0
       411    652.8264     76.3979 300.3965963 +22.6015148     167.8452     72.54729      1.053     3.81     4.792647     20.48345     35.18056         5     0.882     0.532  51.39   0
       412    128.0538     69.9023 300.2354332 +22.4424714     3876.466     72.69519      1.449     2.33     5.080623     20.48345     510.2469        31     1.216     1.076  63.53   0
       413    696.0967     70.0490 300.4121339 +22.6126422     509.6553     72.65824      1.205     2.36     4.754045     20.48345     102.4197         9     0.906     0.627 -89.77   0
       414    550.5462     66.6756 300.3678975 +22.5680986     319.9412     72.63976      1.410     3.20      4.89834     20.48345      44.9045         5     0.964     0.348 -66.69   0
       415    244.0397     61.9532 300.2740642 +22.4749413     1244.067     72.65824      1.323     2.58     5.077027     20.48345     174.5119        15     0.952     0.887  46.33   0
       416    689.4003     61.8983 300.4126904 +22.6082942       819.74     72.47322      1.213     2.92     4.752078     20.48345      146.075        11     0.954     0.802  13.26   0
       417    655.0349     61.1277 300.4022352 +22.5977857     321.4034     72.60278      1.358     2.88     4.796051     20.48345     50.42887         5     0.938     0.373  60.00   0
       418    782.8051     57.8508 300.4431067 +22.6350863     204.1006     72.58429      1.516     3.67     4.746678     20.48345     28.22382         5     1.147     0.337 -79.07   0
       419    727.0759     57.2345 300.4259404 +22.6182300     701.1742     72.60278      1.402     3.71     4.750849     20.48345      89.4877        12     1.164     0.657  70.36   0
       420    650.5333     56.7109 300.4022650 +22.5951683     449.7408     72.71366      1.198     2.55     4.808414     20.48345     71.28197         9     0.866     0.725 -75.94   0
       421    747.1432     53.3314 300.4334587 +22.6231137     2191.913     72.62128      1.251     2.23     4.749098     20.48345     345.5628        20     1.015     0.906  67.12   0
       422    453.0537     51.7593 300.3423865 +22.5346183     404.3688     72.56579      1.254     2.22     4.946529     20.48345     86.85332         9     0.854     0.635  71.88   0
       423    130.3801     48.9408 300.2429515 +22.4371488     1079.699     72.54729      1.520     3.07     5.086102     20.48345     129.1884        19     1.161     1.015 -76.98   0
       424    922.0875     46.8093 300.4901076 +22.6735868     773.3513     72.52878      1.271     1.90     4.306926     20.48345     146.2575        13     1.002     0.752  50.14   0
       425    695.7461     45.9103 300.4198507 +22.6055965      922.903     72.63976      1.189     2.45     4.748145     20.48345     136.8824        10     0.851     0.710 -62.04   0
       426    402.5023     44.4057 300.3290401 +22.5173661     322.4312     72.51026      1.441     3.20     4.987294     20.48345     59.95286         5     0.783     0.426  66.46   0
       427    308.1678     38.8191 300.3015057 +22.4875062     204.6024     72.60278      1.509     5.38     5.066851     20.48345     26.07848         6     1.351     0.605  76.72   0
       428    453.1842     38.5748 300.3467013 +22.5308682     291.8622     72.62128      0.992     3.37     4.974253     20.48345      40.1923         5     0.748     0.439 -21.99   0
       429    280.0728     35.5038 300.2938430 +22.4781379     509.9012     72.73212      1.767     4.97     5.084094     20.48345     51.00518        12     1.211     1.115  70.62   0
       430    548.0554     30.8432 300.3787386 +22.5570528      976.188     72.60278      1.373     2.20     4.978301     20.48345     146.9081        12     0.927     0.768  58.73   0
       431    780.3163     29.9366 300.4513808 +22.6263133     288.5774     72.69519      1.275     2.77     4.744708     20.48345     57.16915         7     0.845     0.666  24.22   0
       432    157.2978     28.1305 300.2580631 +22.4392377     516.8443     72.73212      1.310     3.31     5.087469     20.48345     77.85135         8     0.951     0.598 -85.77   0
       433    341.9933     26.4102 300.3160492 +22.4940726     344.8936     72.47322      1.821     3.72     5.032835     20.48345     39.85191         6     0.950     0.735  62.03   0
       434    711.4545     25.6812 300.4313025 +22.6044811     774.6938     72.63976      1.356     2.92     4.743228     20.48345     90.52898        13     0.983     0.853  10.41   0
       435    519.7836     23.8884 300.3721915 +22.5465890     1729.794     72.52878      1.243     2.19     4.992771     20.48345     298.8933        18     1.024     0.876 -86.06   0
       436    242.6569     21.3193 300.2868064 +22.4628545     628.7568     72.63976      1.229     2.77     5.076831     20.48345     86.61431        12     1.004     0.722 -89.55   0
       437    477.1924     17.7803 300.3609140 +22.5320807     1265.822     72.56579      1.220     2.15     5.005092     20.48345       212.35        15     0.903     0.854  50.38   0
       438    609.0882   1019.7668 300.0764965 +22.8593224      6701.63     72.34342      1.645     3.27     3.686379     20.48345     509.7112        40     1.306     1.275 -87.29  16
       439    177.4581     13.6534 300.2690220 +22.4411197     472.3562     72.65824      1.207     2.50     5.085517     20.48345     65.12943         8     0.822     0.654   7.81   0
       440    121.1967   1016.7518 299.9257287 +22.7120302     1617.677     72.58429      9.597    16.92     27.92428     20.48345     46.03212        55     3.317     2.399 -77.81  16
       441     73.0801   1018.3346 299.9102656 +22.6980351     1045.842     72.71366      6.573     7.49     45.09237     20.48345     49.13321        12     2.198     0.715  28.67  19
       442     71.5207   1021.9709 299.9085977 +22.6986087      583.803     65.30078      1.840     3.51     47.30265     20.48345     35.45572         5     1.101     0.323 -69.04  19
       443    200.2749   1014.1614 299.9511454 +22.7350306     774.6067     72.56579      2.321     4.51     10.60911     20.48345     75.48022        16     1.330     1.048 -19.70   0
       444    488.9506   1014.3099 300.0408760 +22.8217145     450.1748     72.60278      1.433     3.22     2.577991     20.48345     50.96208         6     0.993     0.497 -52.09   0
       445    760.6729   1013.3524 300.1257986 +22.9029468     431.3362     72.60278      1.985     4.67     2.543933     20.48345     42.50692         7     1.153     0.536 -43.15   0
