#   1 NUMBER                 Running object number                                     
#   2 X_IMAGE                Object position along x                                    [pixel]
#   3 Y_IMAGE                Object position along y                                    [pixel]
#   4 ALPHA_J2000            Right ascension of barycenter (J2000)                      [deg]
#   5 DELTA_J2000            Declination of barycenter (J2000)                          [deg]
#   6 FLUX_APER              Flux vector within fixed circular aperture(s)              [count]
#   7 FLUXERR_APER           RMS error vector for aperture flux(es)                     [count]
#   8 FLUX_RADIUS            Fraction-of-light radii                                    [pixel]
#   9 FWHM_IMAGE             FWHM assuming a gaussian core                              [pixel]
#  10 BACKGROUND             Background at centroid position                            [count]
#  11 THRESHOLD              Detection threshold above background                       [count]
#  12 FLUX_MAX               Peak flux above background                                 [count]
#  13 ISOAREA_IMAGE          Isophotal area above Analysis threshold                    [pixel**2]
#  14 A_IMAGE                Profile RMS along major axis                               [pixel]
#  15 B_IMAGE                Profile RMS along minor axis                               [pixel]
#  16 THETA_IMAGE            Position angle (CCW/x)                                     [deg]
#  17 FLAGS                  Extraction flags                                          
         1    689.0622     16.3587 300.3929604 +22.6015565      670.912     72.25304      1.395     2.95     6.984664     20.38997     78.56753        11     1.004     0.727  80.31   0
         2    494.6479     15.6072 300.3326191 +22.5431799      1080.81     72.27145      1.520     2.80     6.797557     20.38997     141.9302        17     1.131     1.003 -72.27   0
         3     67.6421     14.5918 300.2000606 +22.4150674     677.6503     72.28986      2.322     6.40     6.452448     20.38997     56.26554        10     1.556     0.758 -83.47   0
         4    398.4425     13.6551 300.3032901 +22.5138298     761.5159     72.27145      1.473     4.53      6.03316     20.38997     74.20876        14     1.207     0.934  39.40   0
         5    780.2455     12.3959 300.4226770 +22.6276865       406.73     72.25304      1.473     3.33     6.374574     20.38997     50.20195         7     1.138     0.536  52.28   0
         6    737.8513      4.4082 300.4120439 +22.6127101     640.0826      70.1415      1.671     3.97     6.439418     20.38997      75.7394        14     1.234     0.911  47.75  16
         7    169.8760      3.5015 300.2354466 +22.4424930     3561.186     67.03806      1.700     3.29     6.602797     20.38997     363.6425        38     1.447     1.253   8.63  24
         8      5.7630   1008.4838 299.8582083 +22.6817244     1060.403     72.25304      3.941     3.82   -0.9745544     20.38997     30.76473         5     1.027     0.407  82.53  16
         9     84.6399   1010.8500 299.8819553 +22.7060742     4937.757     72.30826     15.702    91.90      78.7476     20.38997     168.7821      2089    17.258    14.824  45.41  27
        10    166.3636    980.3795 299.9172767 +22.7218597     1412.572     72.28986      3.750    10.45      64.7144     20.38997     52.78661        33     2.252     1.351   0.71   3
        11    166.8268    975.8630 299.9188897 +22.7207036     1326.627     72.27145      3.781    10.11     61.28763     20.38997     62.16014        30     2.806     1.015  10.60   3
        12    496.7407    975.5549 300.0216652 +22.8195619     309.3249     72.28986      1.545     4.33     4.668914     20.38997     32.01379         5     1.150     0.464  58.45   0
        13    926.0018    970.3973 300.1571602 +22.9467243     608.2667     72.05021      2.359     6.25     4.119607     20.38997      46.8971        10     1.511     0.729  82.25   0
        14    228.6111    999.7681 299.9303315 +22.7460939     856.7188     72.27145      2.238     6.50     77.86106     20.38997     59.55605        15     1.593     1.067  51.73   0
        15    141.8010    955.7915 299.9176350 +22.7074402     1682.011     72.08713      8.610    12.00     44.76189     20.38997     84.98018        34     2.476     1.619  56.18   3
        16    650.0298    953.9054 300.0764640 +22.8592991      6904.53     72.17934      2.073     4.61     4.454597     20.38997     341.9281        51     1.634     1.540  28.19   0
        17    353.2339    996.4658 299.9701833 +22.7825281     552.5366     72.27145      1.973     4.52     4.895608     20.38997     32.95045         5     1.289     0.450  32.37   0
        18    146.3773    956.0648 299.9189692 +22.7088916     1665.819     72.25304     11.596    14.94     44.77636     20.38997     50.59064        45     2.924     2.123  44.93   3
        19    529.1841    948.2540 300.0406496 +22.8214540      459.489     72.23462      1.844     5.80     4.525219     20.38997     35.73882         6     1.098     0.863  17.59   0
        20    197.9263    985.9775 299.9252724 +22.7329340     3897.422     72.28986      7.416    24.83     69.26456     20.38997     78.66348       251     4.992     4.672  53.33   3
        21    802.5172    948.2709 300.1258362 +22.9033761     458.2521     72.40019      2.228     5.53     4.309475     20.38997     32.34995         6     1.325     0.649  20.72   0
        22    558.4449    944.5605 300.0509659 +22.8291655     1590.635     72.34505      1.994     5.37      4.44939     20.38997      98.1358        30     1.524     1.376 -64.92   0
        23    452.4589    940.9455 300.0191313 +22.7963544     1021.789     72.32665      1.981     4.40     4.759494     20.38997     76.62971        21     1.249     1.181 -36.02   0
        24    382.9734    938.9064 299.9981609 +22.7749346     6443.386     72.19778      2.042     4.49      5.05639     20.38997     420.2689        48     1.599     1.477  15.60   0
        25    217.6086    983.8414 299.9320893 +22.7382260     4683.116     72.28986      7.935    25.96      66.9951     20.38997     89.98184       355     5.979     5.021 -60.59   3
        26    236.4092    973.4347 299.9413224 +22.7408815     7483.607     72.25304      8.243    32.54     47.48608     20.38997     156.6721       701    10.349     4.884  59.80  18
        27    199.7033   1002.8549 299.9203355 +22.7383066     1350.731     72.36343      3.885    10.92     84.98637     20.38997     41.07042        21     3.388     0.981  -3.14  19
        28    416.3162    925.7460 300.0128207 +22.7811565     470.6308     72.30826      1.858     6.72     4.937001     20.38997     41.32065        10     1.276     0.993 -74.46   0
        29    929.4804    917.9410 300.1753068 +22.9326989     2253.762     72.34505      2.163     5.23     4.970627     20.38997      103.862        35     1.497     1.483  33.62   0
        30    631.8774    986.8367 300.0600956 +22.8633108     8909.072     72.23462      2.186     4.96     4.502204     20.38997     443.9382        49     1.670     1.491  13.34   3
        31    427.1462    913.5659 300.0201532 +22.7809088     278.5908     72.28986      1.519     3.89     4.951659     20.38997     34.76562         5     1.338     0.324  50.72   0
        32    637.3121    984.6376 300.0625046 +22.8643086     9203.586     72.25304      2.102     4.94     4.494066     20.38997     460.6574        53     1.678     1.542  58.83   3
        33    718.3204    906.7995 300.1130698 +22.8662403     871.0692     72.14247      2.437     7.43     4.558488     20.38997     44.48599        16     1.652     0.935  25.98   0
        34    545.2230    991.4205 300.0316057 +22.8386499     2378.073     72.27145      2.112     5.38     4.453835     20.38997     128.3574        33     1.478     1.393  28.89   0
        35    752.7045    901.0952 300.1256449 +22.8749048     1001.577     72.43694      1.893     5.90     4.637523     20.38997     55.55872        21     1.408     1.112  23.67   0
        36    170.5524    997.4990 299.9130113 +22.7280251     3185.547     72.30826      7.057    26.97     79.15447     20.38997       66.533       230     5.443     4.429  85.22  18
        37    198.2556    897.7357 299.9540704 +22.7077268     517.7355     72.32665      5.527     5.03     12.33228     20.38997     31.81797         5     1.103     0.648  27.38   0
        38    204.5927    893.9731 299.9572649 +22.7085484     755.9495     72.27145      7.666     7.42     11.09611     20.38997     27.97103         8     1.873     0.824  84.49   0
        39    821.1743    894.6299 300.1490993 +22.8935611     600.3597     72.27145      2.007     7.33     4.717691     20.38997     35.36982        12     1.561     0.964  -5.36   0
        40    775.2505    894.6310 300.1347770 +22.8798034     11452.57     72.30826      1.958     4.35     4.703523     20.38997     683.7908        57     1.558     1.518  22.10   0
        41    827.2666    882.7715 300.1548554 +22.8919803     391.4025     72.25304      2.079     6.66     4.817233     20.38997     35.31517         8     1.340     0.929  -4.47   0
        42    479.6679    882.4875 300.0466132 +22.7877360     515.5164     72.38181      2.126     5.36     4.770237     20.38997     26.15353         8     1.090     0.744  34.59   0
        43    198.3287   1005.9660 299.9188960 +22.7387863      943.063     72.27145      3.096    12.38     87.70554     20.38997     39.94283        21     2.492     1.712 -86.47   3
        44    783.7653    876.8091 300.1432271 +22.8772363     1491.293     72.25304      2.056     5.03     4.851232     20.38997     83.09788        27     1.414     1.266  58.94   0
        45     86.7166    885.8088 299.9232634 +22.6708473     1075.755      72.2162      5.935     7.15     10.65151     20.38997     51.99878        18     1.718     1.154 -26.60   0
        46    636.1257    873.7308 300.0982024 +22.8321158     436.6912     72.34505      1.663     5.38     4.463248     20.38997     43.49516         8     1.210     0.675 -81.17   0
        47    821.8990    870.3130 300.1572320 +22.8867942     970.1306     72.43694      2.134     5.47      4.93285     20.38997     48.27956        17     1.177     1.079 -26.14   0
        48    931.9911    867.3574 300.1925387 +22.9189197     331.9154     72.28986      2.110     4.63     5.001103     20.38997     27.59504         5     1.055     0.578  75.33   0
        49    870.4349    862.0803 300.1750486 +22.8989676     616.3265      72.2162      1.915     6.49     4.961369     20.38997     49.29746        11     1.434     0.826   8.12   0
        50    721.6339    860.2511 300.1292379 +22.8538670     782.4538     72.28986      2.019     7.28     4.767404     20.38997     54.78568        17     1.669     1.027  29.49   0
        51    732.9473    857.8962 300.1335307 +22.8565803     573.2273     72.34505      1.721     6.52     4.810253     20.38997      46.6446        12     1.316     0.908  27.31   0
        52    434.2369    856.5961 300.0408838 +22.7666863     4269.132     72.30826      1.894     4.03     5.112739     20.38997     332.1948        38     1.430     1.402 -35.95   0
        53    213.7603    845.9576 299.9757262 +22.6975255     322.6956     72.36343      2.026     3.89     6.497003     20.38997     32.16894         5     0.840     0.515 -41.28   0
        54     74.5137    946.1797 299.8998403 +22.6844959     5387.941     72.19778     30.311     7.83     27.35532     20.38997     1261.326      4402    21.326    17.215 -65.60  27
        55    477.9864    844.1691 300.0585471 +22.7762342     342.1742     72.25304      1.320     4.28     4.835934     20.38997     34.19224         6     1.209     0.432  53.68   0
        56    159.3558    842.1805 299.9600326 +22.6801251     758.8522     72.28986      2.019     5.62     8.069163     20.38997     56.12135        14     1.336     1.089  -4.25   0
        57    136.6577    839.3182 299.9539045 +22.6724960     1636.423     72.32665      1.996     5.06     7.246861     20.38997     108.1115        30     1.520     1.338 -15.37   0
        58   1008.4523    828.7665 300.2289487 +22.9307276     2269.383     72.28986      2.015     4.81      5.00224     20.38997      114.374        34     1.550     1.346  47.68   0
        59    962.7140    826.9763 300.2152547 +22.9165180     2253.113     72.23462      2.047     5.27      5.00224     20.38997     121.5083        34     1.614     1.399 -18.72   0
        60    747.1657    820.9299 300.1499812 +22.8502236     533.5505     72.27145      1.417     3.56     4.806471     20.38997     41.98119         5     1.107     0.331  80.73   0
        61    169.2234    820.6447 299.9701015 +22.6769074     482.1802     72.30826      1.889     5.33     6.719578     20.38997     31.46908         9     1.030     0.787 -89.84   0
        62    614.2739    814.8489 300.1105346 +22.8086620     4966.759     72.27145      1.749     3.71     4.534495     20.38997     395.3039        38     1.344     1.336  18.92   0
        63    104.6355    814.7529 299.9519321 +22.6558455     395.7924     72.28986      1.799     4.01     5.889607     20.38997     34.79147         5     0.985     0.467  82.41   0
        64    416.3412    812.0057 300.0498065 +22.7485245     565.0833     72.23462      1.828     4.60     5.231638     20.38997     58.31305        15     1.277     1.086  44.13   0
        65    164.4377    808.1924 299.9726603 +22.6719003     1437.388     72.28986      1.987     4.56     6.032707     20.38997     113.3133        29     1.588     1.279  21.50   0
        66    634.6993    807.5153 300.1192835 +22.8126765     809.8977     72.43694      1.697     4.88     4.557889     20.38997     58.62346        15     1.161     0.946  43.22   0
        67    183.9949    805.2088 299.9797126 +22.6769097     455.4491     72.12403      1.884     5.77     5.792931     20.38997     38.87197         9     1.222     0.767  26.34   0
        68   1007.5983    794.9348 300.2396797 +22.9207496     1166.452     72.27145      1.970     5.41     5.033815     20.38997     70.07567        25     1.393     1.312 -53.23   0
        69    790.3232    794.6194 300.1719911 +22.8555942     4374.668     72.27145      1.825     3.86     4.855013     20.38997     306.1288        39     1.436     1.311  23.19   0
        70    198.2210    789.1667 299.9893511 +22.6765739     439.7636     72.27145      1.810     6.85     5.570091     20.38997     48.93315        12     1.487     0.884 -11.88   0
        71    506.8415    787.3130 300.0860146 +22.7685622     620.5786     72.25304      1.793     5.50     4.958938     20.38997     53.84885        11     1.221     0.698   7.88   0
        72    153.5742    784.6571 299.9769307 +22.6618910     1045.515     72.27145      1.917     5.94     5.568531     20.38997     70.57777        26     1.483     1.384  65.94   0
        73    569.1926    780.3665 300.1076955 +22.7852528     598.3337     72.27145      1.738     4.47     4.904436     20.38997     45.40647        12     1.091     0.864  -2.97   0
        74    303.3114    776.9472 300.0260180 +22.7045786     54004.67     72.28986      1.838     3.69     5.486412     20.38997     4490.583        94     1.569     1.523  36.45   0
        75    561.2903    776.1132 300.1066158 +22.7816637     1654.682     72.43694      1.782     3.83     4.958485     20.38997     138.5373        28     1.382     1.197  -6.17   0
        76    973.9918    775.8040 300.2354081 +22.9051902     821.6246     72.10558      1.866     5.20     5.133801     20.38997     58.86124        18     1.331     1.028  18.40   0
        77    231.7771    775.1912 300.0043312 +22.6826267     579.5681     72.27145      1.851     6.38     5.500603     20.38997     43.94724        12     1.130     1.011  -0.94   0
        78    590.1613    772.3362 300.1168385 +22.7892302     916.2147     72.25304      1.858     3.84     4.936356     20.38997     73.93389        18     1.181     1.002 -26.78   0
        79    600.6638    770.5671 300.1206859 +22.7918691      678.444     72.27145      1.671     5.84     4.925709     20.38997     58.12418        15     1.257     0.958  40.64   0
        80    707.8795    769.6785 300.1543910 +22.8237350     2459.878     72.40019      0.520     3.12     4.787543     20.38997     1950.099        10     1.040     0.272  68.55   0
        81    353.0434    754.2238 300.0488802 +22.7129665        31882     72.32665      1.786     3.60     5.388147     20.38997     2669.591        80     1.527     1.472  15.38   0
        82    367.3463    754.7649 300.0531565 +22.7174092     2145.603     72.28986      1.835     3.94     5.365098     20.38997     159.6136        28     1.323     1.208  44.40   0
        83    876.1010    750.4161 300.2131129 +22.8685842     2836.193     72.17935      1.793     3.90     5.181264     20.38997     197.8631        35     1.393     1.337  49.73   0
        84    364.0811    748.3729 300.0542172 +22.7145959     776.1251     72.27145      2.231     5.87     5.375998     20.38997     50.18723        15     1.186     1.099  46.36   0
        85    633.9996    746.3967 300.1389289 +22.7949159     982.0694     72.05021      1.726     4.32     5.089091     20.38997     78.39159        23     1.332     1.163  63.53   0
        86    235.4331    745.8327 300.0150086 +22.6752992     871.4294     72.34505      1.759     4.54     5.368105     20.38997     80.14173        16     1.320     0.845  18.10   0
        87    481.1273    741.2798 300.0929653 +22.7476407     881.1943     72.40019      1.691     4.10     5.282483     20.38997     65.68972        17     1.189     1.031  41.98   0
        88    733.3776    987.9611 300.0913674 +22.8940544     623.7566     72.30826      2.677     5.66      4.45672     20.38997     38.45852         8     1.369     0.659  88.02   2
        89    882.6049    738.2550 300.2190940 +22.8670373      594.535     72.27145      1.864     4.92     5.266648     20.38997     40.10736        14     1.234     0.908  46.13   0
        90    744.2210    757.4130 300.1697074 +22.8310979     897.3118     72.25304      1.846     3.88     4.846957     20.38997     69.47993        16     1.180     0.941 -30.65   0
        91    383.0866    737.2452 300.0637492 +22.7170988     375.6389     72.25304      1.459     4.88     5.357649     20.38997     34.35253         5     0.895     0.753  -2.77   0
        92    427.0288    736.3887 300.0777083 +22.7300235     453.7336     72.27145      1.521     3.68       5.3106     20.38997     56.61451         6     0.976     0.485  -3.11   0
        93     69.3782    735.0963 299.9668558 +22.6224233      537.798     72.17935      1.996     5.12     5.505602     20.38997     39.24667         7     1.130     0.656 -84.26   0
        94    233.2488    730.4565 300.0193251 +22.6702323     632.1425     72.30826      1.942     5.11     5.336362     20.38997     60.36702        15     1.278     1.178  -4.02   0
        95    556.5192    721.2964 300.1229424 +22.7644942     409.0607     72.40019      1.509     4.20      5.39096     20.38997     45.21902         7     0.862     0.699 -13.63   0
        96    526.5927    719.0316 300.1143555 +22.7548770     654.9306     72.27145      1.614     4.00      5.37755     20.38997     62.12677         9     0.901     0.720 -16.54   0
        97    942.6412    715.6815 300.2451622 +22.8785257     4628.033     72.23463      1.860     4.00      5.58584     20.38997     301.8081        43     1.475     1.417 -70.80   0
        98    435.3353    718.4451 300.0861249 +22.7273619     265.5462     72.28986      1.190     4.92     5.365145     20.38997     37.70312         7     1.265     0.542 -23.50   0
        99    548.0724    716.5864 300.1218413 +22.7606109      1283.58     72.27145      1.596     3.76     5.398455     20.38997     136.9203        18     1.260     0.947  25.08   0
       100    467.9932    716.9226 300.0967892 +22.7367118     307.6846     72.19778      1.348     3.57     5.368175     20.38997     36.69342         5     0.984     0.374 -31.00   0
       101    931.3532    707.0402 300.2444474 +22.8726628     1776.695     72.32665      1.876     7.03     5.691613     20.38997     111.9682        27     1.748     1.159 -42.09   0
       102    294.1147    700.6678 300.0479412 +22.6799310     857.8727     72.36343      1.708     3.53     5.498768     20.38997     80.88583        17     1.167     1.018 -22.15   0
       103    757.5223    698.3708 300.1930399 +22.8181208     2528.156     72.27145      1.812     3.64     5.425397     20.38997     204.2718        34     1.607     1.176   3.22   0
       104    962.3066    697.3300 300.2572622 +22.8791385     1639.374     72.40019      1.887     4.55     5.809138     20.38997     115.7161        27     1.395     1.290  50.76   0
       105    839.5726    684.2499 300.2232171 +22.8386339     652.8709     72.28986      1.685     5.64     5.645719     20.38997     47.01702        11     1.110     0.807  10.62   0
       106    142.9498    684.5021 300.0061680 +22.6299719     516.6954     72.34505      1.940     4.40     5.489415     20.38997     51.16331         7     0.971     0.650 -19.98   2
       107    875.8972    675.3323 300.2374459 +22.8469473     148926.5     72.38181      1.740     3.52     5.730289     20.38997     11495.35       163     1.588     1.559 -66.00   0
       108   1022.5721    677.2433 300.2825995 +22.8914041     992.3613     62.17838      1.636     4.73     6.044189     20.38997     97.94871        19     1.353     1.012  71.13  24
       109    638.3173    678.8898 300.1622083 +22.7768208     375.2907     72.38181      1.524     4.61     5.828022     20.38997     34.31031         7     1.023     0.615  73.10   0
       110    728.4014    675.9847 300.1912329 +22.8029681     748.5183     72.12403      1.518     2.87     5.654289     20.38997     89.44907        12     1.009     0.744   7.89   0
       111    909.1138    668.6281 300.2499876 +22.8549651     319.6489     72.27145      1.466     4.00     5.946949     20.38997     45.47172         7     0.897     0.572  28.44   0
       112    562.1314    664.0682 300.1432831 +22.7497413     1635.987     72.32665      1.533     3.40     5.776676     20.38997     143.7088        22     1.129     1.121 -73.06   0
       113    743.3420    661.3993 300.2006294 +22.8032521     9416.014     72.23463      1.652     3.34     5.710307     20.38997     886.7962        46     1.338     1.300  65.56   0
       114    225.0155    663.0287 300.0386686 +22.6484147     374.6523     72.28986      1.643     3.77     5.461854     20.38997     32.37346         5     0.677     0.602  -0.26   0
       115    244.8221    656.3209 300.0470094 +22.6524272     4925.304     72.25304      1.731     3.47     5.568367     20.38997     427.8388        37     1.381     1.277  55.33   0
       116    326.9516    654.4556 300.0731721 +22.6765095     1184.339     72.30826      1.663     3.51     5.701405     20.38997     111.0121        18     1.122     1.026  15.64   0
       117    535.2652    649.9158 300.1395105 +22.7376281     698.9749     72.38181      1.453     3.82     5.841279     20.38997     71.22295        13     1.104     0.813  46.81   0
       118    526.8478    642.0380 300.1394472 +22.7328440     3102.667     72.28986      1.572     3.19     5.922874     20.38997     282.1455        29     1.231     1.179  68.27   0
       119    516.9255    636.0006 300.1383173 +22.7281375     1427.167     72.16091      1.475     3.62     5.983472     20.38997     137.7549        22     1.275     1.033  37.00   0
       120    445.6256    635.1772 300.1163788 +22.7065386     361.3945     72.23462      1.616     4.43     5.971587     20.38997       28.938         7     1.223     0.456  22.65   0
       121    910.3727    634.0543 300.2616115 +22.8454048     516.8543     72.27145      2.052     4.78     5.830118     20.38997     42.82589         8     1.288     0.502  47.66   0
       122    180.5458    632.1771 300.0348561 +22.6262295     677.4036     72.28986      1.669     3.69     5.697574     20.38997     63.36241        13     1.026     0.870   3.53   0
       123    194.6825    630.5885 300.0397692 +22.6300116     745.9459     72.23463      1.780     5.23       5.6968     20.38997     59.95657        13     1.231     0.934  20.26   0
       124    964.1251    627.8740 300.2803933 +22.8597181     464.6529     72.34505      1.374     3.83     5.852979     20.38997     48.45046         8     0.838     0.658  42.82   0
       125    441.8145    625.5456 300.1183202 +22.7026311     1681.055     72.27145      1.656     3.69     6.082922     20.38997     149.2015        24     1.213     1.156  34.21   0
       126    220.6893    627.0994 300.0489924 +22.6368064     441.0167     72.43694      1.446     3.60     5.712224     20.38997     52.11657        10     1.020     0.654  23.07   0
       127    540.9238    626.1909 300.1489792 +22.7325097     462.0399     72.25304      1.535     3.80     6.108376     20.38997     44.95037         8     0.962     0.727  -2.76   0
       128   1017.5411    623.2618 300.2985646 +22.8743794     823.6128     72.32665      1.829     6.18     5.803836     20.38997     51.42806        15     1.335     0.965  73.16  16
       129     95.7436    620.2746 300.0123501 +22.5973893     20081.04     72.30826      1.876     3.81      5.77683     20.38997     1676.647        68     1.607     1.464  34.57   0
       130     17.5060    621.9664 299.9874793 +22.5744146     593.4882     72.23462      1.533     3.52     6.551676     20.38997      49.7225         6     0.782     0.481 -77.26   0
       131    561.9758    619.9218 300.1575739 +22.7370155     281.6595     72.25304      1.354     4.31     6.152895     20.38997     41.84034         7     1.006     0.619  28.47   0
       132    609.8344    608.8027 300.1760973 +22.7481571     320.8681     72.25304      1.772     4.35     6.117404     20.38997     33.65989         6     1.115     0.483  28.45   0
       133    944.8441    607.2527 300.2810736 +22.8480191     1091.223     72.30826      1.673     3.68     5.767072     20.38997     94.69408        19     1.167     1.109 -17.01   0
       134     41.6501    604.6529 300.0006063 +22.5766876      1571.58     72.30826      2.241     6.01     6.488798     20.38997     92.65394        29     1.643     1.335 -67.53   0
       135    811.6628    605.3425 300.2401430 +22.8076018     471.4075     72.32665      1.712     5.55     5.749557     20.38997     45.03061        11     1.279     0.730 -59.26   0
       136    526.7075    620.8400 300.1462885 +22.7267141     1051.092     72.27145      1.536     3.42     6.158549     20.38997     101.3384        18     1.086     1.016  48.80   0
       137    490.3926    601.6846 300.1411980 +22.7103334     404.2412     72.19778      1.521     3.65     6.311033     20.38997     52.81731         6     0.925     0.673 -53.91   0
       138    885.1276    600.0865 300.2647672 +22.8280842     933.7285     72.40019      2.281     4.37     5.719436     20.38997     59.28558        16     1.260     0.918   7.04   2
       139    629.7335    598.2399 300.1857290 +22.7510827     310.8989     72.23462      1.458     3.76     6.084964     20.38997     30.46018         5     0.885     0.458 -44.34   0
       140    446.7239    594.1726 300.1300377 +22.6950931     687.9554     72.25304      1.497     4.08     6.316181     20.38997     64.48911        14     1.122     0.897  19.05   0
       141    594.8052    592.3599 300.1767539 +22.7389322     609.3113     72.28986      1.741     5.76     6.161739     20.38997     57.34409        11     1.166     0.934  60.52   0
       142    642.2707    591.3690 300.1918676 +22.7528636       500.63     72.27145      1.466     3.67     6.065501     20.38997     56.47483        10     0.916     0.885 -56.44   0
       143    612.3571    590.5103 300.1828240 +22.7436579     528.4166     72.28986      1.428     3.45      6.11416     20.38997     62.52433        10     1.031     0.708  13.35   0
       144    491.1372    589.7886 300.1452930 +22.7071401     852.9973     72.23462      1.573     3.07     6.341117     20.38997      96.3242        13     1.070     0.792   3.15   0
       145    925.0396    585.4655 300.2819691 +22.8358282     3365.315     72.23462      1.661     3.20     5.814583     20.38997     300.5492        30     1.276     1.208  11.01   0
       146    456.6488    585.1880 300.1360460 +22.6954865     1648.108     72.28986      1.573     3.32     6.338622     20.38997     151.6835        20     1.108     1.059   1.32   0
       147   1022.6584    583.5922 300.3130461 +22.8645049     679.2037      61.6843      1.588     3.76     5.792852     20.38997     75.94604        13     1.135     0.808  45.97  24
       148     18.4833    578.4151 300.0019250 +22.5622131     5082.898     72.23463      1.940     4.09      6.71537     20.38997      393.802        42     1.523     1.415   7.55   0
       149    964.6771    575.1221 300.2976982 +22.8447179     359.5388     72.38181      1.576     5.95     5.833445     20.38997     28.44511         8     1.183     0.843  50.61   0
       150    485.9636    575.8054 300.1482224 +22.7015742     277.7271     72.28986      1.571     3.14     6.380326     20.38997     34.24829         5     0.789     0.497 -53.77   0
       151    320.0325    571.7093 300.0978911 +22.6506814     9112.687      72.2162      1.592     3.17     6.011897     20.38997     879.1331        46     1.354     1.294  41.70   0
       152    442.4889    568.8309 300.1369479 +22.6865468     9161.356     72.25304      1.576     3.07     6.347226     20.38997     976.9003        44     1.285     1.250  41.54   0
       153    689.1234    565.4838 300.2148773 +22.7594572     305.0927     72.38181      1.477     3.82     5.957839     20.38997     37.61276         6     0.840     0.499   2.02   0
       154    854.1746    563.0741 300.2671302 +22.8081798     1948.436     72.28986      1.654     3.50     5.747245     20.38997     164.4956        25     1.212     1.166  11.51   0
       155    938.9137    560.4497 300.2944222 +22.8327890      12716.4     72.27145      1.715     3.39     5.872713     20.38997     1075.346        55     1.406     1.384  81.36   0
       156    503.1152    558.4640 300.1591954 +22.7017315      11749.3     72.36343      1.538     2.89     6.407259     20.38997     1230.791        48     1.334     1.216  51.89   0
       157    672.5268    554.4683 300.2132806 +22.7513223     500.0069     72.34505      1.449     3.68      6.01522     20.38997     52.87918         9     0.981     0.729  75.71   0
       158    230.5371    553.6631 300.0759022 +22.6186797     1425.301     72.30826      1.724     3.56     5.890998     20.38997     135.2217        20     1.196     1.023   6.06   0
       159    477.3911    551.7039 300.1533782 +22.6920840     324.8915     72.17935      1.230     2.71     6.442207     20.38997     41.95013         5     0.712     0.455 -71.13   0
       160    434.7240    546.5766 300.1417557 +22.6778294      4552.11     72.30826      1.568     3.03     6.361259     20.38997      477.211        32     1.217     1.173  55.23   0
       161    777.6516    546.8894 300.2485174 +22.7806201     858.0065     72.28986      1.467     3.31     5.767334     20.38997     94.70657        14     1.135     0.801  15.21   0
       162    413.0266    544.9594 300.1355248 +22.6708646     1235.684     72.32665      1.468     3.33     6.312343     20.38997     119.0005        21     1.196     0.975  22.07   0
       163    167.3178    544.2548 300.0592914 +22.5970305     754.9017     72.32665      1.627     4.87     6.003787     20.38997     65.05091        14     1.207     0.981  29.00   0
       164    854.5745    542.3992 300.2739681 +22.8023565     1657.588      72.2162      1.687     3.19     5.777526     20.38997     148.1665        21     1.161     1.092  77.59   0
       165    101.1792    542.0049 300.0394542 +22.5765590     349.1251     72.25304      1.497     3.76     6.309236     20.38997     33.17043         5     0.810     0.502 -32.85   0
       166    955.1176    541.3317 300.3056869 +22.8321418     262.4143     72.38181      1.258     3.06     5.907372     20.38997     37.93434         5     0.864     0.470  -2.74   0
       167    551.4270    534.1998 300.1821232 +22.7092324     206851.7     72.23462      1.542     2.88     6.405425     20.38997     21114.76       203     1.548     1.494  -5.02   0
       168    735.2072    539.1529 300.2377942 +22.7656892     781.9898     72.28986      1.525     3.56     5.781046     20.38997     96.07399        16     1.153     0.939 -76.42   0
       169    375.2351    540.2408 300.1252911 +22.6581870     325.0734     72.32665      1.628     3.86     6.198527     20.38997     31.82366         5     0.925     0.463  45.13   0
       170    237.4541    533.9763 300.0844457 +22.6151013      3465.68     72.28986      1.646     3.21     5.878633     20.38997     354.3588        30     1.312     1.127  57.72   0
       171    803.3748    530.7963 300.2617650 +22.7836952     587.1882     72.23462      1.767     3.30     5.767193     20.38997     65.72587         9     1.022     0.680 -15.84   0
       172    442.0476    514.7579 300.1543662 +22.6708849     2717.396     72.30826      1.611     2.89     6.322531     20.38997      243.016        34     1.512     1.133  83.87   0
       173    286.6142    517.0281 300.1052440 +22.6249676     280.6513     72.28986      1.643     3.54     5.810748     20.38997     47.14787         6     0.900     0.522   1.16   0
       174    853.9065    510.9724 300.2839631 +22.7931225     495.4828     72.19778      1.518     3.57     5.852757     20.38997     57.87078         8     0.943     0.664 -85.22   0
       175    871.9835    506.1810 300.2911581 +22.7971555     280.8817     72.25304      1.526     5.23     5.890623     20.38997      27.8954         7     1.316     0.588 -12.67   0
       176    839.0791    500.9595 300.2825883 +22.7858060     1645.959     72.25304      1.467     3.18     5.846612     20.38997     154.6033        23     1.135     1.097  -2.53   0
       177    710.2998    498.4494 300.2432430 +22.7465344     2510.311     72.36343      1.460     2.66     6.007545     20.38997     288.6915        23     1.108     1.056 -13.38   0
       178     70.3911    498.8426 300.0438930 +22.5549424     362.7659     72.28986      1.813     4.55     6.157174     20.38997     35.32707         6     1.015     0.580  21.79   0
       179    954.0439    496.0795 300.3200435 +22.8188089     474.0276     72.25304      1.468     3.62     5.929845     20.38997     49.97222         8     0.870     0.712  -1.05   3
       180    953.4369    492.2637 300.3210928 +22.8175301     828.0475     72.27145      1.889     3.80     5.932516     20.38997     65.23672        14     1.107     0.860  51.07   2
       181    919.6522    495.8018 300.3094010 +22.8084374      282.248     72.23462      1.293     2.60     5.941072     20.38997     42.56023         5     0.721     0.449  73.51   0
       182    614.9911    494.9946 300.2146567 +22.7170046     439.7373     72.12403      1.350     2.47     6.455051     20.38997     63.61454         9     0.786     0.730 -86.27   0
       183    497.5329    494.0336 300.1783739 +22.6815521     729.2854     72.27145      1.419     2.90     6.511188     20.38997     76.55599        15     0.981     0.927  72.00   0
       184    967.5884    492.5326 300.3254223 +22.8218420     1170.022     72.27145      1.629     3.80      5.92204     20.38997     109.3238        19     1.180     1.073  58.42   0
       185    839.3665    490.9402 300.2859305 +22.7830117     2343.818     72.30826      1.842     3.76     5.864409     20.38997     201.1321        30     1.481     1.160  85.10   0
       186    378.8012    489.1537 300.1429854 +22.6445844      354.516     72.27145      1.445     5.19     5.977767     20.38997     41.11654         9     1.064     0.715  55.00   0
       187    592.6810    488.9601 300.2096633 +22.7085899     775.7228     72.23462      1.869     2.93     6.543666     20.38997     77.70523        11     1.013     0.691  18.76   0
       188    877.5159    486.0132 300.2994312 +22.7930130     4292.281      72.2162      1.580     3.08     5.945316     20.38997     380.9269        34     1.308     1.187  79.37   0
       189    431.0563    487.9908 300.1596325 +22.6599044     364.7854     72.25304      1.359     2.10     6.215125     20.38997     50.32568         5     0.616     0.557   0.43   0
       190    538.6290    482.1803 300.1950231 +22.6904551     315.3203     72.27145      1.582     5.07      6.66513     20.38997     30.45801         9     0.939     0.773  -7.68   0
       191    969.5043    476.4306 300.3312472 +22.8177849     773.3668      72.2162      1.685     4.85     5.934146     20.38997     66.30706        17     1.257     1.049  74.83   0
       192    109.7578    476.2184 300.0634761 +22.5602492     945.7755     72.28986      1.679     3.99     6.144036     20.38997     90.72717        15     1.329     0.814 -16.34   0
       193    770.1220    470.4388 300.2709883 +22.7563920     362.6411     72.25304      1.597     4.15     5.795623     20.38997     39.35276         6     0.991     0.495   1.81   0
       194    375.5883    469.2254 300.1484535 +22.6378985      295.801     72.27145      1.296     4.03     5.927284     20.38997     38.91715         7     0.945     0.721  37.77   0
       195    709.9911    460.2189 300.2555563 +22.7354542     453.3835     72.23462      1.313     3.84     6.009694     20.38997     56.26889         8     0.897     0.697  89.80   0
       196    598.1739    458.3601 300.2213071 +22.7014421     364.7185     72.30826      1.392     4.16     6.442719     20.38997     53.11161         8     0.907     0.809 -65.08   0
       197    651.0775    456.5453 300.2383836 +22.7167607      782.826     72.30826      1.407     3.05     6.330536     20.38997     81.65295        13     0.961     0.861 -62.05   0
       198    965.5996    449.0099 300.3389289 +22.8087309     663.5189     72.08713      1.712     3.93     5.986938     20.38997     56.18914        10     1.005     0.847  71.68   0
       199    711.6664    448.5703 300.2598592 +22.7326077     804.9665     72.28986      1.481     3.52     5.972395     20.38997     86.79635        15     1.161     0.848  44.75   0
       200    869.1047    445.1210 300.3100800 +22.7787385     908.6034     72.38181      1.541     3.89     5.959939     20.38997     88.72708        15     1.064     0.991  79.13   0
       201    853.1530    441.1569 300.3063901 +22.7728250     675.6625     72.30826      1.717     4.53     5.945259     20.38997     74.00317        14     1.209     0.935  21.71   0
       202    597.5240    439.1572 300.2273369 +22.6957295     3235.641     72.25304      1.491     2.89     6.324872     20.38997     340.5224        26     1.138     1.089   9.20   0
       203    957.8956    438.7472 300.3398553 +22.8034744     581.0086     72.34505      1.555     3.48      6.00157     20.38997     51.92342        11     0.972     0.796 -36.04   0
       204     73.6681    430.8182 300.0669885 +22.5364006     358.2629     72.27145      1.705     4.76     6.067726     20.38997     36.37117         7     1.160     0.554  16.27   0
       205    369.3984    426.9327 300.1602521 +22.6238971     335.1942     72.25304      1.500     4.22     5.894045     20.38997     34.29107         6     0.940     0.540  17.17   0
       206    437.3453    426.1161 300.1816724 +22.6440147     451.9453     72.32665      1.516     2.67     6.179836     20.38997      49.7319         7     0.736     0.660  88.71   0
       207   1008.7166    418.2686 300.3623646 +22.8127890     1330.853     72.38181      1.700     3.69     6.093848     20.38997     125.6451        21     1.392     0.997  57.56   0
       208    881.0439    418.2725 300.3225183 +22.7745912     511.0982     72.25304      1.357     3.85      5.96967     20.38997     60.61393         9     0.971     0.694  -0.55   0
       209    967.3005    416.8626 300.3498931 +22.7999943     944.1597     72.34505      1.552     4.08     6.047546     20.38997     96.89098        15     1.116     1.087  32.22   0
       210    503.9619    413.4976 300.2065145 +22.6603401     403.0156     72.27145      1.302     2.63     6.246252     20.38997     66.89169         8     0.833     0.612 -82.34   0
       211    708.1386    412.9942 300.2703049 +22.7213257     1127.672     72.23462      1.410     3.16      5.92406     20.38997     126.9027        17     1.102     0.907  -8.05   0
       212    211.9855    411.0573 300.1164168 +22.5721784     704.4316     72.25304      1.673     4.61      6.16633     20.38997     66.26971        14     1.122     0.954  11.76   0
       213   1007.6091    405.7555 300.3660796 +22.8088584      4311.09     72.28986      1.677     3.24     6.113338     20.38997     400.9785        34     1.310     1.248  69.18   0
       214    274.3719    406.8203 300.1372022 +22.5896535     3792.757     72.27145      1.624     3.01     5.870146     20.38997     405.7934        33     1.290     1.193  31.09   0
       215    221.6226    401.5542 300.1224984 +22.5723372     7655.176     72.30826      1.673     3.20     6.160751     20.38997     800.5832        42     1.346     1.279  77.31   0
       216    987.5884    396.6669 300.3627793 +22.8002550     1974.334     72.27145      1.688     3.30     6.096019     20.38997     174.6121        24     1.194     1.167 -16.18   0
       217    362.4752    395.8661 300.1681775 +22.6128999     4955.986     72.34505      1.521     2.81     5.860807     20.38997     567.7358        38     1.282     1.198  64.15   0
       218    606.7064    392.6994 300.2452741 +22.6851276     18649.75      72.4553      1.503     2.75     6.188417     20.38997     2241.579        55     1.296     1.231  75.31   0
       219    624.2996    392.7794 300.2507309 +22.6904176      908.583     72.19778      2.161     7.20     6.145145     20.38997     59.56723        18     1.561     1.001 -50.67   0
       220    803.6089    383.7511 300.3095646 +22.7414927     425.0479     72.28986      1.207     2.03     5.958867     20.38997     60.06796         5     0.664     0.471  74.14   0
       221    940.3210    375.6127 300.3548581 +22.7800586     669.8348     72.25304      1.438     2.63     6.024792     20.38997     85.50821        11     0.919     0.760 -74.99   0
       222    477.0692    374.2071 300.2108867 +22.6409977     407.7935     72.23462      1.472     4.80      6.25206     20.38997     42.81617         8     0.852     0.766  22.99   0
       223    161.2129    372.4599 300.1131465 +22.5458824     2063.016     72.23462      1.674     3.60     6.149948     20.38997     233.1371        28     1.402     1.190  47.10   0
       224    547.3224    362.1218 300.2366916 +22.6585607     6644.978     72.38181      1.476     2.75     6.188417     20.38997     647.0647        43     1.319     1.188  65.85   0
       225    961.0359    362.7150 300.3655079 +22.7825459     1249.982     72.25304      1.640     3.02     6.075214     20.38997      140.731        19     1.147     1.117 -12.55   0
       226    262.0385    361.2989 300.1481335 +22.5728853     518.1338     72.28986      1.378     3.89     5.959054     20.38997     76.67732         9     1.142     0.621  30.23   0
       227    119.9412    354.6173 300.1060994 +22.5283926     563.7689      72.2162      1.758     4.45      6.15031     20.38997     65.82546        10     1.083     0.819   4.77   0
       228    807.4715    353.9638 300.3204339 +22.7340836     352.6911     72.27145      1.271     3.17     5.960773     20.38997     49.77476         6     0.971     0.464 -31.39   0
       229    751.6100    351.2269 300.3039005 +22.7165798     1159.052     72.27145      1.749     3.70     5.960587     20.38997     115.6313        21     1.479     1.013  87.10   0
       230    661.4776    352.5752 300.2753628 +22.6899908     350.2788     72.28986      1.220     3.47     6.014163     20.38997      52.6786         7     0.952     0.707 -38.99   0
       231    453.9504    348.3085 300.2120887 +22.6266333     6188.905     72.30826      1.461     2.77     6.200855     20.38997     697.1383        37     1.262     1.149  63.11   0
       232    943.4083    343.2072 300.3663354 +22.7716614      666.522     72.12403      1.713     3.78     6.032308     20.38997     58.69269        12     0.992     0.927  67.46   0
       233    846.0020    342.9913 300.3360124 +22.7424575      1391.05     72.08713      1.426     3.12     5.974566     20.38997     139.0157        20     1.118     0.976  46.74   0
       234    438.3085    336.9501 300.2109022 +22.6186857     518.0839     72.28986      1.576     4.68      6.18601     20.38997     51.93474        10     0.981     0.829  22.80   0
       235    521.1195    335.1033 300.2372936 +22.6429509     421.7546     72.40019      1.288     2.52      6.22292     20.38997     52.95804         8     0.787     0.646 -27.77   0
       236    818.8549    331.0116 300.3314306 +22.7308896     519.7039     72.27145      1.368     2.80     5.971159     20.38997     57.05057         9     0.874     0.677 -79.68   0
       237    501.8233    332.6714 300.2320716 +22.6364746     318.8371     72.30826      1.416     2.35      6.23693     20.38997     47.11269         5     0.730     0.431  18.52   0
       238    341.5656    327.4363 300.1838684 +22.5869800     2564.569     72.34505      1.586     2.97     5.966053     20.38997      303.857        28     1.211     1.153  89.71   0
       239     59.9421    324.5939 300.0971826 +22.5017933     1044.527     72.23462      1.649     3.58     6.438872     20.38997     110.8889        18     1.202     1.052  -0.75   0
       240    310.8518    316.8922 300.1777289 +22.5747520     30131.09     72.32665      1.563     3.04      6.02297     20.38997      3004.84        71     1.425     1.320  51.76   0
       241    845.7701    314.9137 300.3450484 +22.7343132      1436.25     72.27145      1.505     2.85     5.977975     20.38997     149.3506        22     1.146     1.040  13.25   0
       242    800.3100    312.8483 300.3315382 +22.7201174     451.5337     72.27145      1.978     4.98     5.975654     20.38997     38.41742         7     1.296     0.543 -14.13   0
       243      7.1544    304.5323 300.0872800 +22.4802146      4825.12     72.25304      1.852     3.55     6.838803     20.38997     478.0523        41     1.506     1.332  47.23  16
       244    760.7835    303.3421 300.3222945 +22.7055564     516.9545     72.27145      1.489     4.35     5.997249     20.38997      62.3791        13     1.202     0.788  54.19   0
       245    185.4335    303.5048 300.1430474 +22.5333379     390.3131     72.25304      1.224     2.99      6.11592     20.38997     60.91724         8     0.798     0.742  75.36   0
       246    409.4065    302.3129 300.2131376 +22.6000786     497.8987     72.17935      1.553     3.82     6.210278     20.38997     58.49535         9     0.991     0.765 -14.48   0
       247    721.3287    297.0029 300.3120480 +22.6919269      1892.76      72.2162      1.478     2.70     6.014318     20.38997      208.781        23     1.148     1.028  72.67   0
       248    530.5862    291.8011 300.2542883 +22.6333400     644.1186     72.10558      0.751    -0.82     6.248767     20.38997     456.1284         9     0.761     0.604   3.55   0
       249    936.5806    289.9004 300.3814965 +22.7542849     572.9233     72.17935      1.466     4.32     5.997173     20.38997     66.21295        11     1.085     0.818  83.53   0
       250    383.1909    281.2574 300.2118042 +22.5861785     2262.197     72.25304      1.731     3.68     6.233368     20.38997     207.8988        26     1.396     1.035  57.49   0
       251    595.9449    280.3648 300.2783615 +22.6496175     291.8581     72.28986      1.401     2.62     6.227231     20.38997     50.42206         5     0.760     0.541 -82.89   0
       252    822.4332    274.3400 300.3509287 +22.7156620     577.9835     72.30826      1.769     4.84     6.015882     20.38997     58.43969        16     1.260     1.023  27.67   0
       253    704.2350    272.1628 300.3147750 +22.6796691     454.6208     72.34505      1.467     3.65     6.068024     20.38997     46.78096         9     0.899     0.771  -9.44   0
       254    459.0332    260.7496 300.2420709 +22.6029941     1240.169     72.30826      1.511     3.19     6.268211     20.38997     134.0234        19     1.101     1.081 -83.52   0
       255    970.4154    257.4454 300.4025825 +22.7550677     440.4156     72.28986      1.635     3.19     6.056873     20.38997     48.06667         6     0.925     0.403  20.40   0
       256    841.7024    254.4533 300.3633890 +22.7157068     219.4077     72.36343      1.351     4.21     6.022192     20.38997     32.20295         5     1.014     0.498  39.73   0
       257    703.8706    252.7241 300.3209653 +22.6739706     2225.861     72.34505      1.463     2.78     6.119801     20.38997     270.8228        25     1.200     1.011  87.07   0
       258    965.2545    247.2215 300.4042873 +22.7505826     3146.519     72.28986      1.599     2.97     6.050996     20.38997     342.7669        32     1.302     1.192 -81.53   0
       259    412.0703    236.7071 300.2352426 +22.5820241     501.5505     72.40019      1.325     3.25     6.342705     20.38997      68.9807        10     0.897     0.761  43.14   0
       260    117.7576    230.5842 300.1456455 +22.4921214     754.5442     72.28986      1.844     4.02     6.294681     20.38997     66.14764        12     1.055     0.820 -28.70   0
       261     87.1253    230.6532 300.1360979 +22.4829643     1417.273     72.28986      1.764     3.54     6.419211     20.38997     115.2394        22     1.339     0.997 -12.08   0
       262    981.0759    228.1412 300.4154130 +22.7498243     400.5843     72.32665      1.448     3.20     6.091506     20.38997     56.08195         9     0.989     0.611  28.62   0
       263    824.1183    223.6840 300.3678814 +22.7015960     373.7802     72.40019      1.494     3.86     6.118673     20.38997     39.86354         5     1.095     0.468 -56.04   0
       264    171.1026    223.0872 300.1646670 +22.5059480     439.9858      72.4553      1.321     4.48     6.139616     20.38997     52.60977         8     0.859     0.664 -40.90   0
       265    966.2316    220.5080 300.4132546 +22.7431887     299.1139      72.2162      1.499     3.67     6.068076     20.38997     38.44478         5     0.846     0.576 -49.52   0
       266     26.6455    219.8410 300.1208007 +22.4617394      365.429     72.34505      1.688     3.57     6.685479     20.38997     30.58901         5     1.020     0.361  -3.56   0
       267    775.5886    214.3188 300.3557817 +22.6843842     617.0347     72.25304      1.323     2.76      6.21413     20.38997     71.14463        13     0.959     0.823  19.25   0
       268    365.9969    213.7683 300.2283356 +22.5616373     255.0089     72.25304      1.238     3.93     6.376345     20.38997     41.52256         6     0.814     0.639 -89.84   0
       269    873.8145    203.3148 300.3899895 +22.7106018     2018.485      72.2162      1.547     2.68     6.089294     20.38997     261.5938        24     1.225     1.053  74.76   0
       270    292.2646    200.3067 300.2097498 +22.5356911     2131.215     72.38181      1.509     2.89     6.391125     20.38997     211.5524        23     1.143     1.071  86.22   0
       271    122.0045    195.9843 300.1581836 +22.4834563     403.9354     72.16091      1.769     3.63     6.364143     20.38997     38.52416         5     0.704     0.539   0.02   0
       272    771.8513    194.8875 300.3609162 +22.6776771     510.2154     72.30826      1.303     3.19     6.246974     20.38997     71.20905        10     0.955     0.695  56.45   0
       273    186.9668    187.8326 300.1810311 +22.5005728     780.7524     72.34505      1.625     3.35     6.310337     20.38997     76.43378        13     1.026     0.912   3.99   0
       274    370.2045    195.4819 300.2355740 +22.5576422     1074.146     72.19778      1.553     4.06     6.395782     20.38997     109.1349        18     1.338     0.888 -32.18   0
       275    724.8481    184.6035 300.3495932 +22.6606573     1715.754     72.25304      1.521     3.05     6.279353     20.38997      178.405        22     1.172     1.029 -86.85   0
       276    789.5815    184.2737 300.3698869 +22.6799282     736.0394     72.27145      1.926     4.26     6.264055     20.38997     62.81619        13     1.230     0.842  65.19   0
       277    451.5028    181.0727 300.2655594 +22.5778395     218.6786     72.40019      1.140     3.76     6.393877     20.38997     34.69054         6     0.818     0.495  83.88   0
       278    208.4219    181.0067 300.1899182 +22.5050377     562.7364     72.25304      1.455     2.72     6.340974     20.38997     79.39303        11     0.963     0.751  -7.36   0
       279    996.3540    177.3676 300.4366444 +22.7397822     840.7881     72.30826      1.554     3.13     6.115357     20.38997     75.00799        15     1.021     0.916 -64.21   0
       280    729.1946    176.0641 300.3537169 +22.6595016     819.3264     72.25304      1.744     3.87     6.292447     20.38997     71.12173        15     1.111     1.012  67.81   0
       281    649.2593    175.4894 300.3289832 +22.6354197     1223.979     72.36343      1.416     2.51     6.387054     20.38997     158.1024        20     1.171     0.924  59.59   0
       282    498.6333    176.9789 300.2815659 +22.5907703     255.9193     72.27145      1.627     4.28     6.389474     20.38997     36.78101         6     1.122     0.466  18.80   0
       283    470.8893    171.7214 300.2746286 +22.5809546      313.389     72.40019      1.245     3.88     6.408834     20.38997     41.71962         7     0.870     0.582 -29.85   0
       284    844.8634    166.8709 300.3927724 +22.6914579      1568.21     72.30826      1.584     3.25     6.278694     20.38997     173.9417        23     1.240     1.052 -84.07   0
       285    575.5623    167.0690 300.3087453 +22.6109452     1096.393     72.23462      1.543     3.01     6.415393     20.38997     103.1147        18     1.085     0.960  48.37   0
       286    856.8868    166.2563 300.3967226 +22.6948772     772.5825     72.34505      1.391     3.67     6.279591     20.38997     87.62475        16     1.129     0.960 -59.40   0
       287    903.3904    165.4455 300.4114951 +22.7085520     301.7693     72.28986      1.436     3.93     6.267609     20.38997     38.59058         5     1.067     0.414 -16.26   0
       288   1017.8314    156.8900 300.4499878 +22.7403105     1790.389      72.2162      1.710     3.82     6.070094     20.38997     151.7156        28     1.454     1.160  74.68  16
       289    973.6958    156.2463 300.4364188 +22.7269288     1214.729     72.28986      1.735     3.42     6.175819     20.38997     114.3946        22     1.219     1.128 -88.25   0
       290    207.6213    149.0420 300.2000303 +22.4956146     837.4843     72.30826      1.743     4.36     6.455378     20.38997     80.65253        13     1.211     0.951  26.03   0
       291     69.4221    143.5600 300.1588261 +22.4526480     2244.383     72.30826      1.933     3.74     6.646183     20.38997      206.745        32     1.550     1.248  66.23   0
       292    892.6573    141.3822 300.4159463 +22.6984183     773.2144     72.25304      1.466     2.91      6.30674     20.38997     97.51456        12     0.991     0.819   6.11   0
       293     19.6644    141.0843 300.1441598 +22.4370315     485.2104     72.36343      1.664     2.89     6.967556     20.38997     46.53416         7     0.808     0.612  62.84   0
       294    226.8233    137.0934 300.2098769 +22.4979319     5708.491     72.19778      1.654     3.15     6.462386     20.38997     519.4527        41     1.382     1.299  45.13   0
       295     10.8278    131.5112 300.1445156 +22.4316350     1352.987     72.25304      2.017     4.63     7.023772     20.38997     127.8748        25     1.418     1.322  -5.83   0
       296    210.8364    128.3577 300.2077344 +22.4906346     668.9459     72.34505      1.854     3.84     6.486037     20.38997     58.03741         9     1.118     0.602 -72.91   0
       297   1023.7274    124.5941 300.4622971 +22.7327778     3174.139     55.86703      1.374     3.74     6.156864     20.38997      623.601        21     1.617     0.564  88.53  24
       298    871.0771    118.8958 300.4165014 +22.6854944     3555.954     72.40019      1.589     3.18     6.327995     20.38997     348.2168        31     1.349     1.145  80.27   0
       299    974.7279    117.7622 300.4492151 +22.7161619     2810.125     72.23462      1.741     3.34     6.250946     20.38997     234.6032        31     1.352     1.194 -82.33   0
       300    420.2248    114.0574 300.2775408 +22.5492134     702.5624     72.27145      1.486     3.48     6.430969     20.38997     66.68752        13     1.043     0.908  16.16   0
       301    173.7074    115.2237 300.2004408 +22.4757423     310.9157     72.19778      1.336     3.76     6.553531     20.38997     35.11691         5     0.988     0.410   4.66   0
       302    534.7677    112.0415 300.3138706 +22.5829151     358.3063     72.32665      1.362     3.05      6.42836     20.38997     44.89153         5     0.803     0.476 -37.31   0
       303    344.2587    106.2799 300.2564101 +22.5242380     641.6266     72.30826      1.643     4.31     6.459642     20.38997     65.59948        12     1.174     0.781 -51.27   2
       304    348.5969    104.8265 300.2582315 +22.5251189     475.0583     72.23462      1.748     4.40     6.447937     20.38997     46.05148         8     1.148     0.618 -29.45   3
       305    471.8767    101.3797 300.2977351 +22.5610284     1738.053     72.27145      1.540     2.81     6.438017     20.38997     204.4229        25     1.191     1.105  47.20   0
       306    110.5786    102.8733 300.1848091 +22.4532882     663.4027     72.27145      1.616     3.69     6.519297     20.38997     71.59964        14     1.135     0.839   9.72   0
       307    399.7305    101.7770 300.2751391 +22.5395489     402.6763     72.28986      1.599     4.10     6.432686     20.38997     58.47923         9     1.002     0.924  28.48   0
       308    534.1796    100.7973 300.3173314 +22.5795059     302.5954      72.2162      1.586     3.67     6.428561     20.38997     40.63916         5     0.966     0.400   2.70   0
       309    215.4719     97.1296 300.2192967 +22.4830499     314.5713     72.34505      1.467     4.39     6.526872     20.38997     42.72117         8     1.143     0.703  50.64   0
       310    760.5592     91.1543 300.3910187 +22.6444594     475.7405     72.34505      1.686     2.63      6.39448     20.38997     39.93426         5     0.720     0.448 -67.68   0
       311    906.0330     85.7390 300.4381542 +22.6864060     229.6457     72.30826      1.216     2.56     6.352304     20.38997     39.58467         7     0.723     0.654   6.94   0
       312    245.8759     81.0110 300.2339795 +22.4875216     6000.492     72.28986      1.606     3.12     6.536573     20.38997     559.0448        37     1.364     1.207  67.15   0
       313    752.6497     82.0114 300.3915150 +22.6394633     314.1515     72.28986      1.334     4.15     6.406008     20.38997     35.02882         6     0.912     0.538   0.42   0
       314     96.8827     80.2611 300.1878774 +22.4426904     822.3306     72.36343      2.343     5.96     6.501078     20.38997     86.07976        19     1.754     1.173  63.63   0
       315    875.3358     78.8900 300.4307953 +22.6752560     409.9678     72.38181      1.393     4.32     6.346971     20.38997     37.51067         7     0.922     0.577  59.75   0
       316      8.2469     71.4896 300.1631630 +22.4136231     358.2514     72.25304      1.539     2.75     6.816147     20.38997     44.44741         5     0.716     0.468  19.05   0
       317    491.9112     66.3641 300.3153220 +22.5569563     6289.366     72.25304      1.585     2.92     6.566541     20.38997     739.0092        39     1.341     1.229 -83.03   0
       318    377.2408     66.2292 300.2796559 +22.5225986     590.1151     72.28986      1.424     3.90     6.372305     20.38997     82.02687        11     1.203     0.821 -88.86   0
       319    548.8704     61.6772 300.3345851 +22.5726525     310.9603     72.38181      1.320     4.73     6.745934     20.38997     37.90539         7     0.969     0.655  -7.82   0
       320    744.4714     56.5323 300.3972209 +22.6296870     913.7845     72.30826      1.867     3.53     6.421815     20.38997     82.89467        12     1.122     0.737  -8.83   0
       321    837.5752     55.6821 300.4265349 +22.6572861     482.0618     72.25304      1.434     2.39     6.342853     20.38997     64.33883         6     0.786     0.497 -43.76   0
       322    543.7189     49.4463 300.3369430 +22.5675938     335.4843     72.25304      1.379     5.18     6.860429     20.38997      40.0614         8     0.939     0.817 -21.53   0
       323    185.0179     50.3571 300.2249777 +22.4604912     443.8731     72.28986      1.578     4.45     6.577488     20.38997     56.26597         7     1.110     0.507 -28.33   0
       324    620.3783     46.5610 300.3617659 +22.5896992     6248.779     72.30826      1.569     2.85     6.882552     20.38997     677.7985        38     1.346     1.171  84.92   0
       325    395.3931     45.3813 300.2920624 +22.5220384     1450.493     72.23463      1.583     3.18     6.203495     20.38997     155.6013        23     1.274     1.083 -51.17   0
       326    661.5273     44.2237 300.3753490 +22.6013365     855.4868     72.30826      1.472     3.29     6.910042     20.38997     95.42236        17     1.096     0.975 -81.30   0
       327    677.7061     40.4382 300.3816189 +22.6050871     440.0727     72.25304      1.256     2.42     6.906683     20.38997     65.68808         6     0.655     0.625  28.99   0
       328    947.1913     38.0421 300.4664542 +22.6849838     423.2734     72.28986      1.278     3.99     6.466571     20.38997     50.20521        10     0.957     0.712   6.37   0
       329    144.6617     38.0051 300.2164267 +22.4448581     685.5944     72.25304      1.778     4.24     6.588756     20.38997     72.88003        11     1.181     0.767 -78.73   2
       330    986.8202     37.3276 300.4790552 +22.6966248     236.5853     72.30826      1.283     3.95     6.536121     20.38997      25.1318         6     1.078     0.414  12.79   0
       331    715.8171     35.9027 300.3949702 +22.6151816     532.8922     72.17935      1.587     2.81     6.615096     20.38997     75.18642         9     1.027     0.636  14.62   0
       332    664.6252     31.5144 300.3804324 +22.5986072     2797.377     72.23462      1.631     2.82     7.020001     20.38997     298.8423        33     1.353     1.164  68.89   0
       333    680.0896     30.5359 300.3855702 +22.6029514     887.3297     72.38181      1.908     5.23     6.964303     20.38997     77.42667        18     1.622     0.889  40.27   0
       334    305.5005     32.2985 300.2683173 +22.4913713     356.6037     72.51036      1.548     5.37     6.509054     20.38997     41.92166         9     1.066     0.764  -0.59   0
       335    750.9231     23.0867 300.4100690 +22.6219937     1704.855     72.40019      1.681     3.29     6.416848     20.38997     160.6385        23     1.271     1.065  64.23   0
       336    155.5311   1018.6652 299.9014550 +22.7295868      431.864     72.32665      2.670     4.51     97.44109     20.38997     39.16102         5     1.228     0.471  81.60  16
       337    148.3074   1005.9109 299.9033574 +22.7237626     751.8553     72.43694      2.535     8.68      86.5914     20.38997      63.2328        13     2.691     0.781 -60.80   2
       338    293.4974   1011.9897 299.9465433 +22.7690633     1487.428     72.16091      3.116     6.42      6.45199     20.38997     70.06689        29     1.506     1.436 -42.08   0
       339    164.2698    970.8897 299.9197120 +22.7185104     1592.478     72.43694      6.277    12.30     57.19821     20.38997     42.29516        33     2.625     1.604  33.55   3
       340    126.3997   1010.6905 299.8949905 +22.7185595     686.7796     72.14248      1.513     3.82     90.81089     20.38997     39.18593         5     1.513     0.277  39.90   3
       341    694.4445     10.5904 300.3965071 +22.6015068     249.5823     72.28986      1.257     3.29     6.958879     20.38997      39.5719         5     1.024     0.307  23.16   0
       342    130.0202   1007.4867 299.8971584 +22.7187273     1652.861     72.19778      3.794    12.67     87.45219     20.38997     48.16132        41     2.504     1.783 -29.30   2
