#   1 NUMBER                 Running object number                                     
#   2 X_IMAGE                Object position along x                                    [pixel]
#   3 Y_IMAGE                Object position along y                                    [pixel]
#   4 ALPHA_J2000            Right ascension of barycenter (J2000)                      [deg]
#   5 DELTA_J2000            Declination of barycenter (J2000)                          [deg]
#   6 FLUX_APER              Flux vector within fixed circular aperture(s)              [count]
#   7 FLUXERR_APER           RMS error vector for aperture flux(es)                     [count]
#   8 FLUX_RADIUS            Fraction-of-light radii                                    [pixel]
#   9 FWHM_IMAGE             FWHM assuming a gaussian core                              [pixel]
#  10 BACKGROUND             Background at centroid position                            [count]
#  11 THRESHOLD              Detection threshold above background                       [count]
#  12 FLUX_MAX               Peak flux above background                                 [count]
#  13 ISOAREA_IMAGE          Isophotal area above Analysis threshold                    [pixel**2]
#  14 A_IMAGE                Profile RMS along major axis                               [pixel]
#  15 B_IMAGE                Profile RMS along minor axis                               [pixel]
#  16 THETA_IMAGE            Position angle (CCW/x)                                     [deg]
#  17 FLAGS                  Extraction flags                                          
         1    194.3280      6.1613 300.2354434 +22.4424871     3813.271       72.142      1.679     3.24      6.40035     20.36383     389.3429        34     1.464     1.147  61.77  16
         2    762.1550      6.9009 300.4119923 +22.6127206     567.0943     72.19717      1.384     3.38     6.084352     20.36383     71.43304        11     1.015     0.732 -81.84  16
         3    616.9805      3.9680 300.3677020 +22.5684272      280.944     68.55808      1.502     3.77      6.24863     20.36383     34.58386         5     0.699     0.584  -0.24  16
         4    520.1862      4.1006 300.3375111 +22.5394881     296.8351     68.96336      1.292     3.80     5.810933     20.36383      48.4459         5     0.813     0.509 -44.28  16
         5    155.0530   1008.7747 299.8977753 +22.7183051     1356.262     72.19717      2.750    11.92      92.8073     20.36383     53.27641        24     2.060     1.920  48.07   2
         6    271.1926   1017.4777 299.9310543 +22.7556657     2755.436      72.1052      7.059    39.66     35.80209     20.36383     61.88983       238     8.420     5.186  59.58  27
         7    223.0430    988.8783 299.9253843 +22.7330161     4392.643     72.16039      8.508    29.52     66.12947     20.36383     93.05946       356     6.432     4.937 -70.57  19
         8    242.5913    988.0310 299.9317384 +22.7386415     6004.644     72.17878     12.108    51.07     50.02544     20.36383     112.6881       760    11.161     7.170 -61.41  19
         9    261.2992    977.1420 299.9410978 +22.7411365     9289.638     72.27065     12.522    40.94     30.40603     20.36383     182.0911      1090    13.614     5.731  68.10  19
        10    656.4649    989.5331 300.0600662 +22.8632584     8689.333     72.23392      2.052     4.65     4.223068     20.36383     442.5762        48     1.588     1.486  50.41   3
        11    661.9886    987.2356 300.0625344 +22.8642561     9451.572     72.17878      2.046     5.05     4.224005     20.36383     537.8553        49     1.607     1.469 -28.75   3
        12    756.6378    990.0608 300.0911082 +22.8934519     584.6868     72.19717      1.808     5.07     3.878759     20.36383     44.62369        14     1.135     1.108 -30.46   0
        13    188.3727    975.2455 299.9190390 +22.7187016     1106.657     72.21554      5.106     6.69     60.49685     20.36383     45.88749        14     1.873     0.670  75.47   3
        14    189.1605    981.6790 299.9171915 +22.7207816     1417.682     72.16039      2.956    10.33     66.26778     20.36383     49.05482        25     2.208     1.346  32.66   3
        15    191.6433    978.3705 299.9190394 +22.7205789     1044.835     72.21554      3.034     5.58     62.28741     20.36383     49.31267        10     1.200     0.731 -75.06   3
        16    197.8410   1004.7126 299.9123981 +22.7299876      1694.49     72.16039      4.402    13.60     84.39658     20.36383     48.40021        40     2.723     1.890  83.71   3
        17    521.6385    978.6130 300.0216283 +22.8196825     424.4027     72.17878      1.712     3.97     4.214547     20.36383     37.14558         6     0.937     0.480 -89.01   0
        18    949.1158    973.4229 300.1565349 +22.9463839     693.6343       72.142      2.006     8.53     4.223425     20.36383     40.49628        18     2.070     0.983  31.75   0
        19    197.5482    992.4846 299.9162845 +22.7263960     1269.714     72.17878      5.302     9.44     73.20061     20.36383     52.52596        18     1.896     1.311 -53.54   3
        20      6.5824   1010.5695 299.8510561 +22.6742349     2933.475     72.16039     13.512    48.37    -24.08543     20.36383       72.049       612    11.404     5.694  89.95  26
        21    151.4371    962.4643 299.9117139 +22.7039507     1062.979     72.17878      3.103     5.10     52.85094     20.36383     32.95302         5     1.571     0.468  65.50   3
        22    148.2544    953.9501 299.9134936 +22.7005556     1658.687     72.21554      9.055    17.20     45.47216     20.36383     51.06308        61     3.731     2.204  34.75   3
        23    674.7372    956.5215 300.0764966 +22.8592692     6947.489     72.27065      1.963     4.32     4.213595     20.36383     402.4541        50     1.614     1.456  35.21   0
        24    554.2692    950.7589 300.0408481 +22.8214835     306.7566     72.16039      1.578     4.90     4.251531     20.36383     31.39507         8     1.034     0.835 -40.73   0
        25    111.0862   1011.4010 299.8832557 +22.7058561     3453.585      72.0868     13.950    70.79     87.80929     20.36383      133.903      1357    15.372     9.046  40.47  27
        26    583.1923    947.2371 300.0510005 +22.8291493     1554.941     72.19717      1.928     4.30     4.333189     20.36383     103.2606        24     1.273     1.214   1.48   0
        27    760.5278    944.4747 300.1071484 +22.8815392      304.794     72.23392      1.806     6.03     4.206547     20.36383     25.57382         7     1.229     0.831  66.21   0
        28    477.1823    943.6298 300.0191665 +22.7963136     1055.395     72.16039      1.841     4.85     4.238015     20.36383     82.27025        22     1.382     1.145  48.30   0
        29    407.6570    941.5660 299.9981986 +22.7748619     6533.749     72.19717      1.884     4.29     4.485977     20.36383     489.8752        42     1.460     1.440   4.36   0
        30     99.8347    944.7527 299.9014357 +22.6833834     5633.298     72.21554     26.643   108.64     26.40439     20.36383     1305.094      4152    21.198    15.449 -79.41  18
        31    440.3258    929.2219 300.0123800 +22.7811246     427.7424     72.17878      1.551     5.08      4.41647     20.36383     41.89774         9     0.944     0.884 -36.58   0
        32    194.6958   1000.9205 299.9126538 +22.7279568     1982.278       72.289      4.742    14.87     81.45362     20.36383     64.23707        56     4.635     1.327   4.81  19
        33    954.0480    920.5128 300.1752827 +22.9326747      2110.35     72.17878      2.034     5.25     4.559469     20.36383     120.7814        32     1.506     1.369  13.89   0
        34    168.3277    958.3660 299.9182972 +22.7078471     1471.851     72.17878      4.312    11.51     50.24794     20.36383     52.01607        35     2.526     1.461  30.32   0
        35    603.9619    917.6087 300.0671046 +22.8268805     438.1952     72.19717      1.817     4.87     4.460002     20.36383     40.60432         6     1.083     0.621 -21.84   0
        36    742.9609    909.7233 300.1129752 +22.8663007     909.9415     72.16039      2.246     5.76     4.185478     20.36383     46.92325        18     1.280     1.167  28.84   0
        37    777.5020    903.7448 300.1256850 +22.8749412     1056.717     72.27065      1.850     5.16     4.433441     20.36383     63.03475        22     1.412     1.075   8.40   0
        38    555.3733    904.4854 300.0562402 +22.8085430     397.0706     72.17878      1.906     6.03     4.351468     20.36383     36.49754        10     1.267     0.806 -23.69   0
        39    799.8952    897.2704 300.1347706 +22.8797967     11509.74       72.289      1.873     4.12     4.589303     20.36383     744.0639        56     1.526     1.444  87.01   0
        40    991.3161    896.8374 300.1946084 +22.9370467     485.4433     72.16039      1.938     6.85      4.72611     20.36383     37.82737        12     1.237     1.062  56.09   0
        41    845.2668    897.5310 300.1488311 +22.8934727      502.451     72.23392      1.788     4.80     4.563454     20.36383     37.92861         8     1.008     0.648  -9.40   0
        42    195.1658    996.1105 299.9143645 +22.7267197     1716.267       72.142      4.283    18.30      77.1627     20.36383     55.27934        45     4.516     2.060  40.65  19
        43    111.4197    888.8840 299.9232022 +22.6708530     1154.442      72.1236      5.697     5.77     9.796567     20.36383     61.09912        22     1.494     1.185 -86.28   2
        44    504.7108    885.1468 300.0467539 +22.7878001     431.5008     72.21554      1.770     5.34     4.466288     20.36383     37.61854         7     1.416     0.567  57.60   0
        45    851.4734    885.0792 300.1548153 +22.8917592     384.4445       72.289      1.619     6.25     4.602863     20.36383     33.12095         9     1.157     0.949  34.79   0
        46    378.4620   1000.7177 299.9698749 +22.7830586      447.736     72.27065      1.768     6.26      4.41943     20.36383     36.94436        12     1.538     0.715  50.22   0
        47    808.3986    879.2295 300.1432878 +22.8771682     1435.459       72.142      1.842     4.56     4.600132     20.36383     91.14467        23     1.288     1.228 -41.39   0
        48    991.4725    879.3239 300.2003522 +22.9320653     415.9554     72.25228      1.758     4.08     4.728541     20.36383      35.5973         6     1.018     0.467   2.01   0
        49    660.3447    876.5140 300.0980307 +22.8320000     559.3525     72.23392      2.174     4.25     4.222033     20.36383      39.7556         7     0.921     0.798  26.35   0
        50    846.5796    872.9821 300.1572228 +22.8868202     934.3014     72.17878      2.279     5.04     4.639627     20.36383     58.93858        20     1.406     1.148   7.04   0
        51    954.7609    870.5901 300.1917392 +22.9185565     385.3986     72.17878      1.789     4.57     4.692211     20.36383      28.0765         7     1.382     0.430  10.50   0
        52    893.7738    863.8650 300.1749037 +22.8983485     572.1439     72.16039      2.241     5.23     4.689386     20.36383     51.20802         8     1.244     0.622 -85.64   2
        53    746.5298    863.1752 300.1292230 +22.8540135     706.4833     72.17878      1.655     4.57     4.213284     20.36383      63.1648        15     1.236     0.865  -2.29   0
        54      6.6350    861.9275 299.8994072 +22.6316707     331.4164     72.17878      1.280     4.22     4.872132     20.36383     36.46459         7     0.749     0.678  76.18   0
        55    757.8041    860.5402 300.1335935 +22.8566373      711.937       72.142      2.423     5.24     4.289512     20.36383     46.97249        11     1.119     0.840  59.51   0
        56    458.9013    859.2668 300.0409077 +22.7666364     4281.147     72.27065      1.750     3.61     4.613507     20.36383     371.0813        39     1.385     1.328  16.94   0
        57    502.3288    847.9744 300.0580977 +22.7764240     382.3672     72.17878      1.745     5.49     4.537981     20.36383     38.06078         7     1.244     0.683 -15.13   0
        58    121.3544    847.2344 299.9398297 +22.6618995     314.2403     72.19717      1.293     3.41     6.441144     20.36383     36.62545         5     0.737     0.457  75.94   0
        59    183.9258    844.9775 299.9600137 +22.6800332     999.0743     72.19716      2.183     5.91     7.028409     20.36383      69.2743        20     1.537     1.079  -8.07   0
        60    569.8360    994.0980 300.0315989 +22.8385822     2393.206     72.17878      1.984     4.88     4.218187     20.36383     145.8917        32     1.442     1.384  64.64   0
        61    161.0802    842.0568 299.9538609 +22.6723393     1623.348     72.21554      1.987     4.26      7.12237     20.36383     158.1638        28     1.510     1.251  17.16   0
        62    987.3647    829.8285 300.2151631 +22.9166228     2182.015     72.19717      1.984     4.89     4.872414     20.36383     130.8435        33     1.499     1.390  39.32   0
        63     37.1018    831.8352 299.9186539 +22.6321951     332.8123     72.17878      1.751     4.23     5.192322     20.36383     44.34007         5     0.924     0.664 -19.55   0
        64    692.6738    830.5181 300.1230571 +22.8284956     595.7745     72.28901      2.063     5.90     4.217178     20.36383     37.48429        10     1.075     0.912  29.25   0
        65    770.6995    823.8162 300.1495519 +22.8499633     613.5587      72.0868      1.676     4.67     4.346746     20.36383     60.58224        11     1.132     0.796  -6.58   0
        66    638.8826    817.4818 300.1105360 +22.8086270     4933.923     72.30736      1.659     3.47     4.342815     20.36383     408.9619        39     1.346     1.267  68.81   0
        67    129.1375    817.9435 299.9517697 +22.6558407     489.1267     72.23392      1.774     4.16     5.362001     20.36383     34.33671         8     0.842     0.671  42.02   0
        68    441.0133    814.6344 300.0498488 +22.7484699     622.3176       72.142      1.557     5.02     4.496126     20.36383     67.33703        15     1.137     1.043 -64.00   0
        69    189.0803    811.1905 299.9725984 +22.6718952     1424.748      72.1236      1.884     3.80     5.106804     20.36383     134.9508        24     1.382     1.127   6.19   0
        70    659.3384    810.2557 300.1192574 +22.8126867     838.2828     72.25228      1.626     3.49     4.329359     20.36383     86.22859        17     1.100     1.065 -11.24   0
        71    814.9788    797.2912 300.1719771 +22.8556218     4161.942      72.1236      1.685     3.56     4.494625     20.36383     320.0061        36     1.358     1.252  54.85   0
        72    223.3369    791.2489 299.9897308 +22.6764584     556.5442     72.23392      1.778     6.23     4.531292     20.36383     49.01952        12     1.489     0.855  34.04   0
        73    532.0075    789.7880 300.0862519 +22.7686336     599.9084     72.06839      1.506     3.96     4.375586     20.36383     51.48853        12     0.983     0.871  -0.70   0
        74    178.2420    787.6102 299.9768925 +22.6618830     952.7487     72.17878      1.791     4.31     4.538031     20.36383     83.38799        20     1.330     1.087 -12.07   0
        75    327.9326    779.6713 300.0260250 +22.7045211     53612.69     72.21554      1.712     3.48      4.55019     20.36383     5132.562        98     1.509     1.439  42.59   0
        76    593.8914    783.2021 300.1076639 +22.7853008      501.662      72.0868      1.461     3.59     4.369828     20.36383     51.59336         8     1.026     0.633 -22.47   0
        77    585.9929    778.7563 300.1066488 +22.7816569     1674.975     72.19717      1.639     3.37     4.370178     20.36383     147.3265        26     1.245     1.154  57.90   0
        78    998.8569    778.2767 300.2355062 +22.9052621      886.671     72.21554      1.826     5.63     5.001466     20.36383     62.99947        18     1.437     1.030 -53.09   0
        79    256.1582    777.4979 300.0044063 +22.6823641     563.2101     72.16039      1.709     6.05     4.496595     20.36383     42.76023        12     1.292     0.796 -32.53   0
        80    614.6738    774.9893 300.1168062 +22.7891755     890.5496     72.19717      1.519     3.65     4.383067     20.36383     85.17749        14     1.108     0.835  32.11   0
        81     14.2759    774.1622 299.9303060 +22.6088161     808.3551       72.142      2.054     4.98     4.870199     20.36383     71.96707        13     1.276     0.892 -35.10   0
        82    625.4282    773.3040 300.1207039 +22.7919163     748.1254      72.1052      1.632     4.20      4.38461     20.36383     58.99005        12     1.091     0.777 -18.44   0
        83    730.9007    769.4321 300.1548246 +22.8224241      575.203     72.16039      1.777     4.85     4.321824     20.36383     40.54808        10     1.124     0.948  43.03   0
        84    768.9454    760.0895 300.1697184 +22.8311457     814.1401     72.21554      1.689     4.37     4.456742     20.36383     69.84386        16     1.198     0.964  67.67   0
        85    377.6546    756.9197 300.0488886 +22.7129117     31518.06     72.21554      1.648     3.39     4.450257     20.36383     3123.844        72     1.434     1.346  46.95   0
        86    391.9290    757.4118 300.0531705 +22.7173345     2044.581     72.19717      1.592     3.15     4.415606     20.36383     202.0954        28     1.333     1.138  68.17   2
        87    388.9476    751.6200 300.0541248 +22.7147790     630.1686     72.16039      1.568     4.24     4.410481     20.36383     68.96086        10     1.061     0.658 -27.01   2
        88    900.8898    753.0495 300.2131449 +22.8686654     2743.926     72.17878      1.676     3.49     4.661732     20.36383     198.1904        30     1.301     1.224  85.61   0
        89    260.4348    748.6014 300.0151265 +22.6753616     778.4809       72.142      1.733     4.17     4.406548     20.36383     77.63407        19     1.326     1.113 -13.03   0
        90    658.4650    748.9199 300.1389201 +22.7948231     981.5598       72.289      1.636     4.63     4.411489     20.36383     77.54253        15     1.165     0.871  24.10   0
        91    495.3995    748.9149 300.0881372 +22.7459294     577.0555     72.04997      1.645     3.03     4.435941     20.36383     56.59243         9     0.857     0.742  -3.28   0
        92     64.9784    744.5322 299.9556873 +22.6155429     563.0738     72.16039      2.015     5.14     4.506959     20.36383     45.14783         9     1.227     0.981 -84.61   0
        93    505.6335    743.6678 300.0930284 +22.7474930      887.688     72.17878      1.592     3.56     4.417997     20.36383     93.08217        15     1.142     0.901  65.87   0
        94    907.1776    741.1860 300.2189614 +22.8671429     434.3513     72.16039      1.361     3.97     4.679767     20.36383     44.73243         9     1.185     0.749  45.36   0
        95    407.9271    739.7740 300.0638804 +22.7170739     311.6409     72.17878      1.512     5.72     4.334749     20.36383     34.09166         8     1.120     0.824 -65.33   0
        96    451.8877    738.6743 300.0779198 +22.7299428     438.8774     72.32571      1.527     2.70     4.391706     20.36383     49.85063         7     0.811     0.593 -24.67   0
        97    364.0679    739.2546 300.0504013 +22.7037697     252.4164     72.21554      1.375     3.30     4.437755     20.36383     41.31649         6     0.885     0.467  39.51   0
        98    660.2744    737.8756 300.1430727 +22.7921958     265.1293     72.27065      1.356     3.26     4.424899     20.36383     35.64063         5     0.841     0.627 -45.68   0
        99     93.8281    737.6880 299.9668763 +22.6222396     641.1237     72.16039      1.990     4.04     4.482343     20.36383     47.87195        10     1.021     0.694 -88.70   0
       100    884.8302    735.7974 300.2137429 +22.8588996     527.7438       72.142      1.650     5.74      4.68513     20.36383     43.05154        12     1.033     0.898  63.98   0
       101    257.7586    733.1911 300.0193015 +22.6701398     648.7758     72.17878      1.861     6.35     4.374056     20.36383     50.55827        13     1.599     0.815 -30.48   0
       102    580.8596    723.4383 300.1230265 +22.7642445     501.8471     72.19717      1.685     5.58     4.498818     20.36383     40.30686        10     1.136     0.773  82.64   0
       103    551.0017    721.9869 300.1141997 +22.7548759     492.6163     72.01313      1.362     2.99     4.468028     20.36383     69.77964        11     0.910     0.828 -38.80   0
       104    967.2665    718.4324 300.2450988 +22.8786111     4606.049     72.17878      1.755     3.66     4.947569     20.36383     343.5932        37     1.361     1.291  40.93   0
       105    460.2266    720.7644 300.0863350 +22.7273056     325.2331     72.17878      1.428     4.05     4.479609     20.36383     41.71392         6     0.741     0.653  67.49   0
       106    572.8011    719.1652 300.1219053 +22.7606022       1369.9       72.142      1.551     3.24     4.518118     20.36383     149.9578        21     1.264     0.982  47.42   0
       107    492.0681    718.4637 300.0969947 +22.7361940     317.0464     72.23392      1.550     4.86     4.549438     20.36383     39.16053         6     1.027     0.651 -50.23   0
       108    654.1979    714.3597 300.1488208 +22.7836250     267.9166     72.17878      1.511     4.66     4.585783     20.36383     37.16724         8     1.058     0.582 -57.06   0
       109    420.0784    713.1475 300.0763136 +22.7130803     1003.828     72.21554      0.500    -1.75     4.373872     20.36383     789.4686         5     0.393     0.344  27.12   0
       110    955.7899    709.9076 300.2442885 +22.8727246     1625.252      72.1236      1.675     3.72      4.98272     20.36383     128.3103        24     1.249     1.187 -56.33   0
       111    318.7540    703.5381 300.0479080 +22.6799336     839.6332     72.19717      1.556     3.66     4.410793     20.36383      95.9323        13     1.188     0.783  18.85   0
       112    782.2604    701.0425 300.1930560 +22.8181850     2397.858     72.16039      1.630     3.53     4.751961     20.36383     225.4139        30     1.529     1.066   2.98   0
       113    986.8967    699.9106 300.2572414 +22.8791717     1792.539      72.3624      1.804     4.83     5.115113     20.36383     115.8987        26     1.424     1.154 -21.28   0
       114      4.6738    691.0628 299.9543222 +22.5821179      933.918     70.78649      1.758     3.99     4.215526     20.36383     88.67496        16     1.232     0.935 -20.94  16
       115    167.5237    687.6487 300.0060399 +22.6300082     527.4429     72.17878      1.490     3.61     4.578243     20.36383     78.05357        13     1.038     1.012 -14.16   0
       116    864.6494    687.0518 300.2232885 +22.8388554     552.4083     72.21554      1.550     5.25     5.119677     20.36383     52.35239        10     0.970     0.838 -18.57   0
       117    900.5387    677.9568 300.2374357 +22.8469961     148911.5     72.17878      1.650     3.39     5.201668     20.36383     11762.37       155     1.512     1.491  61.79   0
       118    662.6850    681.7709 300.1620530 +22.7768151     351.0205     72.17878      1.441     5.60     4.799354     20.36383     49.48187        10     0.985     0.895 -47.21   0
       119    752.8974    678.3018 300.1912919 +22.8028567      772.433     72.38073      1.530     3.92     4.841019     20.36383     70.25722        14     1.154     0.809  -3.54   0
       120    933.2045    670.7332 300.2499711 +22.8547073     487.6485     72.16039      1.618     3.44     5.244092     20.36383     58.83852        12     1.048     0.887 -48.16   0
       121    586.8339    666.6176 300.1433477 +22.7497290     1589.456     72.16039      1.419     2.80     4.913342     20.36383     200.9772        20     1.191     0.982   1.35   0
       122    768.0056    664.0519 300.2006303 +22.8032929     9418.243     72.16039      1.495     3.02     4.894241     20.36383     860.5366        41     1.271     1.195  41.90   0
       123    249.3241    665.4913 300.0386723 +22.6481950     348.4147     72.32571      1.654     6.26     4.519738     20.36383     29.84149         7     1.063     1.037  24.69   0
       124    269.4082    658.9340 300.0470486 +22.6523389     5013.513     72.17878      1.586     3.14     4.488713     20.36383     569.8066        31     1.271     1.183  40.11   0
       125    351.4073    656.9851 300.0731898 +22.6763743     1296.269      72.0868      1.661     3.68     4.540278     20.36383     125.3102        23     1.395     1.051 -76.78   0
       126    226.7847    654.7351 300.0351569 +22.6383489     512.6633     72.16039      1.380     4.68     4.613323     20.36383     71.74519        10     1.136     0.674 -25.66   0
       127    559.5536    652.5677 300.1394156 +22.7375186     768.9033     72.21554      1.476     3.84     4.943133     20.36383     94.41403        15     1.208     0.777  39.58   0
       128    551.4142    644.7975 300.1394048 +22.7328486     3273.619     72.01313      1.493     2.89      4.97236     20.36383     367.8665        28     1.196     1.087  53.32   0
       129    541.7304    638.3175 300.1384941 +22.7280858     1434.209     72.28901      1.479     2.98     5.001522     20.36383     159.1689        22     1.176     1.044  73.84   0
       130    935.4252    636.6099 300.2617489 +22.8455713     530.8383     72.17878      1.715     3.61     5.165775     20.36383     51.78396         8     1.052     0.750  42.49   0
       131    452.7689    636.0041 300.1115487 +22.7007504     308.7259     72.16039      1.686     2.21     4.872059     20.36383     47.66846         5     0.757     0.465 -34.41   0
       132    205.0002    634.6206 300.0349161 +22.6260454     662.0327      72.1052      1.511     3.94     4.749001     20.36383     61.89975        11     0.996     0.878  88.02   0
       133    219.2483    633.0306 300.0398629 +22.6298635     749.1866     72.21554      1.531     3.88     4.710717     20.36383     74.69034        13     1.059     0.908   3.92   0
       134    988.7846    630.1096 300.2805068 +22.8596864     607.2351      72.1052      1.733     3.09     5.340705     20.36383      53.1441        10     0.950     0.701 -19.70   0
       135    276.2150    629.5844 300.0586985 +22.6459625     437.2119       72.142      1.624     4.47     4.589614     20.36383     51.41448         7     0.953     0.597  80.11   0
       136    244.8028    630.3106 300.0486931 +22.6367488     625.7948      72.0868      1.601     3.60     4.656869     20.36383     60.01219         9     1.063     0.601  -7.10   0
       137    565.8225    628.7888 300.1490916 +22.7325732     521.8145     72.17878      1.444     3.87     5.084293     20.36383     54.88593        10     1.042     0.717  75.19   0
       138    466.5327    628.1286 300.1183911 +22.7026173     1768.422     72.21554      1.488     2.92     4.988152     20.36383     191.4595        22     1.179     1.060 -87.73   0
       139    500.0174    627.4180 300.1290462 +22.7124525      365.818     72.16039      1.702     3.94     5.062765     20.36383     24.66997         5     0.901     0.493   1.38   0
       140    120.3410    623.0464 300.0123565 +22.5973282     19977.96     72.21554      1.738     3.34      5.10149     20.36383     2033.152        70     1.542     1.407  29.97   0
       141     41.4049    624.6871 299.9872929 +22.5741140     747.5466      72.1052      1.895     5.04     5.207054     20.36383     61.68198        13     1.442     0.675 -26.57   0
       142    551.3871    623.7022 300.1462482 +22.7267860     982.8748     72.06839      1.516     3.02     5.088651     20.36383     116.9909        13     0.985     0.870 -39.05   0
       143    586.8420    622.8977 300.1575514 +22.7371830     326.3595     72.17878      1.231     4.49     5.149107     20.36383     36.28484         7     0.942     0.612 -17.60   0
       144    923.0406    620.0064 300.2632790 +22.8370924     249.8201     72.21554      1.560     4.63       5.1006     20.36383     27.74008         6     0.894     0.682  44.40   0
       145    969.1669    609.9996 300.2809181 +22.8480336     1180.201       72.142      1.616     4.76      5.26552     20.36383     89.36399        18     1.329     0.952  25.44   0
       146     66.6446    607.1752 300.0008227 +22.5766667     1578.595     72.19717      2.065     4.61     5.325666     20.36383     114.3693        31     1.613     1.307  73.34   0
       147    836.2426    608.1191 300.2400714 +22.8076767     450.4073     72.16039      1.379     3.52     5.004807     20.36383     50.94174        10     0.876     0.785   9.60   0
       148    132.7938    607.6525 300.0212264 +22.5966501      448.982       72.142      1.476     4.42     5.130064     20.36383     37.42218         7     0.997     0.644 -18.96   0
       149    909.7368    602.7492 300.2647344 +22.8281504      703.023     72.23392      1.721     4.29        5.067     20.36383     62.16072        14     1.264     0.823  48.43   0
       150    514.6750    604.0779 300.1411902 +22.7101484     507.3016       72.289      1.372     3.30     5.174015     20.36383     54.16011         9     0.956     0.625  40.44   0
       151    307.5862    603.6142 300.0768909 +22.6479218     357.9907      72.1052      1.695     3.30     4.701818     20.36383     47.59029         6     0.904     0.655 -62.30   0
       152    904.9835    602.4365 300.2633535 +22.8266367     374.9747     72.17878      1.444     3.41     5.065352     20.36383     40.01711         6     0.793     0.493  -4.78   1
       153    481.0574    597.0768 300.1329974 +22.6980611      10275.6     72.21554      0.465    -0.94      5.17281     20.36383     7725.708        11     0.385     0.367 -57.31   0
       154    471.5550    596.6650 300.1301730 +22.6950941     705.9636     72.17878      1.352     2.92     5.128956     20.36383     88.73017        14     1.057     0.833  -3.31   0
       155    619.4338    595.1573 300.1767124 +22.7389887     540.6578     72.23392      1.619     4.20     5.215872     20.36383     51.41436        12     1.107     0.931  61.08   0
       156    666.8075    593.7040 300.1919430 +22.7527691     488.5229     72.06839      1.407     4.48     5.027114     20.36383     48.24193        10     1.064     0.754 -26.49   0
       157    637.1663    593.2900 300.1828428 +22.7437672     614.3281     72.16039      1.271     2.42     5.147792     20.36383     76.79951         7     0.719     0.628  15.55   0
       158    515.6028    592.2993 300.1453042 +22.7070460     1034.785     72.06839      1.651     3.14      5.20119     20.36383     95.25912        15     0.990     0.941  57.96   0
       159    949.6265    587.9590 300.2819805 +22.8358494     3238.877     72.23392      1.581     3.25     5.172762     20.36383     280.3184        30     1.392     1.084  55.08   0
       160    481.2103    587.5862 300.1361270 +22.6953832     1693.165     72.06839      1.445     2.78     5.180182     20.36383     208.2451        21     1.221     0.982  43.44   0
       161     43.1677    581.2449 300.0019476 +22.5621879     5173.267     72.23392      1.830     3.50     5.428143     20.36383     473.7614        41     1.434     1.361  56.26   0
       162    988.4028    577.9557 300.2973266 +22.8445884      292.006     72.17878      1.457     4.11      5.35785     20.36383      41.0228         5     1.055     0.458  24.80   0
       163    510.3709    578.5013 300.1481559 +22.7015175     452.2632      72.1052      1.777     4.73     5.223062     20.36383     36.84824         7     1.039     0.611  18.95   0
       164    344.6545    574.4093 300.0979066 +22.6506592     9193.087     72.17878      1.526     2.77     4.787034     20.36383     1070.402        40     1.282     1.168  61.59   0
       165    156.6564    572.8236 300.0399538 +22.5938205      13277.5     72.19717      1.919     6.77      5.07373     20.36383     2160.167        30     2.178     0.590 -10.26   0
       166    106.1108    574.1431 300.0238139 +22.5790359     326.6194     72.21554      1.635     4.05     5.157744     20.36383     32.20206         6     0.807     0.580  37.31   0
       167    467.1362    571.4436 300.1369876 +22.6865312     9183.331     72.17878      1.470     2.78     5.121231     20.36383     985.0654        45     1.306     1.209 -81.98   0
       168    871.6015    569.7881 300.2635455 +22.8072594     198.4145      71.9947      1.336     3.75     5.002669     20.36383     26.62114         5     1.014     0.398  -5.61   0
       169    713.5261    567.9617 300.2148601 +22.7593775     348.4307      72.1236      1.326     2.52     5.013552     20.36383     47.40966         6     0.776     0.499  88.92   0
       170    878.9141    565.6129 300.2671817 +22.8082505     1969.891      72.1236      1.566     2.69     5.004896     20.36383     210.4051        25     1.229     1.083  76.45   0
       171    111.1599    567.6118 300.0275038 +22.5786777     320.0221     72.16039      1.370     3.49     5.145991     20.36383     31.32272         5     0.824     0.427 -19.46   0
       172    963.5344    563.0468 300.2944094 +22.8328575     12622.35     72.19717      1.614     3.26     5.240952     20.36383     1095.681        51     1.361     1.302 -89.57   0
       173    527.7125    561.1218 300.1591989 +22.7017274     11759.78     72.32571      1.431     2.77     5.294373     20.36383     1328.515        46     1.237     1.186  74.81   0
       174    697.2693    556.9904 300.2133566 +22.7513560     585.4319     72.16039      1.664     3.25     5.098562     20.36383     52.58431        10     0.913     0.749 -32.47   0
       175    412.7262    556.2170 300.1249960 +22.6658495     311.4146     72.17878      1.402     4.21     4.856973     20.36383     39.62803         8     1.136     0.596 -44.07   0
       176    255.1523    556.4982 300.0758809 +22.6186806     1360.416     72.21554      1.518     3.01     4.844296     20.36383     138.5597        19     1.144     0.957 -14.86   0
       177    502.0614    554.2222 300.1534524 +22.6920581     378.5811     72.16039      1.375     2.56     5.255171     20.36383      60.7239         8     0.791     0.717  19.87   0
       178    459.4199    549.2548 300.1417903 +22.6778499     4418.646     72.16039      1.440     2.78     5.091414     20.36383     471.3918        31     1.176     1.104  56.03   0
       179    802.3284    549.4364 300.2485546 +22.7806627     818.6259     72.17878      1.365     3.17     4.944557     20.36383     93.40969        14     1.068     0.846  38.78   0
       180    437.7139    547.7308 300.1355286 +22.6709054     1146.131     72.28901      1.393     2.71     4.976456     20.36383     159.6778        13     0.973     0.819  50.18   0
       181    191.9279    546.8787 300.0593435 +22.5969590     697.2224       72.289      1.407     3.00     5.008334     20.36383     98.22285        13     0.947     0.912 -68.75   0
       182    879.1944    544.9370 300.2739830 +22.8023951     1533.809       72.142      1.513     3.50     4.972867     20.36383     134.7937        20     1.150     1.036 -56.32   0
       183    399.9458    543.4000 300.1251800 +22.6583397     372.9694      72.0868      1.588     3.57     4.852677     20.36383      48.0368         7     0.883     0.657  65.03   0
       184    759.5616    541.8753 300.2376782 +22.7656791     819.4069       72.142      1.354     3.03     4.942689     20.36383     113.7394        14     1.127     0.738  47.81   0
       185    576.0418    536.8592 300.1821272 +22.7092479     203767.1     72.16039      1.424     2.72     5.320704     20.36383     24559.68       197     1.454     1.425 -24.43   0
       186    852.7950    540.6421 300.2671451 +22.7932540     264.2038     72.19717      1.445     3.43     4.938758     20.36383     26.80554         5     0.763     0.446  16.43   0
       187    262.0844    536.7115 300.0844610 +22.6150831     3481.099     72.30736      1.544     2.88     4.861895     20.36383     376.7236        31     1.259     1.145  45.08   0
       188    537.1918    537.4616 300.1698329 +22.6977771     188.2145      72.1236      1.248     2.59     5.360601     20.36383     36.85903         5     0.711     0.468  18.77   0
       189    828.1486    533.2120 300.2618726 +22.7837372     509.1451     72.19717      1.259     2.95      4.91974     20.36383     58.98901         8     0.883     0.611  -3.33   0
       190    607.3730    523.7581 300.1961393 +22.7148762     313.8395     72.19717      1.021     3.67         5.26     20.36383     36.41079         5     0.936     0.414   7.42   0
       191    466.6594    517.4278 300.1543769 +22.6708853     2764.845     72.17878      1.542     3.04     5.171791     20.36383      304.307        29     1.485     1.019  85.81   0
       192    311.0601    519.4125 300.1053111 +22.6248061     411.5758       72.142      1.347     2.53     4.812083     20.36383     71.96938         7     0.820     0.593  28.67   0
       193    916.2439    517.5752 300.2944221 +22.8056306     303.3482     72.21554      1.293     3.48     4.963238     20.36383     34.31531         5     0.738     0.474 -14.49   0
       194    878.0980    513.7359 300.2837714 +22.7931033     412.2696       72.289      1.334     3.45      4.91286     20.36383     49.55222         8     0.877     0.737  74.65   0
       195    697.5104    513.1837 300.2276549 +22.7388487     231.9842      72.1052      1.125     3.88     5.133252     20.36383     43.29381         7     0.959     0.607  38.48   0
       196    783.8183    506.0642 300.2568660 +22.7626603     409.8493       72.142      1.350     2.78      4.86989     20.36383     50.90694         8     0.832     0.620  43.69   0
       197    863.7803    503.5008 300.2826293 +22.7858747     1768.171      72.1052      1.504     2.69     4.884265     20.36383     215.2608        18     1.051     0.968  35.90   0
       198    750.4004    503.8679 300.2471624 +22.7520187     449.2974      72.1236      1.919     3.20      4.92354     20.36383     40.37302         5     0.729     0.462 -73.05   0
       199    734.8517    501.1431 300.2432008 +22.7465780     2582.322     72.23392      1.348     2.50     4.955194     20.36383     326.8184        22     1.039     1.001 -21.30   0
       200    373.1485    500.8767 300.1306459 +22.6381027      211.282     72.17878      1.268     3.98     4.923403     20.36383     29.34175         6     0.783     0.580 -53.19   0
       201    978.5285    496.0528 300.3208393 +22.8180978     1114.909     72.16039      2.505     8.66     5.030868     20.36383     67.61925        28     2.300     1.042  68.95   0
       202    992.3902    495.3352 300.3253972 +22.8220421      1394.23     72.16039      1.695     3.40     5.057858     20.36383     124.5047        27     1.418     1.341 -14.64   0
       203    944.5756    497.5446 300.3097626 +22.8083597      293.377     72.19717      1.380     5.05     4.951928     20.36383     36.07413         7     1.070     0.675  49.31   0
       204    639.7256    497.7887 300.2146484 +22.7171142     406.9429     72.19717      1.266     2.84      5.25549     20.36383     57.83422         9     0.845     0.736  83.58   0
       205    522.1125    496.8561 300.1783197 +22.6816011     706.9997     72.23392      1.338     2.85     5.317764     20.36383     94.19005        11     0.918     0.782  82.86   0
       206    863.9339    493.5337 300.2859129 +22.7830573     2243.923     72.23392      1.695     3.99     4.869321     20.36383     225.9914        28     1.565     1.018  74.01   0
       207    617.1599    491.7504 300.2095788 +22.7086187     673.8242     72.21554      1.600     3.57      5.25604     20.36383     72.41537        14     1.073     0.912 -75.43   2
       208    455.8856    490.6389 300.1597194 +22.6599666     348.8828     72.16039      1.191     2.83      5.19377     20.36383     52.01126         7     0.828     0.567 -26.43   0
       209    403.0179    490.9063 300.1431775 +22.6441958     336.6388      72.1052      1.420     5.02     5.092422     20.36383     45.35133         7     1.147     0.621  32.47   0
       210    902.1691    488.6085 300.2994360 +22.7930931     4331.823     72.17878      1.538     2.96     4.871897     20.36383     482.2818        33     1.258     1.159  86.48   0
       211    562.7510    484.2950 300.1950522 +22.6901739     425.4987     72.23392      1.561     5.62     5.340268     20.36383     45.25993        10     1.060     0.841  89.14   0
       212    993.7714    479.0296 300.3311214 +22.8177698     646.4788     72.16039      1.457     4.34       4.9632     20.36383      71.0778        12     1.112     0.924  56.66   0
       213    134.0661    478.6970 300.0634879 +22.5600473     921.5106       72.289      1.559     3.59     5.071706     20.36383     105.5136        17     1.154     1.039  37.67   0
       214    794.8864    472.7189 300.2711410 +22.7563972     300.5843     72.32571      1.449     4.40     4.810712     20.36383     37.27048         7     0.866     0.636  76.85   0
       215    126.6691    468.2391 300.0645828 +22.5548290     432.4803       72.142      1.593     4.89     5.088652     20.36383     53.53878         8     1.134     0.597  81.07   0
       216    990.2079    468.0644 300.3335689 +22.8135517     438.2169     72.16039      1.684     4.78     4.910578     20.36383     43.13299        10     1.095     0.708 -17.25   0
       217    734.7471    463.3238 300.2554447 +22.7356843     346.5967     72.21554      1.199     2.83      5.02995     20.36383     50.28771         7     0.806     0.602  28.30   0
       218    623.3060    460.9270 300.2214985 +22.7016094     306.5043     72.30736      1.244     2.59     5.262749     20.36383      58.6884         5     0.767     0.487  34.64   0
       219    675.4636    459.1823 300.2383145 +22.7167351     520.1489     72.16039      1.087     2.05     5.296827     20.36383     108.2817         9     0.786     0.656 -15.53   0
       220    990.1498    451.9562 300.3387794 +22.8089049     542.6381     72.21554      1.509     4.29     4.843993     20.36383     75.22987        10     1.093     0.729  29.65   0
       221    736.3267    451.4153 300.2598022 +22.7327369      870.766     72.17878      1.275     2.63      5.07583     20.36383     99.27777        13     0.928     0.828 -15.55   0
       222    893.5142    447.7701 300.3099927 +22.7787672     978.9641     72.17878      1.514     2.58     4.866384     20.36383     131.4941        15     1.006     0.896  79.98   0
       223    877.7356    443.8894 300.3063313 +22.7729272      672.891       72.289      1.550     2.76     4.868242     20.36383     86.37401        13     0.997     0.834  84.29   0
       224    622.1295    441.8007 300.2273396 +22.6957644     3180.857      72.1052      1.367     2.52     5.267536     20.36383     434.7877        27     1.125     1.029  49.91   0
       225    982.7366    440.7789 300.3400942 +22.8034731     528.2324       72.142      1.346     3.79     4.806412     20.36383     63.20264         9     1.164     0.517  48.23   0
       226     98.4323    432.8942 300.0672767 +22.5362216     358.5027      72.1236      1.537     3.87      5.10779     20.36383     48.95074         6     1.018     0.422  73.76   0
       227    394.1281    429.9331 300.1602003 +22.6240304     248.0894     72.21554      1.242     3.84     5.339115     20.36383     30.40527         5     0.805     0.525  30.88   0
       228    461.9836    428.5563 300.1817673 +22.6439729     305.5548     72.19717      1.214     2.68     5.299365     20.36383     64.25223         6     0.779     0.646  21.95   0
       229    905.2369    421.0265 300.3223286 +22.7745926     504.7775     72.19717      1.296     2.37     4.878923     20.36383       75.978        10     0.850     0.713   7.60   0
       230    991.9045    419.8478 300.3497479 +22.8002020      1004.08     72.21554      1.444     2.86     4.705296     20.36383     111.0553        13     0.973     0.821  37.35   0
       231    642.0831    417.8471 300.2413294 +22.6948633     319.0276     72.17878      1.450     4.86     5.322377     20.36383     36.22903         8     0.861     0.777   6.93   0
       232    732.8595    415.6421 300.2703314 +22.7214226     1018.046     72.16039      1.519     3.19     5.227086     20.36383     124.0656        18     1.130     1.023  74.14   0
       233    528.3970    416.4425 300.2063758 +22.6603974     481.6868     72.19717      1.298     2.56     5.350055     20.36383     60.67207         6     0.748     0.545 -41.03   0
       234    236.7160    414.0406 300.1163867 +22.5722799     700.9994       72.142      1.559     3.08     5.305285     20.36383     109.3208        14     1.112     0.880 -17.65   0
       235    299.0065    409.5210 300.1372278 +22.5896578     3826.484      72.1052      1.453     2.84     5.465295     20.36383     451.1717        27     1.182     1.053  63.37   0
       236    246.2281    404.3345 300.1224944 +22.5723465     7569.658     72.16039      1.505     2.75     5.334045     20.36383      830.438        47     1.331     1.231  62.21   0
       237   1012.1473    399.3394 300.3627197 +22.8003671      1869.56     72.23392      1.569     2.99     4.640049     20.36383     193.4442        24     1.203     1.104  51.11   0
       238    387.0293    398.5777 300.1681659 +22.6129022     4788.634     72.17878      1.396     2.60     5.409695     20.36383      614.067        30     1.205     1.033  69.60   0
       239    631.2797    395.3626 300.2452600 +22.6851691      18595.6       72.142      1.358     2.44     5.343389     20.36383     2318.006        53     1.242     1.142  67.69   0
       240    649.1313    395.2093 300.2508713 +22.6904729     789.0802     72.16039      1.969     7.00     5.377849     20.36383     52.02577        18     1.706     0.805 -36.00   0
       241    488.4417    391.8521 300.2019146 +22.6413640     286.4827     72.17878      1.264     3.46     5.296763     20.36383     32.06314         5     0.755     0.457 -71.16   0
       242    828.1836    385.9374 300.3096862 +22.7414370     505.3352     72.16039      1.403     3.49     4.855806     20.36383     62.44794         9     1.056     0.609 -66.43   0
       243    964.9137    378.1850 300.3548466 +22.7801469     812.4404      72.1236      1.474     3.98     4.780168     20.36383      96.8259        14     1.116     0.980 -66.27   0
       244    185.9162    375.3158 300.1131546 +22.5459367     2014.271     72.30736      1.541     2.89     5.252703     20.36383     220.0525        27     1.349     1.081  82.40   0
       245    501.8069    377.3899 300.2107682 +22.6412164     423.9349     72.04997      1.235     3.45     5.317094     20.36383     35.10934         5     0.771     0.445 -18.51   0
       246    571.9147    364.7770 300.2366922 +22.6586000     6648.729      72.1236      1.397     2.44     5.380509     20.36383     965.3693        36     1.254     1.054  67.79   0
       247    985.7340    365.4027 300.3654899 +22.7827054     1287.835     72.17878      1.602     2.75     4.725202     20.36383     141.6802        17     1.031     0.982 -52.20   0
       248    286.7003    364.1201 300.1481302 +22.5729386     664.9301     72.30736      1.336     3.93     5.460341     20.36383     89.74569        12     1.145     0.776  17.17   0
       249    831.6624    356.8192 300.3202186 +22.7341116     356.0884     72.16039      1.387     3.33      4.82321     20.36383     50.18604         7     0.943     0.784  67.01   0
       250    144.6475    357.2042 300.1062000 +22.5283660      490.587     72.16039      1.529     4.11     5.245686     20.36383     61.38708         9     1.002     0.883   4.38   0
       251    776.1754    353.8122 300.3038953 +22.7166321      1367.25     72.17878      1.537     2.95     4.949844     20.36383     151.6404        17     1.137     0.991  46.43   0
       252    686.0779    355.2068 300.2753623 +22.6900494     430.2711      72.1052      1.182     2.38     5.423228     20.36383     69.21399         8     0.804     0.615 -38.64   0
       253    478.5476    350.9836 300.2120937 +22.6266646     6240.487     72.17878      1.399     2.52     5.294075     20.36383     812.0164        34     1.208     1.072  64.11   0
       254    870.5411    345.6716 300.3359589 +22.7425489     1506.406     72.21554      1.519     2.44     4.901446     20.36383     171.6137        21     1.145     0.997 -66.82   0
       255    968.1346    346.0334 300.3662832 +22.7718694      636.595     72.17878      1.450     3.29     4.784757     20.36383     75.85295        10     0.977     0.681 -29.68   0
       256    463.2181    340.0760 300.2108600 +22.6189392     402.1397     72.17878      1.391     2.71     5.340538     20.36383     60.56283         7     0.783     0.720 -38.22   0
       257    545.8079    337.9355 300.2372696 +22.6430699     495.8719     72.16039      1.396     3.47     5.387973     20.36383     52.64466         8     0.838     0.657 -37.65   0
       258    824.0882    336.0242 300.3246035 +22.7258679     229.4823       72.142      1.209     4.13      4.82124     20.36383     34.79095         7     0.904     0.540 -46.71   0
       259    526.4277    335.0592 300.2321675 +22.6364376     355.1411     72.17878      1.541     4.14     5.366524     20.36383     42.41836         6     0.997     0.490 -85.39   0
       260    843.3154    333.1315 300.3315371 +22.7307935     573.9244     72.27065      1.527     3.48     4.877901     20.36383     72.49432        10     1.040     0.740 -46.34   0
       261    366.1184    330.2538 300.1838249 +22.5870213     2553.648     72.21554      1.380     2.52     5.435237     20.36383     284.8961        23     1.073     1.026 -58.55   0
       262     84.5122    327.6025 300.0971104 +22.5018411     955.1207      72.1052      1.597     3.40     5.289119     20.36383      124.195        17     1.148     1.018  32.35   0
       263    335.4308    319.6282 300.1777230 +22.5747738     29788.43     72.17878      1.484     2.57     5.449511     20.36383     3897.596        68     1.366     1.209  60.91   0
       264    870.1415    317.3200 300.3450318 +22.7342810     1435.022     72.23392      1.476     2.71     4.987056     20.36383     183.5775        24     1.155     1.114  19.97   0
       265    825.4411    315.1040 300.3318118 +22.7202610     413.0925     72.17878      1.526     3.10     4.847164     20.36383     52.24051         8     0.877     0.649  28.71   0
       266     31.7591    307.3238 300.0872944 +22.4802042     5083.375       72.142      1.760     3.25     5.375742     20.36383     484.7684        45     1.499     1.323  52.64   0
       267    785.2807    306.0945 300.3222134 +22.7056472     521.6371     72.32571      1.350     3.67     4.880576     20.36383     61.38351         8     0.953     0.732  57.51   0
       268    209.7962    305.9841 300.1430702 +22.5331997     433.3897      72.0868      1.354     3.12     5.385505     20.36383       75.132         8     0.929     0.770  64.85   0
       269    433.9642    305.0597 300.2131120 +22.6001189     446.3454     72.19716      1.255     2.67      5.42472     20.36383     75.38692         9     0.908     0.656 -18.66   0
       270    745.9022    299.4880 300.3120814 +22.6919574     1935.902     72.34406      1.436     2.49     5.175247     20.36383     275.1257        22     1.165     0.981  82.94   0
       271    554.4818    294.0515 300.2542056 +22.6330645     413.9843     72.19717      1.447     3.66     5.404099     20.36383     48.90119         6     0.929     0.497 -86.25   0
       272    960.9262    292.4529 300.3814156 +22.7543091     666.7944     72.19717      1.540     3.66     4.885407     20.36383     63.16875        12     1.062     0.857  61.13   0
       273    407.7112    283.9816 300.2117772 +22.5862000     2053.264      72.1236      1.522     3.26      5.45892     20.36383     222.3067        25     1.384     0.974  59.19   0
       274    619.6575    282.4252 300.2782771 +22.6492473     224.2999     72.17878      1.205     4.87     5.424451     20.36383       36.135         8     1.250     0.537  68.95   0
       275    846.9161    277.2574 300.3507839 +22.7158132     576.4091     72.27065      1.296     3.14     5.042341     20.36383     82.17549        11     0.968     0.792  46.97   0
       276    838.9219    278.0734 300.3480264 +22.7136545     409.3216       72.289      1.337     2.75     5.004683     20.36383     47.01895         5     0.765     0.508  32.00   0
       277    729.2908    275.0052 300.3148448 +22.6799482     296.7583      72.0868      1.240     3.92      5.28566     20.36383     52.15685         5     1.036     0.425  20.88   0
       278    483.5671    263.5526 300.2420152 +22.6030607     1242.877     72.21554      1.383     2.36     5.384665     20.36383     162.6145        16     0.978     0.949   2.87   0
       279     56.7190    264.2126 300.1090314 +22.4753195     386.9426     72.16039      1.785     3.34      5.37498     20.36383     56.65764         5     1.085     0.297  34.43   0
       280    995.0270    259.9532 300.4025961 +22.7551713     392.4294     72.21554      1.450     4.12     5.167386     20.36383     38.47496         7     0.903     0.537  41.29   0
       281    866.6594    256.8887 300.3635466 +22.7158689     343.1949     72.25228      1.542     3.63     5.189432     20.36383     40.86786         6     0.990     0.419 -75.66   0
       282    728.4245    255.3385 300.3209529 +22.6740374     2197.109     72.17878      1.371     2.50     5.308158     20.36383     265.1081        22     1.083     1.011  84.55   0
       283    989.7088    249.7932 300.4042316 +22.7506585     3154.744      72.0868      1.557     2.96     5.320408     20.36383     329.0479        30     1.269     1.136 -88.18   0
       284    436.6348    239.1821 300.2353078 +22.5820012     713.3787     72.17878      1.452     3.31     5.434739     20.36383     91.98231        12     1.184     0.636  31.99   0
       285    142.5732    233.3356 300.1457283 +22.4921979     534.4539     72.16039      1.383     4.00      5.41834     20.36383     57.39716        11     1.166     0.765  15.49   0
       286    111.5401    233.2913 300.1360959 +22.4828822     1270.295     72.25228      1.776     4.11     5.389119     20.36383      117.859        22     1.314     1.178  -7.95   0
       287   1005.2059    230.7392 300.4152463 +22.7498173     476.3892      72.1236      1.434     3.24     5.688991     20.36383     65.83139         8     0.988     0.592   0.24   0
       288    195.9199    225.7428 300.1647763 +22.5060091     448.8534     72.21554      1.292     3.12     5.436141     20.36383     56.98497         8     0.956     0.559 -60.58   0
       289    990.3671    222.8676 300.4131686 +22.7431133     266.3007     72.17878      1.210     3.06     5.701058     20.36383     54.81301         7     1.009     0.500  24.40   0
       290    871.7064    219.4817 300.3772510 +22.7066266     364.3388     72.32571      1.319     3.40     5.313147     20.36383     43.22887         5     0.776     0.430  23.23   0
       291    800.0930    216.9306 300.3557479 +22.6844564     537.7147     72.30736      1.286     2.50     5.287426     20.36383     90.17267        10     0.853     0.723  75.95   0
       292    390.4676    216.2823 300.2283637 +22.5615930     334.9074       72.289      1.266     3.68     5.462804     20.36383     54.60038         6     0.877     0.531 -43.67   0
       293    890.9066    209.9891 300.3863170 +22.7096444     424.9745      72.1236      1.558     3.05     5.323542     20.36383     48.57844         7     0.843     0.632  30.81   0
       294    898.2570    206.0079 300.3899004 +22.7106998     2073.798     72.16039      1.481     2.83     5.329432     20.36383     226.8185        22     1.163     1.018  72.70   0
       295    316.7690    203.0851 300.2097101 +22.5357213     2165.936     72.19717      1.467     2.80     5.594618     20.36383     256.1391        24     1.208     1.031  49.35   0
       296    394.7312    198.4012 300.2354879 +22.5577353     1043.364      72.1236      1.445     2.90     5.465054     20.36383     100.7631        15     1.019     0.875 -35.36   0
       297    796.3635    197.4325 300.3609072 +22.6777355     540.4435     72.19717      1.406     3.17     5.300355     20.36383     87.89687        10     0.963     0.809  88.50   0
       298    903.4857    194.9887 300.3951041 +22.7090967     410.9088      72.1236      1.571     3.71     5.343491     20.36383     36.06074         6     0.793     0.500  88.64   0
       299    211.7370    190.5691 300.1810983 +22.5006528     806.1061     72.19717      1.574     3.32      5.46506     20.36383     87.99769        14     1.104     0.834  12.80   0
       300    329.2944    189.5416 300.2179978 +22.5355854     235.4625     72.25228      1.233     3.40     5.601201     20.36383     45.12921         5     0.771     0.433  22.76   0
       301    749.3154    187.3343 300.3495147 +22.6607485     1687.667     72.28901      1.383     2.66     5.317042     20.36383     197.5889        18     1.044     0.963  85.47   0
       302    814.2939    186.7250 300.3699690 +22.6800250     708.8666     72.32571      1.589     3.20     5.309824     20.36383     74.94685        11     0.956     0.806  51.56   0
       303    180.9576    186.3886 300.1728826 +22.4902279     302.1525     72.17878      1.565     4.20     5.501832     20.36383     27.90333         5     1.087     0.463  62.44   0
       304    233.0567    183.8943 300.1898923 +22.5051258     464.0209     72.23391      1.195     2.74     5.505858     20.36383     56.06302         9     0.784     0.737 -23.28   0
       305    522.5883    180.0715 300.2812331 +22.5907701     321.0301     72.19717      1.484     3.20     5.402399     20.36383      53.6151         6     0.937     0.479 -81.87   0
       306   1020.9940    179.9750 300.4366329 +22.7399430     847.1852     68.75137      1.511     3.35     5.869567     20.36383     92.34937        12     0.963     0.852 -20.26  16
       307    753.3220    178.2817 300.3536985 +22.6593460     977.0519     72.28901      1.765     4.39     5.317411     20.36383     88.45142        18     1.517     0.832  56.04   0
       308    673.8094    177.9293 300.3290324 +22.6354395     1204.864     72.16039      1.424     2.56     5.407093     20.36383     170.4078        19     1.117     0.925 -80.45   0
       309    495.2640    174.6014 300.2744983 +22.5810147     285.7122     72.17878      1.166     2.64     5.400965     20.36383      49.2558         5     0.707     0.459 -18.44   0
       310    869.2654    169.5240 300.3926870 +22.6915337     1436.518     72.27065      1.460     2.52     5.343235     20.36383     188.0646        21     1.136     1.039 -68.84   0
       311    600.1833    169.8796 300.3087038 +22.6110801     1014.239     72.17878      1.433     2.52     5.409066     20.36383     127.6786        13     0.926     0.814 -56.33   0
       312    881.3723    168.6610 300.3967426 +22.6949089     772.2747     72.17878      1.504     3.51     5.354231     20.36383     87.04776        12     1.032     0.858  52.69   0
       313    927.7452    167.4643 300.4115948 +22.7084428     313.1582     72.23392      1.543     4.31     5.397931     20.36383     35.74578         6     1.085     0.488   6.21   0
       314    998.1806    158.9571 300.4363278 +22.7270726     1215.552     72.19717      1.614     3.73     5.752543     20.36383     123.6054        18     1.298     0.918  58.57   0
       315     21.7723    155.2534 300.1334966 +22.4335756     461.8318     72.19717      1.673     4.32     6.009741     20.36383     51.72928        10     1.080     0.832 -19.76   0
       316    232.1646    151.5280 300.2001064 +22.4955659     712.4634     72.17878      1.738     4.01     5.576946     20.36383     73.38493        15     1.223     0.947  74.88   0
       317     93.9876    146.5035 300.1587746 +22.4527118     2134.513     72.06839      1.609     3.13     5.680022     20.36383     231.0378        27     1.301     1.148  65.62   0
       318    917.3126    143.7270 300.4160354 +22.6984952     637.8428     72.32571      1.515     2.95     5.431653     20.36383     87.47113         9     0.948     0.667 -85.09   0
       319     43.1915    143.5623 300.1439415 +22.4366413     596.0883     72.19717      1.827     4.58      5.93192     20.36383     45.44345        10     1.164     0.899   5.00   0
       320    251.3787    139.7815 300.2098896 +22.4979508     5764.297     72.17878      1.555     2.82     5.774426     20.36383     710.3403        39     1.390     1.166  62.28   0
       321     35.5090    134.1765 300.1445962 +22.4316446     1374.008      72.1052      1.722     4.09     5.989269     20.36383     117.8396        22     1.358     1.061  41.88   0
       322    235.1606    131.1067 300.2076571 +22.4906003     533.5574     72.19717      1.291     2.63     5.702117     20.36383      79.2386         8     0.793     0.683  -3.34   0
       323    895.5551    121.7565 300.4163703 +22.6856667     3576.944     72.21554      1.458     2.63     5.461692     20.36383     411.8212        32     1.204     1.132  74.09   0
       324    999.2308    120.4920 300.4491240 +22.7163241      2690.18      72.1236      1.530     2.70     5.914242     20.36383     317.2845        31     1.281     1.152  13.96   0
       325    198.0894    117.5312 300.2005284 +22.4755940     351.4001     72.34406      1.665     3.03     5.768659     20.36383     46.40025         6     0.894     0.649  19.22   0
       326    445.0678    116.7081 300.2776362 +22.5493491     629.3675     72.30736      1.380     2.71     5.498298     20.36383     81.84881        12     0.915     0.822  58.58   0
       327    369.2747    108.8012 300.2566089 +22.5243753     735.7831     72.06839      2.011     3.82     5.447404     20.36383     74.31823         9     0.963     0.672 -14.12   0
       328    135.3861    105.6444 300.1848851 +22.4533906     632.8905     72.19717      1.585     2.78     5.921721     20.36383     73.69941        11     0.987     0.712 -22.34   0
       329    496.4592    104.0463 300.2977393 +22.5611029     1674.712     72.21554      1.348     2.47     5.520858     20.36383     199.6367        19     1.101     0.881  76.48   0
       330    424.4069    104.5951 300.2751306 +22.5396812     494.0799     72.03156      1.422     3.01     5.517869     20.36383     60.71887         6     0.825     0.509  39.75   0
       331     32.9262    104.8084 300.1533111 +22.4224415      188.894     72.16039      1.286     3.58     6.069172     20.36383     41.30701         5     1.092     0.338 -11.21   0
       332    557.9838    103.0804 300.3172113 +22.5792493      342.832     72.19716      1.386     4.77     5.524361     20.36383     48.93075         8     0.960     0.713  52.57   0
       333    239.9863     99.7354 300.2193248 +22.4830382       386.98       72.142      1.443     4.27     5.868608     20.36383     45.62141         9     1.059     0.624   0.70   0
       334    784.6598     93.6632 300.3908953 +22.6444017     286.0632     72.21554      1.132     2.64     5.403065     20.36383     49.26527         5     0.730     0.437  17.95   0
       335    930.7624     88.2130 300.4382238 +22.6865553     337.2892     72.16039      1.306     2.26     5.608704     20.36383      58.4212         6     0.689     0.627  20.04   0
       336    270.3962     83.7903 300.2339504 +22.4875705     5869.302     72.01313      1.514     2.73     5.902768     20.36383     720.8139        41     1.311     1.216  69.41   0
       337    121.4515     83.3333 300.1877833 +22.4428094     821.3038     72.19717      1.797     2.67     6.050803     20.36383     86.25447        13     0.931     0.877 -12.28   0
       338    899.6003     81.3906 300.4307144 +22.6752694     345.0396      71.9947      1.568     3.93     5.649358     20.36383     40.71964         6     1.024     0.433  35.18   0
       339    242.5006     77.6633 300.2272592 +22.4774533     444.1231     72.27065      1.519     5.19     5.909858     20.36383     41.99448         8     1.471     0.517 -64.23   0
       340    286.3924     75.2801 300.2416840 +22.4899187     372.1883      72.1052      1.372     3.26     5.807671     20.36383     45.41262         7     0.807     0.687 -15.13   0
       341    516.4953     69.1825 300.3152760 +22.5570855     6276.886      72.1052      1.437     2.59      5.61827     20.36383     704.6959        35     1.268     1.097  70.80   0
       342    402.0406     68.8854 300.2797409 +22.5227238     658.2501     72.16039      1.446     3.49     5.491055     20.36383     79.56425        11     0.968     0.848 -58.31   0
       343    573.4642     63.6246 300.3348187 +22.5725461     320.3201     72.16039      1.390     3.09     5.714076     20.36383     42.69176         7     0.836     0.653 -70.11   0
       344    769.0762     59.1570 300.3972191 +22.6298169     916.1641     72.16039      1.521     3.36     5.687789     20.36383     108.9901        15     1.145     0.881  -0.22   0
       345    710.5426     60.5297 300.3785298 +22.6126925     238.5774     72.19717      1.173     3.25     5.768917     20.36383     43.13655         6     0.890     0.427  19.31   0
       346    861.4177     58.1456 300.4263385 +22.6571596     426.4366     72.16039      1.296     2.77      5.86332     20.36383     56.09245         7     0.816     0.606   9.76   0
       347    209.1407     53.1162 300.2248379 +22.4604092     290.5524       72.289      1.247     4.06     6.113818     20.36383     53.42301         9     1.133     0.678 -37.17   0
       348    567.9980     51.7483 300.3369643 +22.5674964     385.5161     72.16039      1.201     3.49     5.782613     20.36383     58.07437         8     0.947     0.617 -63.17   0
       349    644.9234     49.2359 300.3617417 +22.5898039     6513.372       72.142      1.463     2.67     5.858372     20.36383     842.5427        39     1.315     1.123  80.83   0
       350    419.6830     48.1876 300.2919385 +22.5220615     1541.749       72.142      1.467     2.74     5.528471     20.36383     186.7147        24     1.257     1.083  59.40   0
       351    685.9902     46.6414 300.3753784 +22.6013509     773.2681     72.17878      1.454     3.01     5.878217     20.36383     116.4773        13     1.087     0.794  55.64   0
       352    755.7433     43.6708 300.3980808 +22.6213742     419.5742     72.19717      1.502     5.49     5.841019     20.36383     44.75655         9     1.159     0.753 -38.44   0
       353    701.7872     43.1395 300.3814359 +22.6050725     621.2853       72.142      1.417     3.36      5.91439     20.36383     60.47598        12     0.949     0.875  -2.34   0
       354    971.8483     40.4870 300.4665072 +22.6851200     562.9751     72.17878      1.818     4.37     5.950992     20.36383     62.40121        10     1.147     0.739  63.88   0
       355    168.8690     40.7685 300.2163160 +22.4447973     692.6987     72.16039      1.510     2.80     6.254725     20.36383     81.71301        10     0.971     0.668 -39.50   0
       356     15.5219     41.4433 300.1684343 +22.3990369     235.7546     72.16039      1.479     3.67     6.039704     20.36383     36.15924         6     0.920     0.421 -18.84   0
       357    740.5785     38.3928 300.3950639 +22.6153181     490.4587     72.16039      1.390     2.73     5.942754     20.36383      55.2046         9     0.913     0.646  52.02   0
       358    689.0710     34.2264 300.3803610 +22.5987041     2888.002     72.17878      1.420     2.58     5.988678     20.36383     348.5655        26     1.291     0.961  63.59   0
       359    704.2805     33.1168 300.3854603 +22.6029374     902.3948     72.32571      1.661     3.65      5.99713     20.36383     100.1009        16     1.356     0.793  53.67   0
       360    329.8736     35.3617 300.2681451 +22.4914782     296.3314      72.1236      1.243     2.97     5.336675     20.36383     52.68561         5     0.747     0.432 -20.15   0
       361    775.6234     25.9644 300.4100149 +22.6222326     1597.649     72.19717      1.382     2.53     5.889911     20.36383      193.219        21     1.122     0.997  44.23   0
       362    853.4921     20.7160 300.4359943 +22.6440241     325.8434      72.3624      1.133     3.86     6.165154     20.36383     50.74395         6     1.100     0.447  43.68   0
       363    713.4860     19.0082 300.3929002 +22.6016365     506.4857      72.0868      1.264     3.06     6.110853     20.36383     82.59037        11     0.900     0.827  48.19   0
       364    519.2971     18.1728 300.3326755 +22.5432661     1203.196       72.142      1.667     3.06      5.76612     20.36383     123.5286        19     1.138     1.064 -21.91   0
       365     92.2007     18.2990 300.1997613 +22.4153724     592.3837     72.03156      1.680     4.25     6.365674     20.36383     49.76865         9     1.131     0.625 -55.54   0
       366    422.8585     16.4523 300.3032084 +22.5138945     694.1699     72.23392      1.265     2.86     5.531253     20.36383     99.92911        11     0.906     0.794  33.37   0
       367    805.2739     15.5931 300.4226188 +22.6281231     283.6085      72.1236      1.067     3.04      5.87626     20.36383     48.66054         6     0.836     0.481  40.72   0
       368      3.9149    977.2928 299.8610508 +22.6639027     1998.581     68.51936     12.231    20.91    -14.53407     20.36383      48.8547       104     5.212     2.329 -81.83  27
       369    756.4084   1017.0580 300.0822540 +22.9011282     461.4027     72.16039      2.208     6.74     3.701753     20.36383     42.09613         7     1.408     0.905 -36.73  16
       370    318.2002   1014.6320 299.9466009 +22.7689604     1440.259       72.142      3.155     6.80     9.813947     20.36383     74.59631        28     1.606     1.419  28.01  16
