#   1 NUMBER                 Running object number                                     
#   2 X_IMAGE                Object position along x                                    [pixel]
#   3 Y_IMAGE                Object position along y                                    [pixel]
#   4 ALPHA_J2000            Right ascension of barycenter (J2000)                      [deg]
#   5 DELTA_J2000            Declination of barycenter (J2000)                          [deg]
#   6 FLUX_APER              Flux vector within fixed circular aperture(s)              [count]
#   7 FLUXERR_APER           RMS error vector for aperture flux(es)                     [count]
#   8 FLUX_RADIUS            Fraction-of-light radii                                    [pixel]
#   9 FWHM_IMAGE             FWHM assuming a gaussian core                              [pixel]
#  10 BACKGROUND             Background at centroid position                            [count]
#  11 THRESHOLD              Detection threshold above background                       [count]
#  12 FLUX_MAX               Peak flux above background                                 [count]
#  13 ISOAREA_IMAGE          Isophotal area above Analysis threshold                    [pixel**2]
#  14 A_IMAGE                Profile RMS along major axis                               [pixel]
#  15 B_IMAGE                Profile RMS along minor axis                               [pixel]
#  16 THETA_IMAGE            Position angle (CCW/x)                                     [deg]
#  17 FLAGS                  Extraction flags                                          
         1     56.5399     21.5141 300.2318578 +22.4007240      1522.04     72.76344      1.591     2.66     5.510676     20.49747     188.0773        20     1.267     0.908  60.50   0
         2    680.1546      7.7938 300.4302892 +22.5835943     520.5876     72.67099      1.691     3.13     4.802257     20.49747     60.64956         5     0.865     0.435 -46.69   0
         3    251.2345      8.4465 300.2965997 +22.4553194     368.8217     72.67099      1.198     3.00     4.838739     20.49747     55.92552         5     0.737     0.428  24.87   0
         4    117.7097      3.3483 300.2567506 +22.4138422     1219.012     66.66943      1.450     2.72     4.744765     20.49747     136.3659        17     1.052     0.939 -30.91  16
         5    674.2383      2.1199 300.4302857 +22.5801918     705.5185     60.87164      0.616     1.08     4.786551     20.49747     377.9563         6     0.497     0.424   5.09  24
         6    895.1456    998.8985 300.1753180 +22.9327171       2240.4     72.74496      1.585     3.76     2.990155     20.49747     165.2909        26     1.251     1.149  64.09   0
         7    417.9044   1022.3372 300.0190762 +22.7962604     1066.082     63.69934      1.665     3.90     3.499753     20.49747     87.99581        19     1.236     1.037  27.18  24
         8    348.6690   1020.5115 299.9981368 +22.7749534     6646.422      70.8537      1.600     3.03     2.926052     20.49747     671.8326        40     1.269     1.248  56.36  24
         9    190.9957   1022.8384 299.9483641 +22.7282779      622.851     61.04807      4.502     6.72     11.25122     20.49747     48.21287        11     1.688     0.751  30.74  24
        10    112.2967   1021.6615 299.9242951 +22.7043053     1038.953     66.70975      5.045     8.44      16.4971     20.49747     49.37053        14     2.143     0.929  63.69  25
        11    107.9484   1022.8259 299.9225653 +22.7033329     937.1045     61.15809      6.627     7.81     16.64025     20.49747      42.7238        15     2.635     0.648  24.39  27
        12     68.4492   1021.3399 299.9107799 +22.6910431     3018.894      67.9676     18.224    37.90     16.56784     20.49747      87.8841       349    12.384     3.219  -8.69  27
        13     41.1329   1019.0365 299.9030460 +22.6821779     5328.065     72.65249     19.001    60.88     16.41174     20.49747     150.2724       866    20.596     4.994 -15.20  27
        14    683.8106    988.0147 300.1130130 +22.8662097     747.5851     72.55991      1.647     5.17      3.03879     20.49747     69.47675        17     1.421     0.910  63.61   0
        15   1010.5174    987.4841 300.2150072 +22.9640318      603.845     72.78191      1.853     6.02     3.176695     20.49747     44.89602        12     1.168     0.872 -71.14   0
        16    495.7950    983.0035 300.0561134 +22.8083599     495.2796      72.4672      1.544     3.71     3.157834     20.49747      58.3676        10     0.919     0.826 -64.57   0
        17    718.6406    982.1180 300.1257806 +22.8749660     1103.672     72.61547      1.442     2.92     2.968342     20.49747     124.6027        14     0.949     0.879  -1.52   0
        18    393.6827    995.1548 300.0203903 +22.7811969     252.2501     72.61547      1.318     3.74     3.130985     20.49747     45.11353         5     0.878     0.466 -40.54   0
        19    545.5146    996.0851 300.0673288 +22.8270315     279.5677     72.78191      1.415     3.06     3.149349     20.49747     40.66403         6     0.773     0.498  85.57   0
        20    577.7949    993.6580 300.0781667 +22.8360216     231.8287     72.61547      1.215     3.48     3.153201     20.49747     34.82587         5     0.771     0.452  13.22   0
        21    740.8759    975.8291 300.1347539 +22.8798312     11277.36     72.63398      1.444     2.86      2.94067     20.49747     1168.966        45     1.217     1.183  75.47   0
        22    786.9791    975.6279 300.1491827 +22.8936011     550.7517     72.63398      1.631     4.00     2.978105     20.49747     55.78664        10     1.071     0.813 -21.20   0
        23    931.6525    974.9460 300.1944961 +22.9367886     394.9652     72.68949      1.414     4.84     3.135171     20.49747     48.42352         9     1.131     0.587  47.61   0
        24    873.5077    968.9212 300.1783313 +22.9176251     303.5505     72.78191      1.428     4.59     3.001029     20.49747     32.65572         8     0.917     0.653  39.96   0
        25     52.6647    967.5753 299.9233764 +22.6708994     698.8733     72.63398      1.829     3.80     9.909752     20.49747     74.41403        15     1.128     0.987 -26.85   0
        26    446.2169    964.0197 300.0468662 +22.7880376     445.6061     72.63398      1.324     3.21     3.098576     20.49747     63.08116        10     0.954     0.696  31.11   0
        27    792.4171    963.2570 300.1549037 +22.8916821     294.3602     72.61547      1.323     3.79     3.016402     20.49747     46.64093         7     0.824     0.686 -20.16   0
        28     42.4218    959.2398 299.9229079 +22.6654348     363.2793     72.68949      1.656     4.72     8.719967     20.49747     44.52434         6     0.916     0.712  18.26   0
        29    749.5461    957.8408 300.1433098 +22.8772703     1384.903     72.61547      1.332     2.55     2.959196     20.49747     173.3218        16     0.983     0.902 -11.88   0
        30    727.2111    958.4008 300.1361699 +22.8707320     218.4022      72.4672      1.403     3.46     2.946816     20.49747     31.23993         5     0.807     0.428  20.45   0
        31    932.4944    956.8412 300.2006516 +22.9318441     487.6323     72.67099      1.657     4.23     3.135266     20.49747     45.82848         9     1.004     0.735  16.81   0
        32    464.4121    956.2822 300.0550453 +22.7912793     240.5508     72.63398      1.231     4.14     3.110349     20.49747     31.31441         6     0.907     0.539 -48.21   0
        33    601.4075    955.3521 300.0979854 +22.8321190      484.848     72.67099      1.595     3.54     3.161846     20.49747     47.80703         9     1.071     0.595   9.47   0
        34    787.4526    951.4872 300.1571876 +22.8868158      774.431     72.68949      1.385     2.68     3.037944     20.49747     77.76311        12     0.920     0.816 -14.11   0
        35    896.3588    948.3777 300.1921408 +22.9185805     495.4261     72.68949      1.416     3.14     3.095858     20.49747     48.66704         6     0.693     0.665  87.61   0
        36    836.2760    942.6380 300.1752817 +22.8989174     556.1254     72.63398      1.407     2.78     3.084551     20.49747     71.45924        10     0.903     0.728  51.72   0
        37    687.2445    941.6398 300.1291764 +22.8539351     784.3105     72.72647      1.388     3.03     2.958487     20.49747     93.84777        14     1.050     0.853  26.25   0
        38    149.5266    941.1478 299.9620656 +22.6924159     385.6501     72.67099      4.684     4.84     6.493682     20.49747     34.54048         5     1.060     0.626 -28.99   0
        39    698.7400    938.7501 300.1336972 +22.8565540     537.5388     72.70798      1.393     3.56     2.949733     20.49747     65.97685        10     1.038     0.753 -63.73   0
        40    399.8690    938.1328 300.0408728 +22.7667049     4261.905     72.70798      1.377     2.61     2.833638     20.49747      556.931        27     1.097     1.058 -66.96   0
        41    988.3846    936.8044 300.2246005 +22.9428472     324.2412      72.5043      1.539     4.58     3.164609     20.49747     25.35395         6     1.020     0.584 -27.46   0
        42    178.3053    927.5289 299.9754394 +22.6971541     390.9826     72.76344      1.586     5.52     4.679788     20.49747     48.03073         8     1.064     0.807 -32.52   0
        43     62.2185    927.0136 299.9395427 +22.6621473     256.3916     72.61547      1.379     4.54     5.014596     20.49747     50.60519         5     1.119     0.523  33.19   0
        44    443.6586    926.2716 300.0583547 +22.7764453     288.6583     72.68949      1.380     3.56     2.940065     20.49747     48.60153         6     0.861     0.487  52.29   0
        45     42.4549    925.7945 299.9338013 +22.6558625     193.3012     72.65249      0.953     3.41     4.847785     20.49747     33.71745         5     0.748     0.451 -69.21   0
        46    125.1288    923.8478 299.9601147 +22.6801321     845.9304     72.63398      1.499     3.76     5.059031     20.49747     85.42608        15     1.130     0.998 -39.82   0
        47     33.5239    922.5696 299.9320770 +22.6522562     385.2866     72.65249      1.673     5.13     4.766852     20.49747     47.63619         9     1.029     0.929  78.02   0
        48    102.2109    920.9484 299.9539384 +22.6724193     1551.783     72.65249      1.491     2.79     5.104007     20.49747     202.6215        24     1.220     1.065 -54.68   0
        49    973.9676    909.5161 300.2289852 +22.9306909     2192.079     72.61547      1.509     3.19      3.11041     20.49747     196.5254        23     1.140     1.075  85.20   0
        50    633.8051    908.3823 300.1233576 +22.8283636     424.5889     72.61547      1.555     6.69     3.161446     20.49747     43.95932        10     1.387     0.905 -87.38   0
        51    928.2136    908.1370 300.2151676 +22.9165793     2015.785     72.61547      1.420     2.90     3.238575     20.49747     220.5188        19     1.028     0.973 -81.64   0
        52    404.5866    908.3146 300.0520431 +22.7595705     215.5797     72.59695      0.988     2.59     2.779946     20.49747     61.33432         5     0.991     0.287 -22.65   0
        53    134.2909    902.4847 299.9699120 +22.6767609      402.028     72.81885      1.459     4.26     4.467769     20.49747     48.75949         6     0.898     0.629 -69.84   0
        54    711.6266    902.0016 300.1496696 +22.8498747     631.9092     72.59695      1.351     2.86     3.137478     20.49747     83.97523         9     0.923     0.636  40.40   0
        55    460.2511    900.5812 300.0718765 +22.7740568     290.5339     72.63398      1.117     4.23       3.0674     20.49747     43.12025         5     0.969     0.526 -35.65   0
        56    579.8387    896.1995 300.1105200 +22.8086798     4718.654     72.65249      1.283     2.25     3.258815     20.49747     708.4028        25     1.043     0.975 -70.14   0
        57     67.8283    897.7543 299.9508049 +22.6554480     555.6498     72.68949      2.402     4.37     4.553476     20.49747     60.34503         7     1.051     0.590 -70.71   2
        58    381.8857    893.4299 300.0498252 +22.7484895     628.8129     72.65249      1.262     2.99     2.779946     20.49747     86.90375        11     0.900     0.809  70.92   0
        59    130.1585    890.0013 299.9726896 +22.6719425     1352.124     72.65249      1.449     2.94     4.186018     20.49747     143.9371        19     1.146     0.931  16.57   0
        60    600.4005    888.6343 300.1193827 +22.8126776      688.608     72.61547      1.302     3.03     3.257778     20.49747     95.05862        14     0.970     0.914 -15.06   0
        61    149.0872    887.2125 299.9794780 +22.6768265      375.121     72.59695      1.427     3.96     4.046729     20.49747     44.71705        10     1.099     0.688  -9.15   0
        62    516.8672    879.6692 300.0962980 +22.7850461     316.0201     72.70798      1.221     4.04     3.277276     20.49747      38.4029         9     0.935     0.768  50.39   0
        63    972.8238    875.7854 300.2396044 +22.9206633     1149.707     72.65249      1.434     3.01     3.034721     20.49747     117.9046        18     1.094     0.937 -69.67   0
        64    755.8704    875.8615 300.1719573 +22.8556415     4177.911     72.68949      1.305     2.42     3.365355     20.49747     577.4603        26     1.054     0.991  68.03   0
        65   1010.8517    875.6502 300.2515079 +22.9320224     439.3878     72.68949      1.535     4.15     2.721534     20.49747     48.25969         7     0.886     0.697 -60.71   0
        66    164.2744    870.0707 299.9897736 +22.6764730     390.6238     72.72647      1.303     3.59      3.60743     20.49747     75.81495        12     1.136     0.722  53.69   0
        67    473.1728    868.4213 300.0863603 +22.7687102     435.2451     72.65249      1.115     2.93     3.210087     20.49747     88.09879         9     1.061     0.527 -41.70   0
        68    119.2772    866.5493 299.9769384 +22.6619540     1060.588     72.65249      1.498     3.15     3.639264     20.49747     115.8308        16     1.096     0.902  41.80   0
        69    268.9080    858.6239 300.0260179 +22.7046015     53067.37     72.57843      1.370     2.50     3.465983     20.49747     6510.073        95     1.338     1.256  72.44   0
        70    534.5760    861.5873 300.1076922 +22.7851720     644.6301     72.65249      1.274     2.98      3.30949     20.49747     80.14791         8     0.958     0.601 -79.34   0
        71    526.6923    857.5023 300.1065675 +22.7816350     1578.657     72.83731      1.256     2.23     3.310744     20.49747     214.7947        18     1.088     0.858  31.97   0
        72    939.7435    856.5405 300.2355509 +22.9052220     949.2087     72.72647      1.424     3.81     3.396187     20.49747     96.80402        14     1.088     0.914 -44.39   0
        73    242.0204    856.8080 300.0182504 +22.6960102     311.6374     72.61547      1.196     2.66     3.484553     20.49747     36.40992         5     0.776     0.487  56.64   0
        74    197.3179    856.7729 300.0043678 +22.6825813      601.196     72.65249      1.704     2.80     3.492738     20.49747     61.21952         9     0.872     0.686  -2.48   0
        75    555.6102    853.7105 300.1168017 +22.7892223     892.0255     72.59695      1.307     2.76      3.32385     20.49747     127.5872        13     1.051     0.752 -86.93   0
        76    566.6414    851.8638 300.1208362 +22.7920016     705.2839     72.63398      1.388     2.34     3.326186     20.49747     91.19534        11     0.880     0.736  11.39   0
        77    886.8264    848.8066 300.2215697 +22.8871391     336.2423     72.65249      1.241     4.46     3.607677     20.49747     51.23322         8     1.087     0.608  17.40   0
        78    672.2742    848.0558 300.1549646 +22.8225923     404.4451     72.68949      1.107     2.24     3.415572     20.49747     80.12451         7     0.708     0.622  64.72   0
        79    466.9684    845.6892 300.0918249 +22.7603284     382.3466     72.61547      1.499     3.81      3.23858     20.49747     39.17735         7     0.764     0.642  24.35   0
        80    709.7607    838.4050 300.1697795 +22.8310646     613.7894     72.67099      1.111     2.25     3.440193     20.49747     107.9988         9     0.772     0.707 -89.09   0
        81    318.6026    835.8299 300.0488832 +22.7129808     31307.28     72.59695      1.327     2.21     3.318347     20.49747     4700.355        66     1.210     1.178  80.74   0
        82    332.8949    836.3680 300.0531524 +22.7174243     2042.561     72.63398      1.354     2.33     3.245929     20.49747     256.4194        21     1.020     0.964 -87.32   0
        83    207.7827    835.0038 300.0147013 +22.6794821      335.101     72.57843      1.624     5.48     3.489776     20.49747     30.62516         8     1.087     0.778 -66.29   0
        84    841.6656    831.5137 300.2131191 +22.8686361     2687.266     72.74496      1.222     2.27     3.738475     20.49747     348.9555        23     1.058     0.949 -48.00   0
        85    329.7334    830.2579 300.0541568 +22.7147234     535.4971     72.68949      1.311     3.64     3.311459     20.49747     74.93961        10     0.993     0.731 -45.88   0
        86    870.9785    829.8467 300.2227976 +22.8769449     310.3817     72.68949      1.392     3.77     3.777593     20.49747     35.63497         5     0.820     0.497  60.24   0
        87    599.5555    827.6365 300.1389638 +22.7949232     931.4678     72.70798      1.281     2.41     3.354223     20.49747     132.1966        12     0.911     0.761  32.62   0
        88    201.1407    827.6553 300.0150272 +22.6753816     696.6384     72.72647      1.311     2.94     3.485361     20.49747     94.32007        13     1.064     0.746 -44.89   0
        89    435.9963    827.5792 300.0880796 +22.7458413     391.1708     72.61547      1.024     2.61     3.227277     20.49747     66.88182         6     0.752     0.488   7.50   0
        90      5.6856    823.3709 299.9557021 +22.6154719     451.8466     72.65249      1.389     3.86     4.380963     20.49747     57.57408        10     0.955     0.771 -28.60  16
        91    446.7569    822.5516 300.0930627 +22.7476277     896.7966     72.67099      1.199     2.59     3.287504     20.49747     120.1632        13     0.957     0.778 -57.50   0
        92    847.8181    819.3019 300.2190091 +22.8669747      415.408     72.57843      1.224     2.71     3.839887     20.49747     69.60914         9     0.871     0.645  58.21   0
        93    595.2145    819.3091 300.1403210 +22.7912317     231.6712     72.57843      1.259     3.52     3.364736     20.49747     45.51561         7     1.067     0.659   2.76   0
        94    348.4731    818.7722 300.0637202 +22.7170532     348.5678     72.65249      1.267     2.95     3.365461     20.49747     64.61481         7     0.920     0.492  83.52   0
        95     34.0324    817.0173 299.9665712 +22.6221630     456.4102     72.63398      1.486     3.16      4.08804     20.49747     62.40795        10     0.896     0.877 -56.95   0
        96    392.2286    817.4348 300.0777640 +22.7297994     437.4995     72.67099      1.161     2.17     3.330342     20.49747     63.14228         6     0.720     0.493  -5.32   0
        97    601.2311    816.5884 300.1430792 +22.7922557     302.3705     72.65249      1.051     2.44     3.367073     20.49747     41.61808         5     0.694     0.467 -17.65   0
        98    825.5161    814.1127 300.2137465 +22.8587991     301.7486     72.76344      1.124     3.53     3.822171     20.49747     49.05174         6     0.782     0.499 -87.68   0
        99    198.8694    811.9426 300.0194318 +22.6701952      503.117     72.67099      1.305     2.98     3.479795     20.49747     73.40295         9     0.915     0.672  70.51   0
       100    521.6369    802.3203 300.1229438 +22.7642877      513.292     72.61547      1.218     3.44     3.384406     20.49747     81.40874         8     0.952     0.637 -46.10   0
       101    623.2661    800.7496 300.1550915 +22.7943193      196.761     72.63398      1.217     3.74      3.39577     20.49747     32.47044         5     0.950     0.422 -44.70   0
       102    529.4329    801.1757 300.1257425 +22.7662978     25.06229     72.65249      1.011     3.45     3.385764     20.49747     33.53581         5     0.768     0.448  70.26   0
       103    491.5873    800.5693 300.1141617 +22.7547712     614.0583     72.65249      1.157     2.72     3.385764     20.49747     97.62018        12     0.941     0.798 -15.94   0
       104    511.8799    796.8052 300.1217010 +22.7597786     3718.295     72.57843      1.392     2.01     3.409393     20.49747     2206.702        18     1.627     0.659  41.11   0
       105    400.8596    799.5541 300.0862643 +22.7272606     264.3107     72.68949      1.122     2.42     3.506727     20.49747     52.11853         6     0.770     0.497   1.36   0
       106    908.0617    796.8013 300.2451066 +22.8785726      4399.31     72.61547      1.315     2.35     3.896694     20.49747     634.8886        26     1.035     1.020 -70.65   0
       107    433.4240    797.5217 300.0970556 +22.7364478     335.1999     72.63398      1.080     2.98     3.477426     20.49747     62.75819         6     0.832     0.492  86.49   0
       108    641.8414    793.2003 300.1633308 +22.7977236     368.3095     72.68949      1.683     3.83     3.414714     20.49747     31.41352         5     0.913     0.461 -46.23   0
       109    594.7645    792.8399 300.1487902 +22.7835016     354.9427     72.70798      1.121     3.71     3.396838     20.49747     60.77108         7     0.856     0.676 -23.56   0
       110    896.5226    788.2889 300.2442781 +22.8726697     1634.619     72.80038      1.268     2.23     3.941572     20.49747     232.4629        17     1.009     0.850  60.34   0
       111    259.6292    782.3999 300.0479254 +22.6799611     875.0041     72.61547      1.237     2.34     3.500042     20.49747     158.9069        15     0.959     0.845 -46.75   0
       112    722.7197    779.5906 300.1929464 +22.8180696     2646.305     72.59695      1.183     2.16     3.516811     20.49747     350.0574        23     1.095     0.962  86.80   2
       113    726.6497    779.6950 300.1941367 +22.8192779      408.104     72.70798      1.727     3.09     3.523636     20.49747     32.86399         5     0.717     0.472  73.66   3
       114    927.6418    778.3746 300.2572044 +22.8791497     1547.308     72.70798      1.264     2.59     3.896552     20.49747     214.1702        21     1.135     0.921  23.57   0
       115    108.3878    766.1840 300.0061978 +22.6299165     668.2023     72.59695      1.348     2.35     3.500545     20.49747     93.32943        11     0.861     0.762  40.98   0
       116    805.5694    765.4130 300.2233699 +22.8388382     705.8713     72.65249      1.625     3.62     3.915668     20.49747     78.39392        12     1.214     0.679  23.18   0
       117    841.3244    756.4246 300.2374358 +22.8469753     145816.2     72.67099      1.197     2.10     3.984553     20.49747     20384.38       159     1.313     1.275 -77.74   0
       118    603.8062    760.2681 300.1621980 +22.7768663     324.6605     72.61547      1.034     2.20     3.442522     20.49747      64.1524         6     0.707     0.548 -49.00   0
       119    988.3511    758.1339 300.2827178 +22.8915299     1231.358     72.63398      1.270     2.30     3.960683     20.49747     173.5549        16     1.014     0.850 -89.98   0
       120    693.8005    756.8418 300.1913367 +22.8028689     738.0778     72.67099      1.192     2.35     3.476852     20.49747     121.3409        10     0.908     0.704  -0.07   0
       121    874.1407    748.7479 300.2501607 +22.8546070     447.2488     72.70798      1.295     3.41     4.013717     20.49747     68.90204         9     0.862     0.844 -58.54   0
       122    527.5410    745.3854 300.1432970 +22.7497228     1666.825     72.63398      1.081     2.03     3.593767     20.49747     252.3052        15     0.844     0.821  89.92   0
       123    190.2936    744.2903 300.0387665 +22.6482245     472.8119     72.81885      1.429     4.71     3.469613     20.49747     48.61909         7     1.161     0.541  51.12   0
       124    708.7590    742.6010 300.2006268 +22.8032661     9358.282     72.67099      1.157     1.95     3.519173     20.49747     1600.157        34     1.025     0.973 -74.96   0
       125    210.3087    737.9708 300.0470417 +22.6524194     4940.046     72.61547      1.308     2.25     3.485103     20.49747     678.5253        34     1.158     1.055  53.06   0
       126    292.3577    736.0020 300.0731877 +22.6764768     1279.742     72.65249      1.285     2.11      3.52283     20.49747     173.1586        15     0.919     0.840 -10.27   0
       127    542.2025    735.1969 300.1511733 +22.7511965     247.3512     72.43008      1.310     4.33     3.526596     20.49747     29.41152         5     0.784     0.680 -55.71   0
       128    167.9166    733.8073 300.0352209 +22.6385027     488.7275     72.57843      1.347     2.69     3.456914     20.49747     66.94047         9     0.895     0.637 -22.33   0
       129    500.5176    731.3687 300.1394444 +22.7375956     793.1174     72.65249      1.088     2.33     3.904359     20.49747     131.3389        13     0.937     0.746 -82.84   0
       130    492.1949    723.4918 300.1394155 +22.7328393     3077.859     72.55991      1.140     2.03     4.024755     20.49747     466.7008        20     0.924     0.903  28.39   0
       131    482.4921    717.3553 300.1383913 +22.7281682     1374.389     72.63398      1.103     2.06       4.1217     20.49747     224.7702        13     0.857     0.771  51.83   0
       132    410.9279    716.7249 300.1163305 +22.7065210     253.0022     72.70798      1.063     2.83     4.115666     20.49747     48.37394         7     0.837     0.571 -27.80   0
       133    677.9738    716.1788 300.1996296 +22.7864514      324.389     72.63398      1.276     2.44     3.491933     20.49747     53.31437         6     0.867     0.437 -37.60   0
       134    876.2230    714.8274 300.2618397 +22.8454903     427.3145     72.63398      1.268     2.63     4.000809     20.49747      74.3101         9     0.800     0.758   3.40   0
       135    393.3440    714.3739 300.1116251 +22.7005716     233.8475     72.65249      1.126     3.50     4.092487     20.49747      47.9561         6     0.879     0.473  86.48   0
       136    145.8117    713.4460 300.0349719 +22.6260301     756.0051     72.65249      1.361     2.50     3.529713     20.49747      105.883        11     0.883     0.741  44.77   0
       137    160.1104    711.8876 300.0399216 +22.6298748     624.9616     72.81885      1.302     3.17     3.481284     20.49747     66.92994        10     0.943     0.681  63.41   0
       138     46.0617    711.2615 300.0046947 +22.5954625     340.9502     72.68949      1.682     4.54      4.12452     20.49747     29.19445         5     1.280     0.458 -28.37   0
       139    506.2381    707.6211 300.1489457 +22.7324972     557.8088     72.67099      1.215     3.98     4.049192     20.49747     70.03349         9     1.105     0.572 -65.28   0
       140    216.5963    709.0043 300.0584135 +22.6459999     384.4502      72.4672      1.302     1.92     3.575556     20.49747     65.06905         6     0.753     0.483  81.41   0
       141    185.8597    708.8336 300.0489162 +22.6367269     543.9356     72.68949      1.226     2.45     3.523374     20.49747     96.68259        10     0.894     0.690  68.12   0
       142    929.2162    708.1157 300.2805427 +22.8594436     477.2838     72.61547      1.212     2.20     3.985692     20.49747     82.95695         9     0.750     0.710  31.66   0
       143    407.2081    707.0865 300.1183069 +22.7026400     1812.483     72.55991      1.181     2.06     4.148534     20.49747     298.5009        17     0.933     0.823  44.07   0
       144    440.8733    706.4335 300.1289925 +22.7125510     186.6507     72.65249      0.955     2.02     4.177298     20.49747     51.03636         5     0.680     0.458 -22.08   0
       145    983.1375    703.9562 300.2987091 +22.8744059     892.1204     72.65249      1.337     5.46     4.128578     20.49747     125.8674        14     1.234     0.793 -79.48   0
       146     61.2269    702.1844 300.0123558 +22.5974127     19673.25     72.67099      1.413     2.50     4.004311     20.49747     2426.931        55     1.250     1.219  49.19   0
       147    492.0372    702.3988 300.1462242 +22.7267395     927.2355     72.65249      1.140     1.86      4.15299     20.49747     174.3224        11     0.810     0.708 -77.13   0
       148    527.3171    701.2725 300.1575701 +22.7369971     330.7717     72.78191      1.169     2.80     4.024779     20.49747     58.31788         5     0.769     0.482  43.54   0
       149    409.4655    699.0143 300.1216335 +22.7010013     147.1425     72.63398      1.052     2.47     4.186263     20.49747     45.00324         6     0.763     0.499  89.80   0
       150    245.6368    694.0904 300.0722886 +22.6504373     308.7186     72.63398      1.369     3.43      3.63847     20.49747     31.68462         5     0.791     0.430 -71.00   0
       151    910.0298    688.5209 300.2809316 +22.8480662      950.385     72.65249      1.181     2.22     3.969548     20.49747     160.4628        12     0.961     0.702 -62.24   0
       152    575.1971    689.7861 300.1762081 +22.7480591     309.6194     72.48575      1.059     4.16      3.83673     20.49747     48.75695         6     0.964     0.523  25.86   0
       153      7.6947    688.3260 300.0002353 +22.5773702     559.1384     72.80038      1.346     4.00     4.169453     20.49747     64.60556         7     0.935     0.672  10.32   3
       154      7.5393    685.5294 300.0010961 +22.5765218     1223.813     72.68949      1.753     3.91     4.147067     20.49747     117.7964        20     1.453     1.095 -25.79  18
       155    776.9575    686.5343 300.2401024 +22.8076139     505.6221     72.63398      1.140     2.46     3.939877     20.49747     82.77097         8     0.812     0.638 -44.97   0
       156     73.2856    686.9017 300.0210692 +22.5966510     433.7932     72.81885      1.266     2.66     3.967709     20.49747     66.10614         8     0.784     0.722 -52.59   0
       157    455.6815    682.9902 300.1412211 +22.7102662     475.4731     72.59695      1.173     2.37     4.282979     20.49747     75.41115         7     0.709     0.643 -74.42   0
       158    247.8991    681.9165 300.0769493 +22.6476246     339.9749     72.81885      1.190     1.98     3.678028     20.49747     65.46103         6     0.722     0.521  39.44   0
       159    850.5170    681.0560 300.2648070 +22.8280877     716.1254     72.74496      1.155     1.96     3.975402     20.49747     124.6063         9     0.789     0.648 -25.43   0
       160    845.8558    680.6321 300.2634920 +22.8265691     421.3089     72.67099      1.260     2.97     3.974932     20.49747     71.08051         5     0.898     0.419  17.47   1
       161    412.1786    675.2307 300.1302091 +22.6949914     689.8381     72.65249      1.092     2.23      4.29741     20.49747     121.6293         9     0.784     0.676 -58.61   0
       162    560.1602    673.8052 300.1767223 +22.7389634     399.5062     72.67099      0.977     2.61     4.138398     20.49747     89.75546         6     0.692     0.590 -56.40   0
       163    607.5323    672.1188 300.1920184 +22.7526839     421.6371     72.76344      1.018     1.85     3.581183     20.49747     86.77092         8     0.699     0.642 -14.35   0
       164    578.0148    671.7729 300.1829411 +22.7437339     538.1078     72.67099      1.007     1.74     3.937799     20.49747     126.4464         8     0.748     0.571  33.97   0
       165    456.6718    671.0567 300.1454084 +22.7071390     1018.546     72.67099      1.406     3.52     4.335186     20.49747     126.5498        14     1.225     0.733  20.35   0
       166    890.2641    666.5267 300.2819199 +22.8358261     3178.763     72.68949      1.151     1.99     3.950696     20.49747     490.9551        23     0.982     0.928  75.61   0
       167    422.0426    666.5595 300.1360963 +22.6954621      1719.16     72.74496      1.129     2.05     4.346264     20.49747     300.6191        14     0.870     0.781  62.93   0
       168    988.3847    664.4858 300.3131778 +22.8646394     532.5844     72.59695      1.130     2.46     4.106399     20.49747      99.0791        12     0.889     0.803  58.55   0
       169    929.5502    656.0616 300.2975699 +22.8445919     307.3824     72.70798      1.001     2.04     3.923384     20.49747     81.39818         7     0.708     0.615  77.47   0
       170    285.4387    653.3635 300.0979009 +22.6506980     9137.364     72.72647      1.177     2.08     3.794517     20.49747     1236.071        37     1.072     1.022  79.21   0
       171    407.8954    650.3726 300.1369567 +22.6865743     8880.159     72.55991      1.146     1.96     4.361529     20.49747     1522.616        32     1.002     0.947  53.13   0
       172    486.1650    647.4122 300.1622713 +22.7091992     331.1112     72.65249      1.282     3.46     4.405983     20.49747     32.27144         5     0.792     0.436  20.27   0
       173    172.7430    647.6053 300.0647424 +22.6152324     313.6212     72.61547      1.317     3.34     3.714922     20.49747     39.72898         5     0.771     0.420  22.76   0
       174   1012.4387    645.4001 300.3268842 +22.8663623     899.9056     72.63398      1.161     2.16     4.090293     20.49747     135.7003        14     0.879     0.841   6.32   0
       175    819.4838    644.1647 300.2671275 +22.8081926     1993.954     72.61547      1.196     1.88     3.940007     20.49747     295.3546        19     1.054     0.845 -29.16   0
       176    904.1884    641.5026 300.2943952 +22.8328106     12345.14     72.54137      1.155     1.95     3.905214     20.49747     2102.753        41     1.097     1.000  81.18   0
       177    468.4344    639.9302 300.1591859 +22.7017347     11544.04     72.65249      1.138     1.87     4.434254     20.49747     1895.278        43     1.100     1.003  88.29   0
       178    637.9691    635.6526 300.2133489 +22.7513412     608.8411     72.68949      1.178     2.26     3.968365     20.49747     96.13069         8     0.784     0.635  48.95   0
       179    195.9220    635.5292 300.0758707 +22.6187243     1380.212     72.76344      1.263     2.21       3.8244     20.49747     195.4429        16     0.937     0.852  66.36   0
       180    353.6772    634.6668 300.1251971 +22.6658051     358.3119     72.74496      1.261     2.76     4.165722     20.49747     59.90533         6     0.829     0.470 -50.63   0
       181    442.6395    633.0644 300.1533913 +22.6920284     369.2461     72.61547      1.180     3.18     4.456004     20.49747     72.97865         7     0.940     0.542  65.91   0
       182    502.6468    631.1918 300.1726725 +22.7094867     238.4617     72.67099      0.898     2.71     4.417365     20.49747     39.78611         6     0.715     0.611  35.20   0
       183    400.1486    628.0864 300.1417903 +22.6778560     4390.129     72.67099      1.170     1.92     4.394035     20.49747     806.3979        23     0.958     0.886  86.76   0
       184    743.1292    628.0049 300.2485886 +22.7806680     854.2755     72.59695      1.092     1.89     4.112526     20.49747     178.1784        10     0.769     0.691  19.74   0
       185    378.4106    626.5566 300.1355257 +22.6708971     1264.742     72.65249      1.114     2.04     4.296532     20.49747      183.429        15     0.890     0.787  51.39   0
       186    132.6628    625.8763 300.0593500 +22.5969735     661.6927     72.70798      1.246     2.84     3.912752     20.49747     116.6263        12     0.981     0.825 -30.20   0
       187    819.9907    623.4357 300.2740231 +22.8023912     1668.238     72.65249      1.245     2.22      3.91691     20.49747     229.1425        17     0.975     0.804 -26.91   0
       188    516.7521    615.6520 300.1821128 +22.7092562     201275.2     72.68949      1.129     1.84     4.409051     20.49747     37586.71       197     1.315     1.290 -51.99   0
       189    340.7081    621.7306 300.1253680 +22.6582034     247.5912     72.78191      1.080     2.83     4.145463     20.49747     51.28988         7     0.810     0.605 -28.20   0
       190    700.3992    620.3542 300.2377643 +22.7656635     831.7821     72.65249      1.047     2.07     4.115976     20.49747     126.2992        10     0.760     0.731 -54.33   0
       191    904.5188    616.6797 300.3025665 +22.8257792     380.0971     72.78191      1.051     5.59     3.864641     20.49747     45.12046        10     1.470     0.599  57.09   0
       192    202.8262    615.7231 300.0844532 +22.6151152     3423.353     72.67099      1.244     2.10     3.937726     20.49747     575.0449        24     0.993     0.953  72.65   0
       193    381.6816    612.5585 300.1410923 +22.6678617     332.1786     72.61547      1.801     4.81     4.355365     20.49747     52.91985         8     1.556     0.421 -51.28   0
       194    768.6221    611.4582 300.2619090 +22.7835569     447.7996     72.65249      1.025     2.02       4.0578     20.49747     67.02377         5     0.633     0.481 -18.39   0
       195    407.3521    595.9355 300.1544795 +22.6707907     2638.914     72.67099      1.120     1.89     4.457909     20.49747     451.9579        19     0.991     0.779  79.46   2
       196    857.3008    595.9315 300.2945905 +22.8056714     220.5393     72.74496      1.103     2.53     3.884323     20.49747     77.23137         5     0.885     0.411  24.72   0
       197    818.8971    591.8386 300.2839513 +22.7929883     285.7018     72.63398      1.089     2.23     3.962522     20.49747     62.82729         7     0.696     0.649  -1.01   0
       198    836.7210    587.0336 300.2910677 +22.7969490     258.6164     72.61547      1.340     2.98     3.942469     20.49747     47.11363         5     0.785     0.494  32.94   0
       199    724.6516    584.5420 300.2569573 +22.7626490     445.8462     72.70798      1.069     2.20     4.319107     20.49747     58.11082         5     0.661     0.468  21.40   0
       200    804.2827    581.9909 300.2825971 +22.7857805     1779.584     72.59695      1.154     1.69     4.032185     20.49747     357.7267        15     0.899     0.760 -56.46   0
       201    675.5229    579.7267 300.2432193 +22.7465413     2482.638     72.76344      1.039     1.86     4.324749     20.49747     430.7539        16     0.851     0.776  68.78   0
       202    919.9731    577.0032 300.3202791 +22.8190110     363.3346     72.61547      1.183     2.14     3.858329     20.49747     76.81185         9     0.739     0.736  68.87   2
       203    918.5380    572.6733 300.3212387 +22.8173371     754.3658     72.68949      1.155     2.63     3.859981     20.49747     118.0028        14     1.011     0.843 -40.17   2
       204    462.9032    575.8472 300.1782903 +22.6816846     708.7045     72.68949      1.170     2.01     4.506901     20.49747     129.1294         9     0.816     0.685  62.58   0
       205    885.1880    576.3034 300.3096619 +22.8083885     318.2479     72.54137      1.123     1.78     3.885035     20.49747     66.13086         6     0.679     0.521  53.84   0
       206    580.3060    576.3423 300.2146699 +22.7170271     400.4554     72.70798      0.996     1.99     4.497806     20.49747     75.28874         6     0.686     0.517  46.44   0
       207    932.8260    573.5921 300.3253950 +22.8218814     1329.596     72.65249      1.174     2.17     3.853928     20.49747     220.1207        15     1.001     0.748  73.26   0
       208    804.6616    572.5398 300.2857864 +22.7831794     1948.073     72.68949      1.123     2.04     4.066983     20.49747       304.16        15     0.876     0.797 -56.59   0
       209    557.9406    570.2929 300.2096731 +22.7085854     742.4648     72.72647      1.566     2.52     4.562904     20.49747     109.6236         8     0.835     0.641  66.56   2
       210    343.8831    570.1240 300.1431251 +22.6443485     309.3482     72.74496      1.357     1.65     4.251076     20.49747     66.62868         6     0.690     0.499 -40.87   0
       211    396.6661    569.0023 300.1599070 +22.6598570     459.6041     72.65249      1.014     1.96     4.380366     20.49747     76.17663         5     0.726     0.449  33.25   0
       212    842.7418    567.2068 300.2993871 +22.7930579     4253.006     72.63398      1.115     1.83      3.97878     20.49747     784.7091        23     0.921     0.872 -85.79   0
       213    803.6977    568.6345 300.2867550 +22.7817689     416.1875     72.65249      0.971     2.05     4.086359     20.49747     69.79253         5     0.701     0.431  22.81   1
       214    503.1397    563.0394 300.1949730 +22.6900730     351.6789     72.65249      1.217     3.28     4.565777     20.49747     60.73864         8     0.962     0.686   1.03   0
       215    934.5447    557.6500 300.3311112 +22.8178159     761.0079     72.68949      1.060     2.02     3.854098     20.49747     121.7523        12     0.840     0.748  17.88   0
       216     74.6302    557.8748 300.0634170 +22.5600576     1039.573     72.67099      1.450     2.56     4.011598     20.49747      145.693        14     1.029     0.809 -13.20   0
       217    735.5829    551.2805 300.2711707 +22.7563729     202.6743     72.65249      0.964     2.57      4.49963     20.49747     49.09445         5     0.690     0.473 -73.94   0
       218    340.8070    550.8501 300.1484307 +22.6378953     244.2964     72.65249      1.230     4.42     4.265167     20.49747      33.6043         6     0.972     0.572  24.40   0
       219     67.1441    547.9794 300.0643063 +22.5549733     426.8452     72.65249      1.295     2.92     4.011598     20.49747     54.71069         8     0.899     0.604 -23.77   0
       220    930.8816    546.3684 300.3336347 +22.8134771     343.7558     72.65249      1.131     2.19      3.85228     20.49747     63.65221         7     0.751     0.602  26.06   0
       221    674.9823    541.7421 300.2553932 +22.7354718     400.2712     72.61547      1.060     1.92     4.483938     20.49747     86.35896         8     0.760     0.586 -40.88   0
       222    283.7969    540.4530 300.1340808 +22.6178129     247.8446     72.65249      1.195     2.09     4.054171     20.49747     56.10846         5     0.709     0.467  18.95   0
       223    563.8257    539.3062 300.2215731 +22.7014537     381.8275     72.57843      1.194     2.08     4.660295     20.49747     59.50993         6     0.694     0.552 -46.65   0
       224    616.0860    537.6724 300.2383744 +22.7166503     799.2626     72.78191      1.037     1.82     4.570144     20.49747     149.4494         9     0.812     0.610  54.80   0
       225   1023.4880    535.2946 300.3661132 +22.8380329     808.1089     57.69666      1.043     2.33      3.88203     20.49747     146.7705        10     0.946     0.595  87.39  24
       226    930.6562    530.0254 300.3388744 +22.8087137     645.9632     72.65249      1.255     2.31      3.86551     20.49747     102.0485         9     0.854     0.664  48.03   0
       227    676.8894    529.8931 300.2598368 +22.7326407     738.9421     72.81885      1.095     1.86     4.494633     20.49747     173.9167         9     0.718     0.683  77.48   0
       228    834.4247    526.0605 300.3101639 +22.7787459     1043.749     72.65249      1.193     1.89     4.176834     20.49747     195.8711        14     1.140     0.738 -18.75   0
       229     24.0342    527.9399 300.0574266 +22.5362899     1325.469     72.67099      0.431     2.25     4.170325     20.49747     1017.451         5     0.426     0.361 -25.63   0
       230    792.2812    523.1649 300.2979710 +22.7652872     213.3906     72.59695      1.108     4.22     4.328327     20.49747     52.51277         6     1.118     0.455  63.15   0
       231    818.4329    522.2740 300.3064101 +22.7728669     687.3868     72.63398      1.118     2.01     4.248092     20.49747     108.2913         8     0.751     0.616  41.92   0
       232    562.7969    520.5236 300.2273549 +22.6957527     3149.311     72.55991      1.061     1.84     4.550529     20.49747     589.7578        21     0.934     0.836 -79.88   0
       233    923.2087    519.0992 300.3401021 +22.8033433     488.3698     72.52283      1.127     2.31     3.898539     20.49747     121.8635        11     0.932     0.705 -52.25   0
       234    669.7997    513.6028 300.2629210 +22.7258376     159.6249     72.43008      1.001     3.50     4.508719     20.49747     24.99426         5     0.785     0.450  17.40   0
       235     38.6100    511.9080 300.0671611 +22.5360662     460.1296     72.59695      1.546     4.22     4.256403     20.49747      44.5578         8     0.860     0.717  27.55   0
       236    568.3803    508.3313 300.2330537 +22.6939258     168.4905     72.63398      0.942     2.37     4.481989     20.49747     49.52411         5     0.684     0.467  74.70   0
       237    950.3591    505.7280 300.3529118 +22.8076335     362.2049     72.63398      1.211     2.62      3.88871     20.49747     38.32644         5     0.721     0.447 -71.97   0
       238    974.1910    499.3580 300.3624130 +22.8129409      1361.49     72.67099      1.174     2.05     3.896153     20.49747     219.7719        15     0.988     0.815 -50.72   0
       239    932.2866    498.0727 300.3497634 +22.8000205     981.2765     72.78191      1.133     1.76     3.893847     20.49747       199.57        14     0.870     0.794 -33.96   0
       240    845.9133    499.1116 300.3224995 +22.7744456      441.978     72.81885      1.150     2.33     4.306307     20.49747     100.8509         8     0.843     0.592 -87.21   0
       241    632.5694    495.8146 300.2571051 +22.7095712      216.373     72.65249      1.101     3.48     4.557764     20.49747     34.52328         5     0.821     0.673 -33.11   0
       242    673.2858    494.4495 300.2702286 +22.7213817     986.0173     72.63398      1.018     2.05     4.521465     20.49747     169.7372        10     0.791     0.664 -87.59   0
       243    468.8931    495.0913 300.2063900 +22.6603002     449.8711     72.81885      1.004     1.81     4.232372     20.49747     99.18645         6     0.664     0.551 -43.62   0
       244    177.6436    492.8679 300.1165408 +22.5723184     765.5664     72.63398      1.397     4.23     3.970993     20.49747     102.7122        14     1.319     0.739  36.93   0
       245     16.9423    490.6951 300.0673218 +22.5234808     312.1938     72.72647      1.397     4.08     4.564136     20.49747      45.9156         5     1.083     0.490  52.53   0
       246    239.7153    488.5448 300.1372380 +22.5896970     3858.254     72.72647      1.193     2.12     4.084217     20.49747     548.0298        24     0.990     0.928  57.92   0
       247    972.7090    486.7363 300.3660510 +22.8088697      4436.87     72.76344      1.171     1.92     3.904553     20.49747     743.4308        23     0.981     0.923 -80.28   0
       248    186.9090    483.3607 300.1225082 +22.5723702     7562.985     72.65249      1.229     2.10     3.987397     20.49747     1163.276        31     1.065     0.978  45.23   0
       249    691.5021    483.2546 300.2795388 +22.7236254     201.0659     72.74496      0.979     3.39     4.530777     20.49747     41.36198         5     0.766     0.435  66.98   0
       250    952.7084    477.7418 300.3627356 +22.8002946     1827.182     72.70798      1.109     1.91     3.934937     20.49747     341.6165        19     1.007     0.838 -52.53   0
       251    327.6685    477.4927 300.1681743 +22.6129035     4669.875     72.78191      1.106     1.96     4.339122     20.49747     745.7726        25     1.023     0.884  84.98   0
       252    571.8563    474.1071 300.2452527 +22.6851407     18319.28     72.70798      1.144     1.81     4.412194     20.49747     3741.406        43     1.063     0.922  86.89   0
       253    589.6251    473.7752 300.2508924 +22.6903711     909.6092     72.61547      1.886     6.38     4.502872     20.49747     80.17674        16     1.645     0.714 -41.29   0
       254    414.5180    473.9302 300.1963452 +22.6379231      383.441     72.76344      1.376     2.41       4.3453     20.49747     59.80357         6     0.750     0.609  39.55   0
       255    565.6570    473.4659 300.2435311 +22.6830984     455.2206     72.70798      1.415     3.34     4.390708     20.49747     45.71419         5     0.753     0.439  22.69   1
       256    199.2033    472.5664 300.1298351 +22.5729610      172.416     72.65249      1.209     3.50     4.068603     20.49747     30.54099         5     0.762     0.463 -17.04   0
       257    815.5501    470.2413 300.3224143 +22.7570548     310.3221     72.65249      1.072     2.80     4.447122     20.49747     47.04424         5     0.725     0.437 -65.66   0
       258    768.7021    464.4579 300.3096942 +22.7413579     440.8911     72.74496      1.146     2.40     4.488056     20.49747     74.15376         6     0.817     0.456 -86.97   0
       259    191.8744    461.2929 300.1312185 +22.5675282     335.4444     72.80038      0.956     1.88     4.150413     20.49747     64.70915         6     0.668     0.552 -56.19   0
       260    905.6609    456.2405 300.3550500 +22.7800245     697.2825     72.65249      1.328     3.14     4.193145     20.49747     124.4613        15     1.245     0.899 -51.43   0
       261    442.1638    455.9968 300.2107709 +22.6410636     460.3963     72.67099      1.449     4.11     4.474415     20.49747      50.7984         8     0.942     0.689 -29.30   0
       262    614.9901    454.9873 300.2648921 +22.6925779     241.8428     72.54137      0.924     2.33     4.636791     20.49747     63.85995         5     0.898     0.364  62.48   0
       263    126.4925    454.4708 300.1131163 +22.5459585     1967.496     72.78191      1.158     2.15     4.193707     20.49747     284.3324        17     0.960     0.868  63.52   0
       264    512.4968    443.5999 300.2366837 +22.6585884     6431.495     72.52283      1.032     1.97     4.610319     20.49747     1011.318        27     0.965     0.854  66.95   0
       265    926.1044    443.6636 300.3655088 +22.7825331     1198.213     72.74496      1.122     1.70     4.179648     20.49747     249.8786        13     0.842     0.765 -77.72   0
       266    227.3621    443.0590 300.1481704 +22.5729402     592.3331     72.67099      1.149     2.65     4.357056     20.49747     101.3821        10     0.928     0.658  53.46   0
       267    772.5061    435.2525 300.3203648 +22.7341072     474.6196     72.72647      1.361     2.66     4.452663     20.49747     64.06935         7     0.900     0.480  79.50   0
       268     84.9917    436.2814 300.1061295 +22.5282905     550.8666     72.59695      1.451     3.52     4.409118     20.49747      75.3576         9     1.061     0.658  43.45   0
       269    626.1435    433.6906 300.2752815 +22.6898039     480.6834     72.70798      1.013     1.70      4.65673     20.49747     110.7787         7     0.668     0.587 -16.44   0
       270    716.7196    432.4485 300.3038950 +22.7165879      1126.99     72.67099      1.084     2.13     4.507786     20.49747       172.64        11     0.877     0.641  73.86   0
       271    419.1530    429.9178 300.2120808 +22.6266783     5948.541     72.67099      1.158     1.88     4.714524     20.49747     1178.717        26     0.980     0.886  71.43   0
       272    908.5648    424.2600 300.3663418 +22.7717036     596.4683     72.67099      1.092     2.12     4.331706     20.49747      100.851         8     0.789     0.602 -76.09   0
       273    811.0218    424.0589 300.3360021 +22.7424293     1400.187     72.65249      1.146     1.70     4.397898     20.49747      310.386        13     0.854     0.730 -75.50   0
       274    403.8569    418.5911 300.2110002 +22.6188409     373.7246     72.63398      1.049     2.28     4.756048     20.49747     79.80383         8     0.806     0.623  61.58   0
       275    486.4124    416.2340 300.2374524 +22.6429120     423.8838     72.63398      1.175     3.79     4.933553     20.49747     59.98466         8     0.958     0.726 -57.07   0
       276    764.8434    415.0975 300.3245225 +22.7260210     388.4426     72.65249      1.347     3.66     4.442806     20.49747     46.72627         7     0.877     0.541 -43.08   0
       277    783.7780    411.8696 300.3314706 +22.7307658     502.1464     72.65249      1.046     1.89     4.413837     20.49747     104.9462         7     0.677     0.619  75.10   0
       278     65.2028    410.8369 300.1082442 +22.5150547     347.7404     72.68949      1.507     5.42     4.529907     20.49747     34.07581         7     1.165     0.712 -55.01   0
       279    306.6639    409.1550 300.1838348 +22.5869915     2601.308     72.67099      1.170     2.00      4.49649     20.49747     429.8734        22     0.964     0.929  80.41   0
       280     25.0110    406.7784 300.0970782 +22.5018329     1046.679     72.63398      1.362     2.86     4.524983     20.49747     130.2082        11     0.912     0.771  37.03   0
       281    275.9908    398.6111 300.1777209 +22.5747677     29785.11     72.54137      1.213     2.00     4.512578     20.49747     5089.276        67     1.202     1.058  66.69   0
       282    810.6513    395.8276 300.3450541 +22.7342063     1370.776     72.67099      1.085     1.71     4.385174     20.49747     280.3076        14     0.840     0.755 -29.73   0
       283    766.0944    393.4727 300.3319342 +22.7201826     322.8396     72.78191      1.288     2.05     4.418806     20.49747     62.21285         5     0.692     0.451  24.07   0
       284    769.1599    385.2509 300.3355590 +22.7187386     167.2701     72.67099      1.065     3.74     4.408328     20.49747     40.52141         5     0.893     0.450  47.59   0
       285    725.9072    384.7279 300.3222531 +22.7056311     549.8524     72.80038      1.010     1.88     4.431515     20.49747      120.926         8     0.720     0.642 -29.70   0
       286    149.7904    384.7769 300.1429854 +22.5329508     344.1253     72.65249      1.137     3.21     4.458889     20.49747     74.82344         7     0.910     0.522  24.48   0
       287    850.6675    384.1709 300.3613109 +22.7428423     432.3752     72.63398      2.015     4.44     4.377957     20.49747     29.18296         5     1.165     0.482 -31.49   0
       288    374.2872    383.7704 300.2131080 +22.5999796     567.9466     72.65249      1.155     2.06     4.758889     20.49747     96.65206         8     0.729     0.642  47.24   0
       289    686.3345    378.2330 300.3120349 +22.6919095     1785.717     72.65249      1.080     1.91     4.407072     20.49747     324.5205        15     0.898     0.737  80.91   0
       290    494.3701    372.8555 300.2540135 +22.6328411     343.7712     72.67099      1.100     2.54     4.939425     20.49747     58.59332         7     0.805     0.580  59.03   0
       291    901.4385    370.8160 300.3814741 +22.7542093     655.5344     72.67099      1.062     2.01     4.368608     20.49747     125.1718         9     0.782     0.670 -15.30   0
       292    348.2147    362.9219 300.2117671 +22.5861780     2118.982     72.67099      1.320     2.61     4.772133     20.49747     275.2857        23     1.120     0.930  68.67   0
       293    787.3961    355.5981 300.3508688 +22.7156805     592.2358     72.43008      0.958     2.26     4.378555     20.49747     122.6047         7     0.842     0.470  78.85   0
       294    779.5473    356.2800 300.3482017 +22.7135255     206.3447     72.67099      1.024     3.40     4.379316     20.49747     40.05914         5     0.726     0.460 -70.29   0
       295    669.7190    353.0256 300.3150435 +22.6796898     280.3142     72.63398      1.037     2.37     4.331095     20.49747     72.32041         7     0.797     0.571 -69.88   0
       296    638.0314    352.5450 300.3053310 +22.6700579     267.9361     72.67099      1.140     3.36     4.436512     20.49747     63.27148         6     0.924     0.461  88.72   0
       297    424.0114    342.2132 300.2420677 +22.6029537     1115.222     72.55991      1.100     1.83      4.95828     20.49747     224.8097        13     1.008     0.643  41.79   0
       298    231.5734    342.6771 300.1820706 +22.5453949      387.397     72.65249      1.327     2.22     4.576897     20.49747     50.49987         5     0.772     0.607  42.44   0
       299    138.2820    343.5133 300.1528045 +22.5176586     246.9862     72.78191      1.469     3.69     4.482378     20.49747     41.50338         5     0.851     0.584 -51.20   0
       300    509.4140    339.7745 300.2694349 +22.6278495     273.3587     72.65249      1.267     3.42     4.964459     20.49747     30.21008         5     0.729     0.465 -73.10   0
       301    935.4372    337.9373 300.4027488 +22.7549392     335.1994     72.67099      0.907     2.24     4.389179     20.49747      74.3974         6     0.741     0.496 -88.56   0
       302    668.8182    334.0565 300.3209209 +22.6739702     2201.446     72.63398      1.135     1.75     4.317654     20.49747     456.4821        16     0.901     0.739  84.64   0
       303    930.0483    328.2149 300.4042247 +22.7505308     3209.434     72.68949      1.187     2.03     4.366635     20.49747     557.6704        23     1.016     0.868  70.67   0
       304    477.0056    327.7983 300.2632364 +22.6146976     235.7653      72.4672      1.381     3.85     4.966531     20.49747     31.77945         6     0.915     0.465  38.45   0
       305    991.4948    322.9644 300.4250911 +22.7674184     328.9148     72.65249      1.019     2.40     4.635375     20.49747     61.93617         8     0.803     0.650 -36.20   0
       306    377.1415    317.9062 300.2353769 +22.5819253     596.8382     72.70798      1.251     2.87     4.895704     20.49747     98.55036        11     0.933     0.828  22.55   0
       307    999.5727    316.1739 300.4298149 +22.7678844     1713.526     72.61547      1.119     2.00      4.67511     20.49747     263.9821        15     0.888     0.774  80.29   0
       308     82.7397    312.3260 300.1456704 +22.4920515     605.5788     72.68949      1.189     2.62     4.447722     20.49747      98.3521        12     1.018     0.739  40.61   0
       309     52.1766    312.2990 300.1361851 +22.4828769     1404.453     72.59695      1.555     3.06     4.371488     20.49747     158.1866        19     1.215     0.913 -35.76   0
       310    945.8465    308.6042 300.4155166 +22.7496233     466.7965     72.63398      1.034     2.08     4.436333     20.49747     102.3773         8     0.820     0.578  15.53   0
       311    789.8278    305.7733 300.3678006 +22.7020902     345.7692     72.61547      1.035     3.60     4.312436     20.49747     54.33998         6     0.790     0.519  39.97   0
       312    135.5628    304.1548 300.1647343 +22.5055484     379.2702     72.68949      1.220     4.37     4.483331     20.49747     68.18848        11     1.116     0.756  29.98   0
       313    931.2870    301.3359 300.4133359 +22.7431746     314.5971     72.74496      0.981     2.03     4.369553     20.49747     69.34401         6     0.663     0.591 -45.49   0
       314    811.8082    297.1635 300.3774449 +22.7061985     416.0298     72.65249      1.161     2.46     4.303737     20.49747     63.64951         7     0.724     0.641  75.71   0
       315    740.5027    295.1951 300.3558650 +22.6842771     616.4651     72.55991      1.117     2.41     4.324419     20.49747     110.3657         9     0.884     0.625  64.94   0
       316    330.6999    294.9577 300.2283804 +22.5614151     297.9193     72.63398      0.953     2.03      4.79978     20.49747     73.29414         7     0.701     0.599 -77.03   0
       317    831.1066    288.6803 300.3862129 +22.7095395        245.5     72.78191      1.301     2.26     4.312114     20.49747     56.48679         6     0.717     0.583  68.78   0
       318    838.6854    284.4506 300.3899479 +22.7105932     2114.091     72.63398      1.091     1.94     4.315755     20.49747     330.9003        19     0.977     0.841  75.58   0
       319    257.1899    281.9357 300.2097487 +22.5356397     2115.398     72.61547      1.208     2.08     4.639857     20.49747     345.1073        20     1.018     0.879 -86.25   0
       320    335.0523    277.1137 300.2355250 +22.5575965     999.9137     72.68949      1.308     2.42     4.824819     20.49747     147.8538        13     0.978     0.758  62.82   0
       321     86.6369    277.0546 300.1583277 +22.4830988      445.304     72.67099      1.215     3.48     4.445245     20.49747     63.29204         6     0.957     0.483  37.38   0
       322    736.9999    275.9823 300.3610092 +22.6777067     444.2604     72.57843      1.029     1.81     4.316297     20.49747     129.0185         8     0.876     0.519  52.81   0
       323    843.9441    272.7589 300.3953815 +22.7088072      286.046     72.63398      0.944     2.54     4.309545     20.49747     93.94919         6     0.877     0.495  64.26   0
       324    151.9581    269.2707 300.1811497 +22.5004531      834.483     72.61547      1.362     3.28     4.484437     20.49747     115.7819        13     0.996     0.870  43.95   0
       325    689.7118    265.8314 300.3495724 +22.6606259      1664.57     72.61547      1.146     1.94     4.289673     20.49747     319.9665        16     0.947     0.776  72.47   0
       326    754.5101    265.4710 300.3698760 +22.6799301     497.3563     72.81885      0.998     2.28     4.303808     20.49747     97.92333         7     0.817     0.493 -82.54   0
       327    173.4272    262.8193 300.1899151 +22.5050387     621.1937     72.65249      1.351     2.46     4.484681     20.49747     78.42194         9     0.844     0.651  25.02   0
       328    961.0625    258.0441 300.4366714 +22.7396420     1059.533     72.65249      1.344     2.17     4.408486     20.49747     139.8382        13     0.906     0.825  40.51   0
       329    693.8460    257.4073 300.3535940 +22.6594435     648.7297     72.67099      1.043     2.02      4.29215     20.49747     117.3031         9     0.801     0.626  72.58   0
       330    463.4411    258.1508 300.2816194 +22.5906296     284.8591     72.67099      0.995     2.61     4.982579     20.49747     52.75229         6     0.754     0.486 -79.79   0
       331    614.2365    256.6381 300.3290501 +22.6353757     1320.281     72.72647      1.120     1.84     4.305102     20.49747     242.3628        15     0.943     0.754  49.45   0
       332    435.5807    252.8854 300.2746589 +22.5807685     291.7995     72.57843      1.112     2.30     5.025998     20.49747     61.23023         5     0.722     0.418  63.58   0
       333    809.7359    247.9962 300.3927558 +22.6914458     1304.561     72.63398      1.148     1.98     4.283142     20.49747     247.4879        15     0.934     0.734  61.78   0
       334    540.5197    248.4333 300.3087620 +22.6109338     940.0674     72.61547      1.062     2.02     5.009521     20.49747     137.9627        12     0.796     0.748  67.47   0
       335    967.1919    247.7930 300.4419096 +22.7385292     188.4774      72.5043      1.250     3.61     4.394447     20.49747     38.68191         5     0.744     0.691  35.43   0
       336    821.7091    247.1999 300.3967458 +22.6948022     844.4434     72.52283      1.217     2.03     4.283502     20.49747     136.1393        11     0.806     0.728 -60.00   0
       337    867.9263    245.7828 300.4116114 +22.7082333     237.3867     72.65249      1.111     3.21       4.2843     20.49747     57.53862         6     0.911     0.526  66.15   0
       338    982.5480    237.9261 300.4499006 +22.7402887     1632.394     72.67099      1.152     1.97     4.397965     20.49747     252.9248        17     0.917     0.862 -71.25   0
       339    938.4651    237.2888 300.4363600 +22.7269094     1153.577     72.76344      1.164     2.21     4.293904     20.49747     171.1378        16     0.966     0.809  89.31   0
       340    172.4800    230.7063 300.2000404 +22.4955369     828.1769     72.78191      1.315     3.24     4.484681     20.49747      101.225        14     1.128     0.766  60.11   0
       341     34.4328    225.6592 300.1587876 +22.4526942     2268.723     72.68949      1.360     2.51     4.247163     20.49747     271.1519        23     1.201     0.913  74.22   0
       342    857.4464    222.1229 300.4160219 +22.6982937     758.9294     72.65249      1.111     2.49     4.259629     20.49747     113.9387        10     0.897     0.657  67.44   0
       343    191.8321    218.8555 300.2098999 +22.4979368     5455.855     72.67099      1.269     2.19     4.487687     20.49747     866.9338        29     1.071     0.992  71.17   0
       344    173.5405    219.9391 300.2038633 +22.4927640     366.5232     72.70798      1.462     2.60     4.487503     20.49747     44.90855         6     0.808     0.688  70.48   0
       345    175.2108    209.4940 300.2077711 +22.4902663     632.4942     72.59695      1.283     2.42     4.493654     20.49747     81.11842        10     0.855     0.710  83.20   0
       346    990.6580    206.0406 300.4627761 +22.7335468     18229.88     72.63398      1.187     2.04     4.330182     20.49747     2851.959        49     1.138     1.034  77.34   0
       347    835.9005    200.1886 300.4164228 +22.6855369     3453.216     72.55991      1.164     1.96     4.280423     20.49747      621.885        21     0.964     0.847  65.30   0
       348    939.5790    198.8620 300.4491757 +22.7161934      2838.24     72.61547      1.162     2.03     4.319025     20.49747      448.732        22     1.005     0.887  87.16   0
       349    385.4616    195.4337 300.2777067 +22.5492485      514.337     72.67099      1.031     2.40     4.700165     20.49747     95.75142         8     0.821     0.644 -49.35   0
       350    138.4891    196.2035 300.2006708 +22.4754417     440.5441     72.55991      1.370     1.97     4.577333     20.49747     68.38246         5     0.679     0.473 -70.58   0
       351    499.4803    193.1877 300.3139128 +22.5827672      267.962     72.63398      1.156     3.41     4.616744     20.49747     54.69349         5     0.752     0.447  68.38   0
       352    309.3910    187.1935 300.2567199 +22.5240846     521.8647      72.5043      1.051     2.18     4.708205     20.49747     81.13076         7     0.702     0.602 -80.31   0
       353    313.6957    186.1123 300.2584093 +22.5250642     383.1695     72.83731      1.294     2.76     4.688325     20.49747     54.44461         7     0.799     0.610  66.22   0
       354    844.3364    185.1245 300.4239395 +22.6837316     273.7867     72.70798      1.277     3.02     4.287183     20.49747     40.49396         5     0.744     0.438  72.83   0
       355     75.5639    184.3951 300.1849504 +22.4531854     669.6061     72.67099      1.295     3.17     4.776142     20.49747     78.70121        11     0.999     0.774  66.82   0
       356    436.6943    182.8071 300.2977420 +22.5609736     1768.046     72.54137      1.155     2.12     4.595739     20.49747     283.2474        18     0.945     0.846  76.05   0
       357    364.8613    183.1133 300.2752955 +22.5395367      576.752     72.74496      1.332     3.00     4.581089     20.49747     78.40612        11     0.983     0.733  10.32   0
       358    498.6047    181.9501 300.3172859 +22.5792765     318.8416     72.63398      1.120     2.23     4.513132     20.49747     57.85886         7     0.708     0.643  69.93   0
       359    260.6310    178.7782 300.2442882 +22.5070537     232.1245     72.65249      1.154     3.42     4.613378     20.49747     35.52865         5     0.763     0.443  72.09   0
       360    179.9445    178.1813 300.2194001 +22.4826961     517.8181     72.63398      1.400     2.30     4.510212     20.49747     74.64213         8     0.821     0.580  50.63   0
       361    725.2982    172.0791 300.3910770 +22.6443394     360.2096     72.78191      1.164     2.60     4.325135     20.49747     63.67738         5     0.733     0.430  74.74   0
       362    572.8284    168.9587 300.3446047 +22.5977787     326.1181     72.67099      1.556     4.41     4.345305     20.49747     31.83064         6     0.829     0.669 -83.52   0
       363    871.1653    166.5270 300.4383357 +22.6864162     399.1334     72.63398      1.352     2.16     4.306585     20.49747     65.83179         5     0.736     0.513  57.78   0
       364    210.7667    162.7948 300.2339712 +22.4875180     6062.898     72.63398      1.261     2.25     4.511605     20.49747     903.3546        29     1.171     0.913  71.81   0
       365   1001.1190    163.2966 300.4799062 +22.7243844     3776.939     72.78191      1.271     2.05     4.238511     20.49747     554.7204        28     1.147     0.973 -83.82   2
       366    622.1425    163.8510 300.3616162 +22.6110816     343.4711     72.70798      1.282     2.35     4.324945     20.49747     42.97929         6     0.734     0.544 -42.07   0
       367    325.3528    162.7441 300.2696147 +22.5218468     339.0329     72.68949      1.096     2.14     4.497629     20.49747     46.08011         5     0.683     0.460 -75.20   0
       368     61.5447    162.2837 300.1877675 +22.4426353     733.5566     72.74496      1.426     3.15     4.974194     20.49747      97.8891        11     1.006     0.745   3.96   0
       369    840.0193    159.7545 300.4308239 +22.6751450     352.8833     72.68949      1.173     2.60     4.304721     20.49747     58.52456         7     0.703     0.666  38.52   0
       370    226.0714    154.1771 300.2415238 +22.4896311     413.1742     72.68949      1.444     3.08     4.535087     20.49747     54.28242         6     0.842     0.571 -88.10   0
       371    845.3361    153.1410 300.4346264 +22.6748351     254.6842     72.68949      1.212     3.47     4.326177     20.49747     34.76738         5     0.788     0.441  74.92   0
       372    456.8291    148.0084 300.3152950 +22.5570097     6068.343     72.63398      1.214     2.07     4.358828     20.49747     1002.966        27     1.040     0.887  87.40   0
       373    342.2827    147.7251 300.2797516 +22.5226067      670.277     72.76344      1.281     2.35     4.532076     20.49747     105.9955        12     0.914     0.748 -68.22   0
       374    513.7813    142.4267 300.3348298 +22.5724676     304.3298     72.67099      1.155     2.13      4.30919     20.49747     60.34144         5     0.707     0.422 -26.99   0
       375    477.5161    142.0053 300.3236796 +22.5614826     289.6399     72.57843      1.490     2.85      4.32721     20.49747      41.2488         5     0.730     0.594  -0.87   0
       376    708.9788    138.3228 300.3969426 +22.6297495     958.9379     72.65249      1.652     5.55     4.490912     20.49747     108.6981        15     1.715     0.632 -69.41   0
       377    801.8257    136.1570 300.4265745 +22.6569260     427.8074     72.67099      1.171     2.45     4.412621     20.49747     72.78002         8     0.820     0.588  52.58   0
       378    869.6706    133.6574 300.4485317 +22.6765173     295.1784     72.67099      1.097     4.12     4.372871     20.49747     53.13122         6     1.067     0.454 -56.79   0
       379    149.7663    131.8907 300.2250354 +22.4603596     460.6487     72.63398      1.430     3.02     4.703242     20.49747     52.56431         8     0.809     0.664 -45.08   0
       380    508.3004    130.3918 300.3370272 +22.5673678      612.881     72.54137      1.507     2.87     4.311645     20.49747     65.94199        12     0.996     0.785  44.94   0
       381    585.1628    127.9899 300.3617335 +22.5897002     6107.998     72.65249      1.212     1.97     4.407389     20.49747     1095.587        31     1.082     0.902  69.88   0
       382    360.1278    127.0693 300.2920014 +22.5220212     1445.191     72.72647      1.194     2.24      4.63535     20.49747     245.2741        14     0.943     0.757  85.54   0
       383    626.2768    125.4444 300.3753610 +22.6012820     783.2418     72.63398      1.050     2.20     4.530637     20.49747     132.0133        10     0.842     0.630  87.69   0
       384    206.5696    125.8628 300.2446448 +22.4756556      8969.13     72.67099      0.708     1.11     4.643394     20.49747     4171.522        11     0.596     0.464  28.57   0
       385    695.8087    122.9897 300.3978132 +22.6213983     409.8281     72.54137      1.445     1.95     4.599167     20.49747     63.14757         7     0.674     0.655  40.89   0
       386    642.2442    121.2383 300.3816978 +22.6048549     529.9125     72.74496      1.057     1.81     4.589587     20.49747     107.1568         8     0.691     0.621 -72.08   0
       387    108.7333    119.4469 300.2163206 +22.4444864     702.4666     72.63398      1.351     2.61     4.930667     20.49747     106.9406        11     0.933     0.732  34.03   0
       388    912.1258    118.7329 300.4666084 +22.6849330     479.7687     72.72647      1.072     2.42     4.433036     20.49747     97.14539         9     0.865     0.643  72.81   0
       389    951.1940    118.5575 300.4788475 +22.6965753     309.4711     72.68949      0.994     2.61     4.378245     20.49747     49.66781         5     0.716     0.448 -22.49   0
       390    167.5187    117.9953 300.2350587 +22.4616915     283.2242     72.57843      1.467     4.19     4.698866     20.49747      28.9023         5     0.771     0.651   0.81   0
       391    680.6254    116.6509 300.3951395 +22.6150297     556.3795     72.67099      1.269     2.60       4.6642     20.49747     90.59306        10     0.952     0.674  58.13   0
       392    629.4037    112.8747 300.3804114 +22.5986057     2717.697     72.55991      1.167     1.93     4.602045     20.49747     468.8994        20     0.957     0.854  70.23   0
       393    270.0263    113.8982 300.2682525 +22.4912382     316.1888     72.59695      1.073     1.80     4.758694     20.49747     82.96787         7     0.771     0.496  52.31   0
       394    644.3318    111.5373 300.3854941 +22.6026917     885.4039     72.70798      1.629     4.38     4.641579     20.49747     108.9849        13     1.443     0.633  57.19   0
       395    197.8466    109.9865 300.2470820 +22.4684822     2398.459     72.65249      0.440    -1.23     4.709504     20.49747     1911.348         8     0.395     0.330  21.90   0
       396    891.6387    106.2524 300.4642686 +22.6752119     225.5828     72.65249      1.150     3.40     4.443233     20.49747     31.46814         5     0.745     0.450 -73.44   0
       397    715.8633    104.4426 300.4100756 +22.6220715     1576.625     72.65249      1.168     2.00     4.653152     20.49747      257.426        14     0.851     0.791  70.46   0
       398    197.0395    104.9541 300.2484631 +22.4667953     1269.097     72.72647      0.424   -11.94     4.729326     20.49747      916.037         5     0.485     0.348  89.09   0
       399    876.0020    102.6831 300.4605514 +22.6695052     324.7487     72.55991      1.307     2.94     4.445739     20.49747     44.48638         7     0.748     0.650   6.83   0
       400    462.5672    103.1983 300.3316134 +22.5458546     173.0361     72.61547      1.130     3.45     4.349794     20.49747       32.359         5     0.742     0.464 -72.55   0
       401    653.8594     97.3878 300.3930501 +22.6014777     697.5926     72.63398      1.100     2.13       4.7422     20.49747     119.8345        10     0.874     0.656  87.96   0
       402    459.3062     97.1180 300.3325704 +22.5431307     1047.947     72.81885      1.163     2.08     4.355817     20.49747     161.7486        11     0.794     0.732  70.77   0
       403    363.2912     95.1052 300.3033511 +22.5137873     842.1952     72.83731      1.301     2.56     4.807262     20.49747     127.0514        15     1.047     0.872  83.55   0
       404     32.1390     96.9594 300.1998184 +22.4150681     631.0375     72.65249      1.560     2.91     5.017609     20.49747     77.60199         9     0.886     0.692  75.07   0
       405    745.5333     93.7975 300.4227714 +22.6278943     399.9363     72.65249      1.007     2.27     4.647182     20.49747     75.32203         7     0.836     0.497 -86.27   0
       406   1006.2224     91.7409 300.5047070 +22.7053290      2446.61     72.65249      1.245     1.99     4.247644     20.49747      440.873        24     1.043     0.979 -16.61   0
       407    134.6234     85.2922 300.2354407 +22.4424413     3878.401     72.57843      1.344     2.29     4.856009     20.49747     471.8729        29     1.156     1.017  56.63   0
       408    702.8472     85.6647 300.4121104 +22.6127761     677.3306     72.68949      1.137     2.34     4.736237     20.49747      110.571        10     0.862     0.643  88.56   0
       409    265.6624     85.8556 300.2759892 +22.4818766     211.8889     72.70798      1.389     3.84     4.829056     20.49747     34.84449         6     1.017     0.416 -75.97   0
       410    460.3569     82.5327 300.3376270 +22.5392548     340.4384     72.63398      1.019     3.97     4.469589     20.49747     41.28403         6     0.988     0.456  54.81   0
       411    696.1019     77.5228 300.4126493 +22.6084158     979.1934     72.78191      1.244     2.25     4.757301     20.49747     149.5247        12     1.008     0.704  66.07   0
       412    250.5229     77.3899 300.2740272 +22.4749083     1166.246     72.61547      1.234     2.45     4.802974     20.49747     147.8482        14     0.965     0.812  64.71   0
       413    661.5224     76.4068 300.4022404 +22.5977413     363.3404     72.57843      1.338     3.40     4.772892     20.49747     50.37046         8     0.854     0.732  33.89   0
       414    733.7300     72.9312 300.4258605 +22.6183614     725.3079     72.70798      1.650     3.23     4.730544     20.49747     83.37936        12     1.153     0.685  77.15   0
       415    477.4281     74.6423 300.3454980 +22.5421011     165.9943     72.67099      1.152     3.87     4.518233     20.49747     38.10479         6     0.898     0.479   0.83   0
       416    657.1842     72.1947 300.4022550 +22.5952315     548.4974     72.57843      1.176     2.00     4.771726     20.49747     91.33056         8     0.725     0.653 -61.83   0
       417    753.7527     68.7655 300.4334496 +22.6231580     2171.477     72.68949      1.144     1.86     4.733481     20.49747     406.9308        19     0.945     0.825  85.06   0
       418    459.5319     67.2128 300.3423377 +22.5346056     389.3824     72.67099      1.140     1.94     4.601334     20.49747     73.76379         7     0.746     0.557  -5.34   0
       419    137.1988     64.3219 300.2430403 +22.4371921     1001.848     72.54137      1.357     2.56      4.82908     20.49747     123.2277        14     0.980     0.818 -86.52   0
       420    928.7100     61.9200 300.4902035 +22.6735560     738.3071     72.78191      1.324     2.49     4.817651     20.49747     106.9712        12     0.909     0.768 -88.18   0
       421    702.1069     61.3264 300.4197717 +22.6055574     767.3783     72.78191      1.142     2.05      4.77731     20.49747     157.1803        11     0.956     0.605  72.80   0
       422    409.2297     59.3778 300.3292266 +22.5172861     286.4409     72.63398      1.205     3.38     4.718606     20.49747     44.07004         5     0.756     0.438  19.73   0
       423    321.7574     55.5622 300.3032547 +22.4899839     285.0375     72.74496      1.187     3.12     4.878932     20.49747     46.51413         5     0.947     0.363 -22.73   0
       424    459.4655     53.7373 300.3466863 +22.5307137     359.9799     72.68949      1.448     2.98     4.708921     20.49747      37.9565         5     0.723     0.445 -66.68   0
       425    152.4012     54.1975 300.2510470 +22.4388414       255.51     72.43008      1.152     3.39     4.801537     20.49747     32.43634         5     0.765     0.436  69.13   0
       426    287.1044     51.1250 300.2939171 +22.4783263     413.7303     72.80038      1.250     2.56     4.873057     20.49747     70.91914        10     0.872     0.728   7.15   0
       427    787.1194     45.0220 300.4515455 +22.6263190     344.4075     72.61547      1.569     3.46     4.817324     20.49747      49.2757         7     0.930     0.710   0.28   0
       428    554.5430     46.0181 300.3787818 +22.5569714     863.3937     72.63398      1.186     3.10     4.707635     20.49747     123.8998        10     1.023     0.599  71.98   0
       429    164.0368     43.6290 300.2580894 +22.4392938     426.7425     72.67099      1.188     2.70     4.790832     20.49747     66.71954         9     0.861     0.676 -74.86   0
       430    717.8433     41.0006 300.4312642 +22.6044248     713.0474     72.65249      1.171     2.00     4.822896     20.49747      135.878        10     0.828     0.699  39.41   0
       431    526.3494     39.3157 300.3721783 +22.5466017     1901.061     72.63398      1.171     2.22     4.764501     20.49747     270.3163        18     1.051     0.825  54.45   0
       432    249.2290     36.8186 300.2867788 +22.4628679     585.4712     72.65249      1.205     2.46     4.820945     20.49747      101.756        10     0.861     0.720  50.25   0
       433    483.7174     33.2364 300.3608801 +22.5320864     1256.016     72.63398      1.170     2.21     4.875236     20.49747     187.4328        13     0.908     0.733 -87.89   0
       434    589.1033     29.9303 300.3947575 +22.5626967     1206.522     72.78191      1.212     1.95     4.864408     20.49747     229.0114        16     0.992     0.848 -86.33   0
       435    184.2455     28.8686 300.2691554 +22.4411113     542.9392     72.63398      1.296     2.08     4.792537     20.49747     94.61546         8     0.762     0.632  47.67   0
       436    233.1166     26.6179 300.2850765 +22.4551100     508.3073     72.61547      1.312     2.76      4.80648     20.49747     71.63106         9     0.875     0.684 -64.05   0
       437    409.4652     23.7352 300.3408553 +22.5071156     2173.833     72.70798      1.206     2.28     4.941879     20.49747     324.9987        20     1.008     0.903  72.73   0
       438    116.8823   1016.1323 299.9275195 +22.7040985     587.6352     72.76344      4.114     3.49      15.7441     20.49747     29.67314         5     1.641     0.215  27.78  16
       439    900.4609     20.8979 300.4946958 +22.6533027     359.7371     72.72647      1.500     4.11     5.238182     20.49747     41.97301         5     0.877     0.550 -45.91   0
       440    540.5332     18.1322 300.3834610 +22.5447610     356.4995     72.70798      1.025     1.97     4.904742     20.49747      86.2478         8     0.722     0.652  -1.99   0
       441    199.0323     15.8391 300.2779752 +22.4418005     348.9609     72.68949      1.397     3.50     4.800094     20.49747     34.04882         6     0.901     0.467  35.25   0
       442    447.4906     13.2871 300.3560737 +22.5155032     190.4382     72.81885      0.993     3.43     5.041118     20.49747     54.28117         5     0.790     0.432 -67.60   0
       443    883.9783     12.4736 300.4922881 +22.6459471     249.2454     72.65249      1.256     1.69     5.330493     20.49747     56.61032         6     0.681     0.499   2.07   0
       444     42.5131    998.5741 299.9101350 +22.6767308     3637.833     72.59695     13.780    55.58     13.84472     20.49747     81.41154       935    12.026     7.127 -19.88  27
       445    381.5895   1007.1130 300.0127365 +22.7809951     503.1664     72.59695      1.373     3.56     3.093878     20.49747     65.56464        10     1.029     0.723  19.35   0
       446    663.9933     22.0000 300.4206500 +22.5828402     266.1788      72.4672      1.168     2.10     4.802771     20.49747     40.74404         5     0.592     0.586   0.00   0
       447    241.1895   1003.6962 299.9701949 +22.7378647     237.6902     72.57843      1.404     4.27     4.837619     20.49747     33.54517         5     0.993     0.523  50.17   0
