#   1 NUMBER                 Running object number                                     
#   2 X_IMAGE                Object position along x                                    [pixel]
#   3 Y_IMAGE                Object position along y                                    [pixel]
#   4 ALPHA_J2000            Right ascension of barycenter (J2000)                      [deg]
#   5 DELTA_J2000            Declination of barycenter (J2000)                          [deg]
#   6 FLUX_APER              Flux vector within fixed circular aperture(s)              [count]
#   7 FLUXERR_APER           RMS error vector for aperture flux(es)                     [count]
#   8 FLUX_RADIUS            Fraction-of-light radii                                    [pixel]
#   9 FWHM_IMAGE             FWHM assuming a gaussian core                              [pixel]
#  10 BACKGROUND             Background at centroid position                            [count]
#  11 THRESHOLD              Detection threshold above background                       [count]
#  12 FLUX_MAX               Peak flux above background                                 [count]
#  13 ISOAREA_IMAGE          Isophotal area above Analysis threshold                    [pixel**2]
#  14 A_IMAGE                Profile RMS along major axis                               [pixel]
#  15 B_IMAGE                Profile RMS along minor axis                               [pixel]
#  16 THETA_IMAGE            Position angle (CCW/x)                                     [deg]
#  17 FLAGS                  Extraction flags                                          
         1    475.5649     15.7337 300.3325963 +22.5431204     1063.702     72.27209      1.568     3.14     7.119401     20.39015     129.3923        18     1.173     0.945  77.35   8
         2    379.4485     13.9926 300.3032291 +22.5138600     797.6437     72.27209      1.522     3.07     7.093591     20.39015     97.92593        12     0.958     0.851  20.23   0
         3    762.1650     12.8086 300.4228666 +22.6280017     396.1307     72.25368      1.466     5.49     6.910898     20.39015     57.38641        12     1.373     0.741 -12.21   0
         4   1022.2905     11.1539 300.5045702 +22.7052859     2017.336     63.47072      1.569     3.38     6.918694     20.39015     221.6015        25     1.314     1.071  64.23  24
         5    150.7678      3.7545 300.2353824 +22.4424702     3892.676     67.92584      1.794     3.77     6.805085     20.39015     366.6188        39     1.513     1.342  25.29  24
         6    719.0177      5.2091 300.4118732 +22.6129126     589.6132     71.97695      1.261     2.56     7.052734     20.39015     62.70401         8     0.806     0.660   1.22  16
         7     48.5441     16.1655 300.1995756 +22.4154301     554.2747      72.2905      1.816     4.55      7.53245     20.39015     50.36946         9     1.134     0.646 -10.25   0
         8     66.6692   1011.3170 299.8822667 +22.7064929     5042.684     72.38246     14.454    76.89     78.35913     20.39015     169.4289      1770    15.352    11.250  37.22  27
         9     57.7370    945.2917 299.9009579 +22.6848822     5685.136     72.38246     28.325    10.67     26.70837     20.39015     1232.094      5228    21.844    21.051 -32.14  19
        10    217.2122    973.6944 299.9413127 +22.7408676     7520.167     72.19842      8.257    30.90     44.97486     20.39015     161.9995       743    10.294     5.144  61.97  18
        11    905.2515    970.8438 300.1565869 +22.9462811     711.4883      72.3089      2.086     6.86     4.897617     20.39015     42.75264        14     1.194     1.106  59.23   0
        12    630.9551    954.0443 300.0765192 +22.8592758     6856.854      72.3089      2.110     4.95      5.21399     20.39015     371.7341        53     1.597     1.587  20.75   0
        13    151.4114    998.0411 299.9129310 +22.7281114     3115.511     72.27209      6.945    30.33     80.87456     20.39015     64.44517       204     5.200     4.909 -47.98  19
        14    209.3833   1000.8379 299.9300513 +22.7463042     1667.625     72.27209      3.045     7.86     68.18488     20.39015     69.21422        33     2.238     1.513  78.02   3
        15    511.9896    948.3214 300.0413163 +22.8219767     517.8281     72.25368      2.386     4.83     4.977874     20.39015     36.39242         5     1.175     0.562 -81.16   0
        16    132.5564    945.2349 299.9242373 +22.7073117     744.1648     72.32729      6.092     5.47     33.44793     20.39015     30.19745         5     1.501     0.563  49.52   0
        17    335.5561    998.7534 299.9699860 +22.7835493     542.4052      72.3089      2.536     3.47     5.674566     20.39015     38.97536         5     0.802     0.435  69.09   0
        18    434.3163    941.5610 300.0193257 +22.7967519     768.7795     72.23527      1.906     5.58     5.155654     20.39015     65.59506        14     1.542     0.733  77.07   3
        19    431.5483    941.4850 300.0184885 +22.7959003     496.7039      72.2905      1.749     3.96     5.173154     20.39015     45.98724         9     0.994     0.743 -49.32   3
        20    115.7001    942.2485 299.9199670 +22.7013987       699.53      72.3089      6.022     5.39      30.7634     20.39015     33.60476         5     1.146     0.716 -79.91   1
        21    363.8294    939.1621 299.9981621 +22.7749304      6561.72      72.3089      2.079     4.51     5.530865     20.39015     432.4171        49     1.620     1.509  -3.70   0
        22    539.3533    944.6642 300.0510288 +22.8291291     1431.147      72.3089      1.920     4.88     5.024891     20.39015     91.49094        28     1.428     1.342 -26.33   0
        23    198.1821    984.3328 299.9319343 +22.7382106     5303.782     72.25368      8.202    24.93     57.95728     20.39015     110.6054       396     5.838     5.177 -82.49   3
        24    526.0830    991.8372 300.0315562 +22.8386909     2385.426     72.25368      2.151     5.02     5.038313     20.39015     147.7943        38     1.606     1.484 -29.03   0
        25    613.5571    987.0203 300.0603747 +22.8635282     10056.55      72.3089      2.475     6.55      5.16615     20.39015     484.1521        52     1.877     1.630   0.27   3
        26    397.9803    926.9611 300.0127595 +22.7816686     375.3322      72.3089      1.946     4.79     5.441907     20.39015     38.27383         7     1.037     0.658  68.47   0
        27    911.2685    919.0018 300.1753210 +22.9331906     1421.424     72.23527      1.783     5.11     5.354487     20.39015      97.6001        19     1.525     0.909 -79.71   3
        28    908.6760    917.9165 300.1748650 +22.9321023     1164.707     72.36407      1.785     5.87     5.352063     20.39015     110.6289        16     1.804     0.665 -64.00   3
        29    619.3931    984.7813 300.0629214 +22.8646346     6311.883     72.23527      1.819     5.45     5.169037     20.39015     486.0894        38     1.877     1.045  68.47   3
        30    699.2990    907.0561 300.1130973 +22.8662634     808.0565     72.36407      2.149     8.50     5.455759     20.39015     47.32095        17     1.774     1.137  65.60   0
        31    616.4937    985.5031 300.0617831 +22.8639728     3405.951     72.45595      1.401     4.56     5.167198     20.39015     337.8463        15     1.316     0.736  63.64   3
        32    733.5947    901.2875 300.1256644 +22.8748819      980.356     72.17999      1.933     4.99     5.440283     20.39015     58.37198        21     1.307     1.138  -5.89   0
        33    193.4871    899.5975 299.9580219 +22.7124980     783.5082     72.19842      2.702     3.40     11.38654     20.39015     31.10343         5     1.106     0.302  21.29   0
        34    756.1176    894.8713 300.1347725 +22.8797866     11432.19     72.40083      2.011     4.70     5.436973     20.39015     672.5994        59     1.588     1.533  38.80   0
        35    800.3827    895.1763 300.1484769 +22.8931341     389.9641     72.27209      1.790     4.26     5.367999     20.39015     43.82388         5     1.191     0.580  61.79   0
        36    713.0347    987.5787 300.0911976 +22.8935006     588.7323      72.2905      2.047     8.22     5.001795     20.39015     44.80916        13     1.498     1.260  31.27   0
        37     91.3753    985.8471 299.8982292 +22.7066032     541.2143      72.2905      1.962     4.23     67.98588     20.39015     34.98391         5     1.216     0.420  77.80   1
        38    889.1309    887.7816 300.1785637 +22.9175913     425.9311     72.27209      1.816     4.45     5.352442     20.39015     32.79068         5     0.787     0.716  39.75   0
        39    143.8147    966.5778 299.9207991 +22.7168098     1065.313     72.27209     24.017    16.64     53.13445     20.39015     45.24902        20     7.043     1.093  79.52  19
        40     68.4316    885.8832 299.9235936 +22.6710545     873.0562     72.27209      2.602     4.35     11.73746     20.39015     62.79855         9     1.194     0.581 -76.39   0
        41    146.1937    977.1033 299.9181167 +22.7205419     2102.198     72.16155      5.440    14.48     62.08287     20.39015     54.46224        52     2.532     2.304   8.69   2
        42    461.4998    882.7587 300.0469058 +22.7880242     523.4727     72.25368      1.933     7.67     5.188282     20.39015     48.84037        10     1.565     1.052 -48.64   0
        43    764.6102    876.8428 300.1432811 +22.8771525     1424.922     72.27209      2.038     5.20     5.488901     20.39015     75.39363        27     1.424     1.352  67.23   0
        44    617.1295    874.1304 300.0981905 +22.8321884     523.4722      72.3089      2.062     6.19     5.410083     20.39015     39.33377        10     1.225     0.879 -29.30   0
        45    802.6316    870.2774 300.1572720 +22.8866557     833.4784     72.25368      2.060     7.53     5.414362     20.39015     46.22829        19     1.434     1.107  63.37   0
        46    851.1539    861.8884 300.1751330 +22.8987787     641.4203     72.25368      2.035     6.53     5.377768     20.39015     46.37373        12     1.293     0.926   5.07   0
        47    702.4920    860.6334 300.1291829 +22.8538883      754.801     72.23527      1.802     6.79     5.615547     20.39015     51.54922        15     1.192     1.086  54.78   0
        48    415.1060    856.8568 300.0408788 +22.7666831     4266.261     72.32729      1.909     4.05     5.480636     20.39015     330.5494        36     1.430     1.341  43.14   0
        49    714.2172    857.6946 300.1337933 +22.8565569     632.3207     72.19842      1.846     6.46     5.615547     20.39015     46.80796        14     1.253     1.102 -21.23   0
        50    193.0514    845.6752 299.9754117 +22.6968985     373.4305      72.2905      1.745     5.96     7.476318     20.39015      33.1945         8     1.245     0.802  14.37   0
        51    459.0155    845.1135 300.0583675 +22.7764737     441.3706     72.21684      1.927     5.20     5.272674     20.39015     42.68423         8     1.189     0.841 -56.97   0
        52    140.7964    842.0597 299.9603352 +22.6801903     772.8989     72.23527      2.022     4.77     8.750742     20.39015       53.786        18     1.358     1.036  58.30   0
        53    117.5318    839.4373 299.9539533 +22.6724607      1412.89     72.25368      1.983     5.58     9.074565     20.39015     106.1326        27     1.536     1.309  13.92   0
        54    989.5397    829.1952 300.2289399 +22.9308226     2110.252     72.23527      2.021     5.36     5.469266     20.39015     114.9272        31     1.509     1.351 -20.51   0
        55    943.5797    827.5461 300.2151319 +22.9165882     2188.288     72.25368      2.025     5.06     5.434681     20.39015     119.2208        36     1.580     1.415   9.27   0
        56    727.1226    821.4180 300.1496066 +22.8500032     603.1063     72.27209      1.983     7.47     5.615547     20.39015     43.16632        15     1.321     1.182  49.52   0
        57    149.5193    821.5032 299.9697277 +22.6769093     396.6102     72.40084      1.804     6.37     7.494938     20.39015     37.93906        10     1.618     0.704 -30.09   0
        58    595.1783    815.0413 300.1105544 +22.8086438     4899.497      72.3089      1.789     3.70     5.411027     20.39015     377.6655        34     1.350     1.289  -1.40   0
        59     85.5520    816.2137 299.9515567 +22.6562076     313.0473      72.2905      1.238     3.45     7.303917     20.39015     33.10355         5     0.771     0.446 -69.43   0
        60    397.6978    812.3856 300.0499111 +22.7487005     642.8936     72.16155      1.765     3.95      5.48977     20.39015     58.07001        13     1.148     0.781  35.41   0
        61    145.0954    808.5459 299.9725622 +22.6718654     1205.663     72.34569      1.912     4.91     6.835237     20.39015     110.2552        25     1.493     1.212  37.82   0
        62    615.9050    807.5838 300.1194363 +22.8127121     720.7238     72.19842      1.735     5.74     5.463479     20.39015     60.55619        18     1.368     1.044  -6.44   0
        63    164.5714    805.0411 299.9797578 +22.6767004       422.16      72.2905      1.812     6.88     6.571282     20.39015     40.40337        11     1.540     1.024   6.56   0
        64    771.2234    794.9136 300.1719702 +22.8555987     4273.099     72.21684      1.881     4.06     5.644489     20.39015     292.5132        38     1.432     1.351   8.61   0
        65    988.2994    795.2477 300.2395850 +22.9206944     1169.651      72.3089      2.189     6.58     5.231624     20.39015     65.13461        23     1.395     1.311  54.48   0
        66    179.7223    789.1198 299.9896428 +22.6766756     630.6083     72.38246      1.969     5.35     6.327828     20.39015     60.83039         9     1.352     0.597 -22.19   0
        67    488.4724    787.3512 300.0863111 +22.7687191     580.8472     72.25368      1.640     4.61     5.330824     20.39015     46.45293        12     1.075     0.796 -45.73   0
        68    134.3490    785.1722 299.9768147 +22.6619371     1008.591      72.2905      2.013     7.53     6.311093     20.39015     64.54011        20     1.529     1.036 -36.95   0
        69    549.6646    780.9202 300.1074613 +22.7852086     397.6255     72.38246      1.425     5.49     5.515428     20.39015     43.05777         9     1.186     0.716  47.22   0
        70    284.1782    777.1793 300.0260179 +22.7045670     53815.84     72.27209      1.916     3.79     6.100391     20.39015     4396.956       104     1.602     1.587  38.18   0
        71    954.8604    775.9770 300.2354103 +22.9051450     980.8549     72.25368      1.943     5.57     5.340489     20.39015     61.76911        24     1.499     1.185 -51.92   0
        72    542.1856    776.3938 300.1066021 +22.7816679     1634.622     72.16155      1.813     3.81     5.541866     20.39015     140.8095        23     1.266     1.154  63.78   0
        73    213.5490    775.7700 300.0045018 +22.6829876     485.9415      72.2905      1.654     3.45      6.18562     20.39015     44.21679         6     0.717     0.664 -16.48   0
        74    570.9620    772.6624 300.1167794 +22.7892183     833.0478      72.2905      1.628     4.45     5.576546     20.39015     79.32529        17     1.268     0.965  -0.81   0
        75    582.0146    770.7214 300.1208537 +22.7919723     739.2875      72.2905      2.087     5.16     5.588682     20.39015     50.16191        17     1.253     1.084  46.83   0
        76    687.6853    767.2661 300.1549083 +22.8226354      495.108     72.36407      1.650     4.83     5.621385     20.39015     45.48065        10     1.074     0.690  51.85   0
        77    333.9438    754.4543 300.0488879 +22.7129624     31629.19     72.32729      1.822     3.70     5.632722     20.39015     2931.113        75     1.510     1.477  29.29   0
        78    348.2799    754.8342 300.0532265 +22.7173685     1913.111     72.21684      1.684     3.69     5.522691     20.39015     176.4472        25     1.280     1.174 -73.32   0
        79    857.1400    750.7894 300.2131034 +22.8686492     2735.191     72.23527      1.762     3.88     5.994706     20.39015     180.3713        33     1.423     1.262  32.27   0
        80    345.1344    749.6526 300.0539308 +22.7149383      604.968      72.3089      1.723     4.20      5.54216     20.39015     58.31076        10     1.168     0.698  -7.40   0
        81    614.9615    746.5419 300.1389754 +22.7948983     923.0293     72.27209      1.784     4.30     5.690609     20.39015     78.31654        19     1.158     1.118 -34.29   0
        82    451.8006    746.5325 300.0881522 +22.7460101     393.9247     72.23527      1.493     4.01     5.406094     20.39015     47.70766         9     0.967     0.723 -37.21   0
        83    216.7054    746.1833 300.0150952 +22.6754438     801.4693     72.19842      1.698     4.81     6.008745     20.39015      64.4584        20     1.409     1.105  32.68   0
        84    462.2888    741.4781 300.0930603 +22.7477018     913.6379     72.40083      1.714     3.85     5.389561     20.39015     97.69478        15     1.098     1.025 -54.79   0
        85     21.8878    741.0870 299.9561734 +22.6155636      471.563     72.43758      1.879     7.16      5.39837     20.39015      41.2166        12     1.438     1.076 -60.97   0
        86    863.0691    738.3168 300.2190052 +22.8668401     491.3499     72.38246      1.733     5.29     6.100747     20.39015     48.83742         9     1.163     0.678  81.62   0
        87    364.1622    738.3380 300.0635290 +22.7173934     357.7972      72.2905      1.464     3.10      5.47668     20.39015     42.62513         5     0.868     0.472  -1.93   0
        88    725.3774    757.1674 300.1699396 +22.8310239     949.4479     72.27209      1.885     4.63     5.623102     20.39015      95.7494        18     1.274     1.168  45.97   0
        89    408.4580    736.2859 300.0779853 +22.7300796     269.0628     72.38246      1.280     3.06     5.484087     20.39015     35.22801         5     0.717     0.457  69.04   0
        90    157.4147    979.4075 299.9208569 +22.7245688     401.9624     72.17999      2.853     3.94     63.87255     20.39015      27.6192         5     1.112     0.400  73.94   1
        91    840.6526    733.2355 300.2136632 +22.8586681      444.382      72.2905      1.907     6.24     6.109745     20.39015     37.35658         7     1.501     0.729  55.64   0
        92    214.5876    730.7283 300.0194567 +22.6703737     418.8029      72.2905      1.577     4.78     5.963053     20.39015     46.67722        10     1.061     0.837   6.75   0
        93    537.6091    721.3731 300.1230508 +22.7644963     411.6844     72.27209      1.554     5.54      5.84533     20.39015     48.86208         9     1.125     0.866  46.17   0
        94    507.2283    719.3254 300.1142525 +22.7548060       614.91      72.2905      1.814     4.49     5.675518     20.39015     66.84187        11     1.227     0.731 -21.36   0
        95    923.6344    716.0487 300.2451356 +22.8785723     4542.909      72.3089      1.838     3.97     5.777625     20.39015      296.761        38     1.430     1.365  31.62   0
        96    529.1143    716.8932 300.1218598 +22.7606648     1306.073     72.45594      1.526     3.49     5.807087     20.39015     122.4416        21     1.203     1.009  30.84   0
        97    448.8186    716.2646 300.0970558 +22.7364258     417.6666     72.23527      1.841     4.19     5.599416     20.39015     39.83516         5     0.983     0.509  37.36   0
        98    610.0710    712.3255 300.1485664 +22.7836053     290.0652     72.34569      1.187     4.27     5.762495     20.39015     36.84441         7     0.755     0.688   1.60   0
        99    912.1412    707.4958 300.2443276 +22.8726734     1539.431     72.34569      1.727     3.96     5.973715     20.39015     117.2915        25     1.278     1.168 -35.86   0
       100    274.8165    700.8522 300.0478987 +22.6798537     784.7649     72.27209      1.734     5.13     5.943077     20.39015     91.76006        17     1.291     1.108  66.34   0
       101    738.3241    698.6058 300.1929999 +22.8180761     2515.671     72.17999      1.727     3.59     5.731912     20.39015     195.0282        30     1.327     1.215  -5.65   0
       102    943.3538    697.6943 300.2572513 +22.8791993     1625.357      72.2905      1.863     4.06     5.840013     20.39015     110.0858        29     1.432     1.234   5.28   0
       103    821.5773    684.9318 300.2234037 +22.8390753     441.4409      72.2905      1.817     3.46     6.164684     20.39015     46.31318         6     0.796     0.664  65.50   0
       104    123.5808    684.7266 300.0060930 +22.6298882     645.1394     72.27209      1.866     4.25     5.959401     20.39015     70.15423        11     1.272     1.001 -35.47   0
       105    856.8815    675.6199 300.2374406 +22.8469686     148280.9     72.25368      1.771     3.82     6.338964     20.39015     10293.31       154     1.605     1.527 -55.16   0
       106    619.6318    679.3572 300.1622539 +22.7769988      377.584      72.3089      1.638     3.46     5.788017     20.39015     32.69634         5     1.022     0.339  69.13   0
       107   1003.9391    677.5874 300.2826917 +22.8915526     1232.995     72.23527      1.816     5.01     5.041088     20.39015     85.51645        24     1.433     1.186 -26.44   0
       108    709.2152    675.6704 300.1913738 +22.8027691     850.3364      72.2905      1.877     4.12     5.786803     20.39015     72.56876        16     1.121     1.098 -81.90   0
       109    889.5996    668.4986 300.2499608 +22.8547162     417.8324     72.14312      1.618     4.84     6.389798     20.39015     39.19712        12     1.081     0.873 -10.28   0
       110    542.9869    664.1199 300.1433214 +22.7496638      1713.74     72.25368      1.674     3.33     6.005908     20.39015     166.2608        24     1.299     1.105   7.59   0
       111    724.3267    661.6759 300.2006300 +22.8032732     9536.903     72.34569      1.657     3.41     5.842404     20.39015     908.3237        41     1.336     1.279 -42.84   0
       112    225.6676    656.4158 300.0470381 +22.6523669     4989.991     72.27209      1.792     3.89     6.003136     20.39015     434.6224        39     1.443     1.300  50.75   0
       113    307.7261    654.5969 300.0731613 +22.6764391     1105.889     72.17999      1.644     3.89     6.090111     20.39015     119.8354        21     1.250     1.104  -2.51   0
       114    183.5128    652.5074 300.0351943 +22.6386090     230.1509     72.43758      1.574     5.72     6.039801     20.39015     53.52388         9     1.245     0.762  -7.13   0
       115    516.1348    650.3765 300.1394198 +22.7376725     735.6531     72.25368      1.479     3.72     6.062973     20.39015     75.09994        13     0.982     0.920  24.94   0
       116    507.7532    642.3607 300.1394119 +22.7328593     3176.115      72.3089      1.612     3.41     6.095673     20.39015     300.9019        32     1.295     1.192  64.15   0
       117    498.0255    636.2162 300.1383772 +22.7281804     1545.977      72.2905      1.624     3.26     6.120388     20.39015     134.6248        24     1.285     1.072  -2.86   0
       118    891.5256    634.1070 300.2617305 +22.8454066     535.6843     72.41921      1.833     5.21     6.394842     20.39015     46.80529         7     1.025     0.749  -9.45   0
       119    161.2182    632.2446 300.0348394 +22.6261102     765.2158      72.2905      1.852     3.81      6.17264     20.39015     73.00151        15     1.235     1.098  -0.52   0
       120    175.8320    630.8397 300.0398407 +22.6300876     576.0057      72.3089      1.697     5.02      6.16393     20.39015     47.30299         9     1.172     0.608 -45.48   0
       121    945.0129    627.9520 300.2804194 +22.8596463     477.3619      72.2905      1.512     4.31     6.189618     20.39015     51.88593        11     1.092     0.721 -12.94   0
       122    200.7841    626.6993 300.0489463 +22.6363785     731.2451     72.17999      1.925     7.09     6.160037     20.39015     57.24183        15     1.331     1.060  89.09   0
       123    522.1602    626.5308 300.1490397 +22.7326282     439.1763     72.23527      1.566     3.62     6.156169     20.39015      57.3857         6     0.842     0.738  67.07   0
       124    422.7028    625.8201 300.1182960 +22.7026290     1823.312     72.19842      1.626     3.53     6.164105     20.39015     152.4614        24     1.259     1.075  26.75   0
       125    998.6057    623.4356 300.2986131 +22.8743864     808.7809      72.2905      1.740     4.78      5.59662     20.39015     66.06716        20     1.280     1.139  67.80   0
       126     76.6769    620.4515 300.0123801 +22.5973814     19869.76     72.25368      1.916     3.90     6.257688     20.39015     1748.404        73     1.635     1.537  12.05   0
       127    507.6523    621.1733 300.1462601 +22.7267435       1168.1      72.2905      1.758     3.81      6.18111     20.39015     97.80354        17     1.177     0.970 -13.47   0
       128    542.8119    619.9810 300.1575997 +22.7369327      439.527     72.23527      1.645     4.29     6.183652     20.39015     41.65195         6     1.001     0.784 -88.52   0
       129    926.0850    607.6984 300.2810892 +22.8481583      1029.51     72.43758      1.707     4.10      6.37495     20.39015     88.96619        18     1.163     1.079 -17.02   0
       130    792.8116    605.5792 300.2402010 +22.8076567     494.4495     72.25368      1.667     4.28     6.231292     20.39015     49.42533         8     0.922     0.646  61.28   0
       131     88.6064    605.7689 300.0208558 +22.5967443      509.799     72.27209      2.109     5.05     6.321173     20.39015     37.49213         7     1.259     0.572 -28.53   0
       132     22.8285    604.2255 300.0009087 +22.5765806     1563.644     72.25368      2.216     5.41     6.394073     20.39015     105.8679        30     1.823     1.216  87.09   0
       133    471.1567    602.1746 300.1410618 +22.7103539     424.3937      72.2905      1.484     4.20     6.272188     20.39015     51.47858         8     1.203     0.534  -8.19   0
       134    865.0859    600.0284 300.2645471 +22.8276961     888.5287     72.27209      2.311     8.65     6.395181     20.39015     66.46855        22     2.087     1.002  11.79   0
       135    610.9604    599.2122 300.1855765 +22.7513767     332.8516     72.27209      1.683     3.84     6.307627     20.39015     30.27189         5     0.817     0.518  58.25   0
       136    427.8456    593.9268 300.1302522 +22.6950102     764.5038     72.27209      1.565     3.06     6.300939     20.39015      90.8695        11     1.025     0.681  14.43   0
       137    576.1936    592.6013 300.1768894 +22.7390653     466.5609     72.08777      1.537     3.66     6.378673     20.39015     48.93635        10     0.946     0.882 -56.28   0
       138    623.4380    591.4616 300.1919812 +22.7528865      540.452      72.2905      1.784     5.92     6.321154     20.39015     37.44621        11     1.133     0.871  10.98   0
       139    593.6369    590.8010 300.1829090 +22.7437721     616.3095     72.27209      1.486     3.99       6.3908     20.39015     56.82731        10     0.959     0.745 -43.59   0
       140    472.2142    589.7556 300.1454230 +22.7071036     927.1839      72.2905      1.617     3.10     6.342719     20.39015     92.19515        16     1.019     0.992 -85.56   0
       141    905.9197    585.7138 300.2819348 +22.8358024     3232.509     72.43758      1.661     3.60     6.336308     20.39015     245.6431        32     1.352     1.223 -47.67   0
       142    437.5688    585.3041 300.1360791 +22.6954466     1715.309     72.21684      1.549     3.38     6.349358     20.39015     155.9223        19     1.134     0.987  56.40   0
       143   1003.9718    583.9621 300.3131049 +22.8646413     719.2361     72.27209      1.751     6.36     5.783379     20.39015      57.7342        16     1.315     1.179  17.69   0
       144      1.2761    578.6621 300.0025085 +22.5627833     1633.297     55.93893      1.056     2.57     6.541862     20.39015     425.9824        14     1.225     0.508 -89.79  24
       145    466.7686    576.3449 300.1480806 +22.7016203     271.9026      72.2905      1.223     4.23     6.420195     20.39015     37.94117         7     1.024     0.619  22.91   0
       146    945.7711    575.2163 300.2977787 +22.8447105     280.4839     72.27209      1.448     4.54     6.187181     20.39015     33.85962         6     0.919     0.636  72.96   0
       147    300.9664    571.9116 300.0979029 +22.6506733     9211.193     72.23527      1.638     3.23     6.503299     20.39015     921.6609        45     1.362     1.315  26.50   0
       148    423.4839    569.0696 300.1369635 +22.6865643     8806.461     72.38246      1.556     3.03      6.41136     20.39015     918.0576        41     1.273     1.231  17.25   0
       149    835.2062    563.3076 300.2671478 +22.8081962     1921.151     72.17999      1.651     3.66     6.267346     20.39015     176.5241        24     1.253     1.139  68.87   0
       150    919.8943    560.7383 300.2944036 +22.8328037     12442.68     72.36407      1.699     3.56     6.268275     20.39015     968.6394        51     1.400     1.354 -72.91   0
       151    484.0508    558.6824 300.1591966 +22.7017234     11711.42      72.2905      1.541     3.01      6.54602     20.39015     1224.544        47     1.284     1.259  41.36   0
       152    653.5067    554.7051 300.2132849 +22.7513284     592.0278     72.43758      1.718     4.47     6.347286     20.39015     56.11131        10     1.008     0.801  23.69   0
       153    211.5629    554.0187 300.0758936 +22.6187449     1288.699     72.27209      1.639     3.38     6.497557     20.39015     129.6191        21     1.283     1.050  58.32   0
       154    415.6732    546.8164 300.1417549 +22.6778329     4456.667     72.27209      1.592     3.38      6.50003     20.39015     438.0906        34     1.246     1.217  -2.83   0
       155    758.6652    547.1362 300.2485257 +22.7806362     864.4629     72.32729      1.553     3.35     6.200905     20.39015     90.42746        15     1.093     0.900  -6.06   0
       156    394.1250    545.4098 300.1355025 +22.6709738     1214.193     72.27209      1.444     2.67     6.508697     20.39015     131.2821        18     1.063     0.943 -20.28   0
       157    148.5169    544.4648 300.0593848 +22.5971072     779.5483     72.38246      1.884     4.06     6.526886     20.39015     74.82381        14     1.254     0.839  68.07   0
       158    835.7161    542.5999 300.2740289 +22.8023956     1588.309     72.14312      1.672     3.67      6.22825     20.39015     128.1623        23     1.239     1.107 -22.59   0
       159    356.5438    540.6776 300.1253392 +22.6583560     439.3251      72.3089      1.730     4.64     6.508697     20.39015     33.74949         7     0.917     0.666 -19.06   0
       160    716.0563    539.6136 300.2376820 +22.7657184     811.9907     72.25368      1.507     3.13     6.204678     20.39015     97.81715        17     1.124     0.937 -10.00   0
       161    532.3992    534.4362 300.1821266 +22.7092384     207323.8     72.25368      1.577     2.83     6.828905     20.39015     24477.32       198     1.538     1.469 -27.12   0
       162    218.3631    534.1427 300.0844602 +22.6150763     3393.231     72.27209      1.731     3.35     6.538538     20.39015     337.2286        30     1.336     1.225   3.72   0
       163    784.5769    531.0073 300.2618415 +22.7837562     592.7825     72.25368      1.888     4.14     6.147372     20.39015     61.75791        10     1.080     0.861  39.52   0
       164    563.9295    521.7508 300.1960669 +22.7150360     335.3373     72.27209      1.748     4.43     6.846643     20.39015     32.43549         5     0.829     0.673 -39.49   0
       165    422.8040    519.3456 300.1528913 +22.6720783     299.0653     72.23527      1.418     3.39     6.527796     20.39015     38.04374         5     0.784     0.424 -19.03   0
       166    267.2593    517.6350 300.1050306 +22.6249882     384.5131      72.2905      1.335     4.41     6.530874     20.39015     42.12516         7     1.011     0.550  26.08   0
       167    422.9635    514.5916 300.1544839 +22.6707605     2587.014     72.27209      1.612     3.28     6.529093     20.39015      270.674        28     1.271     1.117  61.64   0
       168    835.2208    512.0845 300.2837791 +22.7934741      341.786     72.21684      2.356     4.34     6.046556     20.39015     38.85611         6     0.944     0.567  27.68   0
       169    892.9993    503.9091 300.3044578 +22.8084143     296.1583     72.14311      1.421     3.76     5.983956     20.39015     33.57073         5     0.671     0.605 -89.96   0
       170    740.4435    503.6815 300.2569481 +22.7626905     382.8641     72.23527      1.265     2.86     6.126573     20.39015     56.25251         7     0.819     0.655 -22.21   0
       171    820.1075    501.2163 300.2825922 +22.7858261     1796.569     72.19842      1.561     3.01     5.988238     20.39015     165.6434        23     1.133     1.079  18.43   0
       172    691.2844    498.6515 300.2432541 +22.7465289     2641.329     72.25368      1.599     3.05     6.185678     20.39015     267.9661        26     1.216     1.159 -25.79   0
       173    934.2046    492.1327 300.3211375 +22.8173575     1042.284     72.25368      2.332     8.03     5.907648     20.39015     65.12479        19     1.555     1.158  75.53   2
       174    900.6167    495.9455 300.3094192 +22.8084038     342.7892     72.25368      1.414     4.79     5.930614     20.39015     36.56433         6     1.229     0.530  63.74   0
       175    596.3563    495.6298 300.2146480 +22.7172398     372.5014      72.3089      1.413     4.22     6.804234     20.39015      42.3225         9     0.996     0.774 -45.47   0
       176    478.6514    494.9234 300.1782087 +22.6817895     734.1096     72.27209      1.552     2.91     6.786469     20.39015     84.52497        11     0.979     0.707 -14.40   0
       177    948.6394    493.0712 300.3253378 +22.8219464     1362.546     72.23527      1.713     3.82     5.930319     20.39015     108.6941        19     1.193     1.040  18.56   0
       178    820.2966    491.1773 300.2859092 +22.7829964     2245.644     72.19842      1.898     4.46     5.934882     20.39015     229.5462        29     1.741     1.003  69.92   0
       179    573.8605    489.1961 300.2097263 +22.7086551     778.1313     72.25368      2.024     4.56     6.833391     20.39015      57.9983        12     1.078     0.852  57.24   2
       180    359.9348    489.2309 300.1430912 +22.6445958     328.5191     72.27209      1.411     3.28     6.508697     20.39015     38.94393         6     0.887     0.467 -37.41   0
       181    858.5448    486.3187 300.2994171 +22.7930458     4136.902      72.3089      1.594     3.06     5.873881     20.39015     417.7148        32     1.254     1.171  80.10   0
       182    412.1074    488.1464 300.1596857 +22.6599121     527.2574     72.32729      1.804     4.84     6.508697     20.39015     41.24771        11     1.086     0.741 -12.79   0
       183    519.2175    482.5710 300.1948526 +22.6903889     239.0277     72.25368      1.405     4.15     6.857651     20.39015     36.12822         5     0.892     0.552  51.82   0
       184    950.3615    477.0123 300.3310868 +22.8178430      801.383     72.27209      1.666     3.70     5.898113     20.39015     69.17654        12     1.034     0.867   9.26   0
       185     90.5168    476.1756 300.0635101 +22.5601204     976.2025     72.23527      1.807     4.20     6.656253     20.39015     83.26464        19     1.182     1.158 -36.71   0
       186    946.8445    466.5032 300.3333995 +22.8137683     334.0562      72.2905      1.378     4.75     5.927308     20.39015     46.25285         8     0.875     0.733 -47.57   0
       187     83.1233    466.0623 300.0644927 +22.5550013     372.4194     72.32729      1.842     3.67     6.661368     20.39015     33.91968         5     1.023     0.379  33.61   0
       188    690.5965    460.9097 300.2552872 +22.7354743     506.4189     72.17999      1.630     3.22     6.174934     20.39015     64.93415         8     1.066     0.562  17.96   0
       189    579.5806    458.4902 300.2214725 +22.7015437     380.6621     72.19842      1.531     4.32     6.717062     20.39015      41.0302         9     0.983     0.703  32.92   0
       190    631.8624    456.6219 300.2383710 +22.7166594     852.1291     72.25368      1.648     3.67     6.472007     20.39015     92.81586        15     1.096     1.044 -35.73   0
       191    946.7636    449.5349 300.3388803 +22.8088637     690.9777     72.27209      1.547     3.43     5.990168     20.39015     71.77261        12     1.058     0.829 -38.06   0
       192    692.6954    449.0852 300.2597783 +22.7327035     837.0544     72.45594      1.359     2.62     6.173862     20.39015      115.616        14     1.022     0.824  33.69   0
       193    850.0300    445.2588 300.3100847 +22.7786908      1091.67      72.2905      1.532     3.26      5.85019     20.39015     96.37933        16     1.064     0.933   4.82   0
       194    808.7755    443.2012 300.2978838 +22.7657540     534.8179     72.21684      2.306     3.88     5.893015     20.39015     37.55272         5     1.025     0.422 -44.56   0
       195    834.0039    441.7775 300.3062149 +22.7728942     707.2131     72.23527      1.392     3.41     5.866902     20.39015     88.02732        12     0.967     0.892 -13.08   0
       196    578.4705    439.4315 300.2273104 +22.6957340       3166.3     72.27209      1.492     2.71      6.63633     20.39015     382.4362        26     1.152     1.067 -19.92   0
       197    938.6956    438.4443 300.3399610 +22.8032600     453.5436      72.2905      1.353     5.04     5.989193     20.39015     54.84553         8     1.165     0.616  62.88   0
       198    418.4344    426.7415 300.1815794 +22.6441664      287.397      72.2905      1.278     2.67     6.418594     20.39015     57.29389         5     0.716     0.658   0.14   0
       199    989.8718    418.7906 300.3623104 +22.8129161     1392.099     72.25368      1.621     3.55     6.412943     20.39015     122.6601        21     1.143     1.124  72.76   0
       200    861.8704    418.5946 300.3224297 +22.7745657     540.6614     72.23527      1.414     2.49     5.837656     20.39015     72.54928         8     0.812     0.671 -49.80   0
       201    948.2998    417.4405 300.3497730 +22.8000918     923.8673     72.25368      1.587     3.62     6.119515     20.39015     97.83232        17     1.127     1.044  83.76   0
       202    598.0648    415.1888 300.2412811 +22.6946325     262.1422     72.19842      1.197     3.91     6.412573     20.39015     31.24414         6     0.913     0.479  35.15   0
       203    689.1329    413.5700 300.2701903 +22.7214275     980.8336     72.25368      1.373     2.92     6.191349     20.39015     107.3617        13     0.981     0.822  45.93   0
       204    484.5157    413.9787 300.2062986 +22.6602879     376.7174     72.21684      1.429     5.63      6.71369     20.39015     43.73866        11     1.257     0.711  17.03   0
       205    192.9575    411.1043 300.1164794 +22.5721342     649.8204      72.2905      1.551     4.36     6.437422     20.39015      74.2546        11     0.992     0.935  14.19   0
       206    255.4316    407.0307 300.1372371 +22.5896807     3827.093     72.27209      1.605     2.91     6.320771     20.39015      388.279        34     1.330     1.189  50.07   0
       207    988.6761    406.0101 300.3660836 +22.8088818     4319.165     72.25368      1.646     3.53     6.419764     20.39015     409.9427        36     1.363     1.248 -71.09   0
       208    202.5751    401.7303 300.1225120 +22.5723236     7663.042     72.27209      1.685     3.37     6.402435     20.39015     792.8256        41     1.362     1.288  46.53   0
       209    581.4945    401.3111 300.2406197 +22.6856830     434.3552     72.45594      1.711     3.51     6.477322     20.39015     43.23759         5     0.769     0.718 -38.50   0
       210    968.6105    397.0830 300.3627165 +22.8003116     1876.401     72.23527      1.631     3.31     6.272995     20.39015     175.3532        24     1.243     1.120 -78.23   0
       211    343.4649    395.9959 300.1682135 +22.6128804     4786.201     72.27209      1.529     3.06     6.276481     20.39015      512.265        31     1.227     1.172 -79.59   0
       212    587.6862    392.9421 300.2452639 +22.6851311     18525.87     72.38246      1.483     2.84     6.424444     20.39015     2070.808        53     1.278     1.227  81.24   0
       213    605.2745    393.0166 300.2507205 +22.6904177       869.03     72.27209      2.124     5.52      6.34525     20.39015     59.28601        16     1.567     0.767 -47.31   0
       214    785.1083    383.8850 300.3097459 +22.7416151     372.5092     72.43758      1.341     3.27     6.069448     20.39015     49.74801         6     0.916     0.440  36.60   0
       215    208.1158    380.2704 300.1311963 +22.5678203     300.7521     72.38246      1.456     2.37     6.389319     20.39015     52.32927         6     0.721     0.607 -66.73   0
       216    921.5241    375.9879 300.3548645 +22.7801580     883.1337      72.2905      1.680     4.41     5.983365     20.39015     78.46948        16     1.239     0.919  -6.94   0
       217    142.2298    372.6758 300.1131662 +22.5459001     2133.216     72.27209      1.781     3.70     6.584323     20.39015     209.0035        32     1.489     1.228  54.67   0
       218    941.9979    363.1233 300.3654267 +22.7825817     1105.839     72.17999      1.492     4.65     6.073726     20.39015     104.2032        20     1.332     1.090   8.29   0
       219    528.4034    362.3472 300.2367173 +22.6585899     6598.281     72.27209      1.464     2.67     6.448268     20.39015     783.3679        37     1.206     1.165 -87.74   0
       220    243.0668    361.5906 300.1481286 +22.5729251     621.0324     72.27209      1.590     4.00     6.334939     20.39015     82.77731        10     1.184     0.624  23.76   0
       221    101.1209    355.0142 300.1061104 +22.5285113      637.718      72.2905      1.794     4.17     6.646882     20.39015     58.97676        11     1.142     0.839 -11.99   0
       222    642.2490    352.6363 300.2753415 +22.6898769     661.6968     72.27209      1.637     3.98     6.319899     20.39015     73.88367        11     1.143     0.707 -55.87   0
       223    732.5664    351.4548 300.3038803 +22.7165669     1210.044      72.2905      1.661     3.11     6.318205     20.39015     126.0281        17     1.124     0.963  44.14   0
       224    434.9446    348.5497 300.2120834 +22.6266430     6245.096      72.3089      1.507     2.89     6.380645     20.39015     716.4987        37     1.263     1.159  66.26   0
       225    924.2055    343.9790 300.3660835 +22.7717522     580.9937     72.25368      1.363     2.92     6.016827     20.39015     70.17812        10     0.897     0.722  -2.51   0
       226    827.1631    343.1675 300.3360698 +22.7424883     1517.918      72.2905      1.618     3.37     6.134474     20.39015     146.7448        23     1.271     1.033 -53.51   0
       227    419.7052    337.2948 300.2109880 +22.6188457     461.1433     72.43758      1.308     4.98     6.471271     20.39015     51.99358         9     1.034     0.722  17.21   0
       228    502.2439    335.4530 300.2372908 +22.6430285     483.6117      72.3089      1.569     3.91     6.324606     20.39015     57.35462         9     1.127     0.640  70.46   0
       229    482.6508    333.1786 300.2319255 +22.6365090     198.6209     72.27209      1.252     4.10     6.291548     20.39015     29.15096         6     0.739     0.650  24.14   0
       230    799.7333    331.1031 300.3314268 +22.7308117     501.9698     72.36407      1.429     4.00     6.142993     20.39015     57.39195        11     1.184     0.707  -4.24   0
       231    322.4507    327.7128 300.1838188 +22.5869693     2599.048     72.27209      1.593     2.87     6.340851     20.39015     311.7682        27     1.216     1.132  70.10   0
       232     41.1084    325.2234 300.0971130 +22.5019753     1194.473     72.19842      1.963     4.13     6.423366     20.39015      118.749        19     1.401     0.909 -27.75   0
       233    669.9793    323.1886 300.2935352 +22.6897095     228.9617     72.25368      1.307     3.76     6.388231     20.39015     28.85714         5     0.806     0.503  54.18   0
       234    269.7844    321.2634 300.1695199 +22.5693433     251.5472     72.25368      1.531     4.38     6.366094     20.39015     28.14215         5     0.758     0.720  59.15   0
       235    291.8553    317.0914 300.1777410 +22.5747549     30264.12     72.32729      1.569     3.09     6.340234     20.39015     2996.152        70     1.422     1.328  65.87   0
       236    826.6882    315.1719 300.3450008 +22.7342939     1307.522     72.25368      1.440     3.08      6.15428     20.39015     134.6158        20     1.175     0.955 -10.85   0
       237    781.9903    312.5739 300.3319020 +22.7201740     323.5526     72.27209      1.614     4.33     6.205708     20.39015     31.03109         6     0.983     0.543 -74.79   0
       238    865.2263    304.4232 300.3605087 +22.7427306     371.0537     72.23527      2.572     4.28     6.171457     20.39015     26.48987         5     0.905     0.577 -49.57   0
       239    742.2111    303.7239 300.3223669 +22.7057267     519.3795      72.2905      1.425     3.87     6.326964     20.39015     64.64622        11     1.041     0.856 -76.23   0
       240    390.6594    302.9146 300.2130930 +22.6002689     436.2023     72.38246      1.312     2.50     6.574531     20.39015     72.93999         7     0.958     0.483 -22.78   0
       241    166.0285    303.4467 300.1430180 +22.5331473     439.3453      72.3089      1.532     4.75     6.620311     20.39015     52.60503         7     0.967     0.662   0.08   0
       242    702.3379    297.2366 300.3120384 +22.6919303     1925.892      72.2905      1.441     2.82     6.392083     20.39015      202.514        22     1.118     1.011 -64.71   0
       243    510.6432    291.7922 300.2540651 +22.6329933     339.2346      72.2905      1.328     3.39     6.291624     20.39015     49.32721         5     0.761     0.436  71.49   0
       244    917.4516    290.4199 300.3813449 +22.7543234     693.5359     72.25368      1.732     3.75     6.182144     20.39015     58.16283        11     1.060     0.782  24.83   0
       245    364.1146    281.6340 300.2117289 +22.5862054     2005.327     72.23527      1.573     3.51     6.598327     20.39015     220.8572        26     1.316     1.051  74.00   0
       246    576.2152    280.4070 300.2781855 +22.6493472     394.8655     72.17999      1.380     2.93     6.345694     20.39015     55.73127         6     0.900     0.695  46.77   0
       247    803.3068    274.8994 300.3507666 +22.7157150     420.7137     72.45594      1.345     3.25     6.196831     20.39015     57.10529        12     0.968     0.835  -9.19   0
       248    795.7982    275.6637 300.3481769 +22.7136886     277.8956     72.27209      1.247     2.08     6.206397     20.39015     49.41483         5     0.722     0.421  21.49   0
       249    685.3610    272.3006 300.3148311 +22.6796794     423.2219      72.2905      1.372     3.72     6.423317     20.39015      50.7973        10     1.067     0.653  18.41   0
       250    654.1470    271.5073 300.3053582 +22.6701110     227.4266     72.32729      1.133     2.66     6.408831     20.39015     51.00608         5     0.930     0.343 -84.24   0
       251    440.0323    261.0405 300.2420431 +22.6030163     1161.736     72.32729      1.469     2.86     6.751309     20.39015     134.6676        18     1.047     0.995  58.42   0
       252    155.4114    261.8157 300.1532130 +22.5180091     281.6328     72.21684      1.370     3.47     6.820962     20.39015      25.1152         5     0.765     0.455 -72.32   0
       253    524.7889    259.0367 300.2690917 +22.6278113       371.86     72.25368      1.869     5.11     6.591779     20.39015     32.27229         6     0.926     0.798 -28.99   0
       254    951.8843    257.3229 300.4028219 +22.7550983     343.5092     72.38246      1.802     4.91     6.190334     20.39015     32.85996         7     1.021     0.668   9.21   0
       255    823.0646    254.6404 300.3634978 +22.7157977     273.4561     72.23527      1.495     3.87     6.224001     20.39015     34.39093         5     0.897     0.479   1.71   0
       256    684.9202    253.0555 300.3209332 +22.6740130     2175.902      72.3089      1.443     2.67      6.42138     20.39015      245.504        24     1.115     1.070 -33.67   0
       257    946.2244    247.4863 300.4042446 +22.7505752     3092.722     72.21684      1.633     3.35     6.188928     20.39015     298.5346        30     1.288     1.183 -75.96   0
       258    492.7626    246.0207 300.2633350 +22.6144834     184.4622      72.2905      1.201     3.77     6.723314     20.39015     34.82421         5     0.820     0.498 -28.46   0
       259   1007.9238    242.7259 300.4250467 +22.7676552     524.0397     72.36407      1.595     3.33     6.203457     20.39015     51.93393         9     0.907     0.770  39.93   0
       260    393.1384    236.6334 300.2353536 +22.5819624     624.4171      72.2905      1.304     2.96     6.940707     20.39015     95.27068        12     0.941     0.869 -68.53   0
       261   1015.7054    235.4719 300.4298277 +22.7678941     1694.279     72.38246      1.730     3.46     6.205332     20.39015     167.5778        25     1.268     1.185  53.59  16
       262     67.9791    230.5888 300.1361471 +22.4828494     1504.991     72.25368      1.921     4.49     7.012589     20.39015     114.6519        29     1.577     1.272 -30.09   0
       263     98.8014    231.1329 300.1455542 +22.4922387     528.0439     72.25368      1.606     3.78     7.036263     20.39015     49.68713        10     1.057     0.640 -22.78   0
       264    962.0914    228.5909 300.4153225 +22.7498826     477.2388     72.19842      1.659     4.11     6.192677     20.39015     46.82787         7     0.995     0.485   5.25   0
       265    805.2477    225.1299 300.3675072 +22.7019787     445.4318     72.25368      1.564     4.45     6.306755     20.39015     32.21001         8     1.104     0.510  34.42   0
       266    152.2016    222.9926 300.1647994 +22.5058954     515.6133     72.08777      1.821     2.91     7.013859     20.39015     46.59244         8     0.821     0.647 -39.74   0
       267    947.2922    220.5911 300.4132968 +22.7431550     385.9161     72.19842      1.745     4.27      6.22046     20.39015     38.25775         6     0.925     0.691  19.64   0
       268    828.2355    217.3754 300.3771913 +22.7066238     409.2645      72.2905      1.466     3.04     6.306979     20.39015     40.12692         5     0.756     0.422  22.27   0
       269    756.4883    214.5623 300.3557260 +22.6843532     570.4915     72.25368      1.326     2.51     6.372225     20.39015     76.81433        10     0.926     0.687  17.86   0
       270    347.1598    214.2486 300.2282956 +22.5617636     298.0822      72.3089      1.173     2.99     7.013861     20.39015     52.21365         7     0.848     0.601 -28.85   0
       271    854.8912    203.5703 300.3899816 +22.7106243      2153.62     72.23527      1.551     2.88     6.346157     20.39015     231.9034        23     1.176     1.074 -38.55   0
       272    273.2039    200.2909 300.2098018 +22.5356093      2219.62     72.17999      1.629     3.39       7.0126     20.39015     251.8518        26     1.282     1.142 -87.18   0
       273    351.0871    195.7402 300.2355170 +22.5576199     991.2675     72.36407      1.526     3.41      7.01475     20.39015      112.916        17     1.162     0.981 -22.30   0
       274    103.2197    196.3507 300.1582015 +22.4835711     341.8877     72.25368      1.512     3.75     7.061916     20.39015     43.59476         5     1.079     0.502 -51.48   0
       275    753.0247    195.1547 300.3609366 +22.6777342     519.4005      72.2905      1.358     5.06     6.488543     20.39015     56.94738         9     0.994     0.832  23.14   0
       276    859.8558    192.5876 300.3950903 +22.7089490     538.9553     72.27209      1.758     5.39     6.414605     20.39015      42.3709         9     1.155     0.710  36.71   0
       277    167.9568    187.3929 300.1812379 +22.5003867      793.042      72.2905      1.723     4.55     7.052207     20.39015     69.80981        17     1.241     1.032  57.45   0
       278    285.7164    187.1680 300.2179487 +22.5355847     233.5142     72.25368      1.759     4.47     7.011464     20.39015     34.96162         5     1.269     0.447  28.32   0
       279    705.8696    184.7758 300.3495973 +22.6606424     1858.987     72.27209      1.576     3.35     6.653199     20.39015     195.3826        25     1.192     1.117 -59.80   0
       280    770.4747    184.5952 300.3698008 +22.6799163     441.7158     72.19842      1.282     3.13     6.534944     20.39015     72.77272        10     1.072     0.650  20.59   0
       281    189.3032    181.2017 300.1898843 +22.5050005     527.9792     72.17999      1.572     3.41     7.052894     20.39015     69.39305         9     1.029     0.740  86.64   0
       282    977.3769    177.5537 300.4366369 +22.7397646     869.7573      72.2905      1.741     4.03     6.627922     20.39015     94.89295        14     1.351     0.881  58.92   0
       283    709.8719    176.5140 300.3535228 +22.6594633     797.1236     72.38246      1.661     3.34     6.695252     20.39015     82.22853        13     1.040     0.913  16.07   0
       284    630.4783    175.6966 300.3290387 +22.6354756     1232.486     72.38246      1.394     2.55     6.825704     20.39015     157.0093        17     1.046     0.998 -87.98   0
       285    825.9880    167.2123 300.3927492 +22.6915189     1292.761     72.17999      1.481     2.96     6.598846     20.39015     153.7274        23     1.278     1.045 -64.06   0
       286    556.5089    167.2024 300.3087409 +22.6108999     932.4609     72.19842      1.450     3.00     6.933675     20.39015     111.4032        15     1.083     0.817  72.37   0
       287    838.2979    166.5728 300.3967964 +22.6950164     849.2853     72.21684      1.584     3.06     6.596576     20.39015       94.136        14     1.027     0.881   3.97   0
       288    998.7678    157.3697 300.4498557 +22.7403503     1626.685     72.27209      1.580     3.05     6.856894     20.39015     168.9288        23     1.169     1.127  54.14   0
       289    954.4149    156.6833 300.4362337 +22.7268924     1185.235     72.23527      1.611     3.11     6.721318     20.39015     141.6977        21     1.304     1.092  61.30   0
       290    188.6439    149.3766 300.1999922 +22.4956588     781.7679     72.32729      1.522     3.23     7.062108     20.39015     90.87683        12     1.096     0.817 -29.89   0
       291     50.4851    143.9411 300.1587886 +22.4527209     2207.833     72.38246      1.865     3.76     7.174089     20.39015     210.1118        29     1.366     1.234  35.86   0
       292    873.6107    141.3886 300.4159747 +22.6983296     762.0245     72.16155      1.635     3.57     6.688976     20.39015     83.23444        14     1.110     0.972  50.57   0
       293    207.8876    137.3567 300.2098735 +22.4979670     5652.949     72.27209      1.659     3.15     7.045549     20.39015     554.7594        38     1.354     1.271  44.67   0
       294   1006.9370    125.3264 300.4627898 +22.7335685     18274.13      72.3089      1.726     3.27     6.903156     20.39015     1960.976        58     1.524     1.357 -80.36   0
       295    191.2735    128.2186 300.2076658 +22.4903664     583.7596     72.27209      1.582     3.87     7.040667     20.39015     69.74718        10     1.131     0.704  21.60   0
       296    852.0521    119.3262 300.4163977 +22.6855339     3440.343      72.2905      1.541     2.92     6.727197     20.39015     394.7768        31     1.256     1.206  89.71   0
       297    955.8496    118.0811 300.4491906 +22.7162104     2774.014      72.2905      1.652     3.14     6.816717     20.39015     299.8891        28     1.304     1.166 -76.51   0
       298    401.4044    114.1692 300.2776153 +22.5492337     565.7803     72.25368      1.414     3.59     6.977033     20.39015     67.08482        14     1.059     0.969 -34.50   0
       299    154.5612    115.2627 300.2004439 +22.4756506       286.98     72.27209      1.384     4.17     7.032097     20.39015     44.58538         7     0.860     0.652  -5.79   0
       300    325.5597    106.5020 300.2564878 +22.5243280     715.7423     72.27209      1.906     2.58     7.035693     20.39015     61.91417        11     0.875     0.790  26.91   2
       301     91.9580    103.0688 300.1849255 +22.4534000     678.9026     72.25368      1.676     3.32      7.10044     20.39015     77.74768        13     1.170     0.767 -48.41   0
       302    452.7546    101.4617 300.2977228 +22.5609480     1801.025      72.3089      1.569     2.86     6.937657     20.39015     225.0035        23     1.226     1.036  57.82   0
       303    380.8365    102.8180 300.2748891 +22.5398144     477.7879     72.27209      1.304     4.13     7.004944     20.39015     51.89904         9     0.897     0.758   9.20   0
       304    514.5715    101.1962 300.3170634 +22.5793697     388.5745     72.23527      1.394     3.75     6.936035     20.39015     44.34548         7     0.881     0.579 -10.66   0
       305    196.1155     96.8344 300.2193400 +22.4827974     542.4581     72.23527      1.745     4.97     7.010704     20.39015     61.16066        10     1.232     0.761   5.92   0
       306    741.0510     91.3493 300.3908410 +22.6442884     441.7045      72.3089      1.521     3.72     6.724675     20.39015     37.55812         7     0.737     0.677   7.33   0
       307    886.8970     85.8841 300.4381045 +22.6863281     247.2249     72.43758      1.556     5.04     6.842129     20.39015     28.20487         6     1.271     0.566  50.69   0
       308   1017.3130     82.6961 300.4798416 +22.7243973     3679.297     72.45594      1.844     3.63     6.931708     20.39015     313.4294        42     1.674     1.355 -48.89  16
       309    226.9193     81.1287 300.2340112 +22.4875062     6110.069     72.38246      1.686     3.29     6.970562     20.39015     602.8728        44     1.439     1.316  59.64   0
       310    733.5889     82.1657 300.3914894 +22.6394143     283.5982     72.25368      1.311     4.16     6.775605     20.39015     37.88364         6     0.724     0.682  29.34   0
       311     78.0624     80.9119 300.1877825 +22.4428728      788.569     72.36407      2.349     5.00     7.236732     20.39015     71.52824        15     1.241     1.026 -16.08   0
       312    856.3174     79.1713 300.4307384 +22.6752530     417.5728      72.2905      1.562     4.18     6.829174     20.39015     44.62061         6     0.746     0.667 -37.52   0
       313    473.0294     66.6945 300.3153005 +22.5570176     6211.527     72.19842      1.565     3.06     7.003797     20.39015     699.7162        38     1.337     1.200  88.98   0
       314    358.5325     66.4622 300.2797229 +22.5226867     612.9662     72.32729      1.386     3.49     7.057996     20.39015     86.05149        13     1.056     0.949  62.74   0
       315    530.0757     61.6753 300.3346965 +22.5726426     335.1797     72.36407      1.443     4.44     6.941285     20.39015     37.89304         6     0.862     0.651 -31.46   0
       316    666.6878     58.3128 300.3783587 +22.6125421     256.1823     72.43758      1.384     4.69     6.904497     20.39015     45.94231         6     1.174     0.531  22.45   0
       317    725.8524     56.8733 300.3972705 +22.6298231     721.1767      72.2905      1.507     2.72     6.884322     20.39015     99.60757        11     0.960     0.752 -11.84   0
       318    818.2979     55.7520 300.4264646 +22.6571449     458.7101      72.3089      1.374     3.17     6.725592     20.39015     63.65842         6     1.009     0.431   1.37   0
       319    166.0979     50.6738 300.2249552 +22.4605443     395.9418     72.41921      1.452     3.56      6.88397     20.39015     48.89214         7     0.747     0.669   3.09   0
       320    601.4415     46.8459 300.3617369 +22.5897269     6286.223     72.32729      1.566     3.05     6.905353     20.39015     635.6962        37     1.329     1.197  86.84   0
       321    524.6670     49.4171 300.3369821 +22.5674988     518.9894     72.25368      1.736     3.46     6.953658     20.39015       58.726         8     1.134     0.474  -7.56   0
       322    376.4546     45.8936 300.2919649 +22.5221367     1456.594     72.32729      1.555     2.74     7.061398     20.39015     173.1058        19     1.107     0.990 -29.72   0
       323    642.5275     44.2779 300.3753739 +22.6012778     820.2143     72.36407      1.353     5.68     6.904497     20.39015     106.0525        13     1.463     0.712  49.63   0
       324    712.4984     42.2647 300.3978388 +22.6216259     274.1456     72.36407      1.422     3.93     6.930187     20.39015     39.19248         5     0.873     0.573 -38.46   0
       325    658.8306     40.6816 300.3816205 +22.6051194     528.3538     72.27209      1.365     2.26     6.904497     20.39015      73.9287         9     0.843     0.634 -62.42   0
       326    928.6821     38.4941 300.4664954 +22.6851788     531.5275     72.43758      1.628     3.63     6.917011     20.39015     54.37307         7     0.964     0.493   5.94   0
       327    125.3937     38.2145 300.2163307 +22.4447768     824.4293     72.16155      1.649     4.40     6.964828     20.39015     84.53287        11     1.331     0.743 -18.77   0
       328    696.8770     35.7424 300.3950810 +22.6150773     549.0159      72.3089      1.693     5.53     6.930285     20.39015     51.52464        10     1.316     0.655  57.27   0
       329    660.9879     31.0284 300.3854196 +22.6029874     937.9205     72.27209      1.882     5.05     6.904497     20.39015     73.25439        19     1.552     0.909  38.52   0
       330    645.7296     31.7880 300.3804174 +22.5986423     2835.825      72.2905      1.542     2.91     6.904497     20.39015     325.3062        29     1.253     1.120 -68.77   0
       331    732.1228     23.3301 300.4100906 +22.6220461     1521.849     72.38246      1.617     3.01     7.021039     20.39015     174.9387        23     1.284     1.096 -76.87   0
       332    670.3197     16.7135 300.3929650 +22.6016596      607.902     72.43758      1.392     3.08     6.904497     20.39015     83.91461        11     0.991     0.819  40.15   0
       333    132.2432   1016.8685 299.9008481 +22.7277595     355.5477     72.25368      1.975     3.45     97.87656     20.39015     30.47868         5     1.007     0.342  45.87   0
       334    274.7100   1012.6352 299.9465376 +22.7692827     270.1643     72.25368      1.450     5.57     20.94362     20.39015     63.49807        14     1.452     1.038 -25.39   0
       335    112.5136   1007.4523 299.8977757 +22.7191401      1276.24      72.3089      3.131    11.83     88.92813     20.39015     44.00648        24     2.169     1.795 -58.46   3
       336    108.9941   1006.9868 299.8968328 +22.7179507     968.2432     72.14311      2.788     8.53     88.92813     20.39015     46.63184        20     2.250     0.903 -54.05   3
       337    180.8626   1002.9868 299.9204818 +22.7383649      2254.52     72.25368      4.584    29.12     78.84991     20.39015     61.86985       198     5.752     4.094 -24.44  19
       338    179.4169    986.3305 299.9254483 +22.7331545     4158.839      72.2905      9.569    24.55     64.99846     20.39015     83.39243       290     5.557     4.682  28.27   3
