#   1 NUMBER                 Running object number                                     
#   2 X_IMAGE                Object position along x                                    [pixel]
#   3 Y_IMAGE                Object position along y                                    [pixel]
#   4 ALPHA_J2000            Right ascension of barycenter (J2000)                      [deg]
#   5 DELTA_J2000            Declination of barycenter (J2000)                          [deg]
#   6 FLUX_APER              Flux vector within fixed circular aperture(s)              [count]
#   7 FLUXERR_APER           RMS error vector for aperture flux(es)                     [count]
#   8 FLUX_RADIUS            Fraction-of-light radii                                    [pixel]
#   9 FWHM_IMAGE             FWHM assuming a gaussian core                              [pixel]
#  10 BACKGROUND             Background at centroid position                            [count]
#  11 THRESHOLD              Detection threshold above background                       [count]
#  12 FLUX_MAX               Peak flux above background                                 [count]
#  13 ISOAREA_IMAGE          Isophotal area above Analysis threshold                    [pixel**2]
#  14 A_IMAGE                Profile RMS along major axis                               [pixel]
#  15 B_IMAGE                Profile RMS along minor axis                               [pixel]
#  16 THETA_IMAGE            Position angle (CCW/x)                                     [deg]
#  17 FLAGS                  Extraction flags                                          
         1    491.8549     15.2221 300.3325973 +22.5431293     1068.591       71.966      1.480     3.18     5.901003     20.29862      146.073        17     1.203     0.945  63.57   0
         2     64.7094     14.8332 300.1998117 +22.4151343     617.9162     71.91101      2.224     7.28     6.514859     20.29862      39.9072        13     1.428     1.039  68.88   0
         3    395.6859     13.2654 300.3032854 +22.5137839     807.8188     72.03925      1.509     3.01     5.753464     20.29862     100.7702        13     0.998     0.887  44.34   0
         4    778.2258     12.1577 300.4228359 +22.6279230     433.0808     71.98431      1.532     3.27     6.148773     20.29862     48.26878         9     0.917     0.656 -30.16   0
         5    655.8826     11.9219 300.3847711 +22.5912591     1928.978     72.05754      0.504     2.32     6.571211     20.29862     1374.539         7     0.422     0.386  64.74   0
         6    167.1123      3.2801 300.2353951 +22.4424815     3580.557      65.8627      1.622     2.94     5.564571     20.29862     389.0122        32     1.377     1.180  16.73  24
         7    735.1028      4.1756 300.4119753 +22.6127275     521.5999     69.01054      1.303     2.81     6.738808     20.29862     74.46828         9     0.838     0.738  -9.81  16
         8    169.7217    988.9459 299.9163000 +22.7262874     1890.271     71.98431      6.812    12.81     74.31947     20.29862     57.22836        46     2.679     1.705  88.95   3
         9     81.4649   1011.2023 299.8816231 +22.7061842     5263.336       71.966     19.545   114.10     78.31572     20.29862     151.1755      2588    23.014    18.556  72.55  27
        10    139.6242    954.8900 299.9180167 +22.7074883     2191.911     71.89267     12.023    16.11     43.92933     20.29862     71.03526        62     3.451     2.090  11.57   3
        11    647.3100    953.4623 300.0765048 +22.8593400     6764.939     72.03925      2.021     4.60     4.560579     20.29862     366.1765        47     1.557     1.495   9.21   0
        12    159.3056    948.2770 299.9262865 +22.7114971     1061.214     72.07584      4.315     4.51     37.59772     20.29862     34.49315         5     0.961     0.602 -42.56   3
        13    226.1914   1000.0558 299.9302482 +22.7464181     602.6296     71.94767      1.817     7.17       81.965     20.29862     56.26842        16     1.537     1.105  62.92   0
        14    157.7331    999.5698 299.9091170 +22.7257370     478.2917     71.92934      2.285     3.37     84.63255     20.29862     33.56352         5     0.760     0.433  22.65   1
        15    555.6855    944.1280 300.0509948 +22.8291924     1517.224     72.05754      1.921     4.84     4.411385     20.29862     102.6057        28     1.414     1.292   3.42   0
        16    449.4914    940.3838 300.0191421 +22.7962764     993.0878     71.87433      1.943     6.65      4.34586     20.29862     62.03075        22     1.354     1.226  61.80   0
        17    380.1054    938.5568 299.9981368 +22.7749438     6584.544       71.966      2.009     4.57     4.744091     20.29862     457.2777        48     1.578     1.492  -8.76   0
        18    194.1025   1004.8774 299.9187001 +22.7381727     1076.674     72.07584      3.537    10.09     88.65463     20.29862     49.76993        16     1.928     1.471 -19.49   2
        19    412.5350    925.2800 300.0125482 +22.7808590     652.9995     72.05754      1.992     5.56     4.469304     20.29862      47.2845        11     1.377     0.945  45.80   0
        20    351.9053    997.5483 299.9701755 +22.7834133     556.0158     72.02094      2.730     4.69     4.779512     20.29862     44.53727         6     0.951     0.657  79.75   0
        21    926.5584    917.7327 300.1751945 +22.9327572     2274.465     71.92934      2.168     5.31     4.561893     20.29862     105.6666        37     1.635     1.432  12.87   0
        22    424.8229    913.0819 300.0203397 +22.7810427     357.0964     71.91101      1.646     4.62     4.513801     20.29862     37.64618         6     0.951     0.639 -13.24   0
        23    194.7509    986.3356 299.9249323 +22.7330489     3645.312     71.98431      7.409    24.24     70.43578     20.29862     82.02863       217     4.962     4.422  73.12   3
        24    715.5818    907.1021 300.1128578 +22.8664891     781.9442     71.87433      1.970     5.86     4.698538     20.29862      51.1638        13     1.515     0.840  18.05   0
        25    750.4352    900.6605 300.1258172 +22.8750836     960.9627       71.966      1.966     6.04      4.70396     20.29862      64.7922        23     1.490     1.096 -13.91   0
        26    542.4125    990.9694 300.0316267 +22.8386595     2503.719     71.94767      2.050     4.98     4.052583     20.29862     134.5028        35     1.591     1.386 -44.39   0
        27    772.4073    894.2760 300.1347433 +22.8798337     11418.25     71.89267      1.947     4.65      4.70396     20.29862     607.7588        53     1.515     1.482  18.83   0
        28    214.5478    984.5258 299.9316777 +22.7384698     4634.962       71.966      8.633    25.58     68.54411     20.29862      89.7345       406     6.526     5.006 -47.96  19
        29    233.4379    972.8448 299.9413519 +22.7407866     7403.573     72.00262      7.846    32.00     49.82162     20.29862     149.8288       674    10.282     4.691  61.00  18
        30    193.4138    999.8429 299.9201234 +22.7365221     1022.615       71.966      3.043     9.04     83.89511     20.29862     49.21742        13     2.174     1.050 -44.02   3
        31    634.3427    984.1158 300.0624947 +22.8642541     9793.366     72.03925      2.171     5.69     4.374779     20.29862     462.2454        57     1.709     1.589   0.34   3
        32    729.0909    986.8212 300.0911436 +22.8934324     685.0366     71.87433      2.017     7.20     4.238044     20.29862     42.35266        17     1.280     1.135  58.96   0
        33    904.9659    887.5932 300.1782581 +22.9176286     427.5588     71.94767      2.199     6.01     4.561893     20.29862     26.53064         6     1.247     0.815  30.93   0
        34     84.7833    885.6024 299.9234951 +22.6711593     1176.888     71.85598      5.107     5.43     9.819407     20.29862     57.34629        15     1.286     1.031 -83.98   2
        35    628.8848    986.5359 300.0600069 +22.8633127      8770.71     72.03925      2.088     4.81     4.322219     20.29862     482.4714        48     1.646     1.484  48.93   3
        36    477.5495    882.8326 300.0465906 +22.7881693     444.0781     71.98431      1.870     5.70     4.673685     20.29862     32.40389         7     1.501     0.610 -55.18   0
        37    780.9812    876.5414 300.1431826 +22.8773083     1513.445     71.91101      1.942     4.57      4.70396     20.29862     108.4879        26     1.375     1.267 -12.93   0
        38     73.3010    945.4170 299.9004791 +22.6848691     5655.246     71.85598     29.961   111.11     25.83818     20.29862     1352.524      4196    21.264    16.110 -69.11  27
        39    963.5012    876.1665 300.2002368 +22.9318785     472.1534     71.92934      2.017     5.14     4.701771     20.29862     34.44165         8     1.082     0.752  40.62   0
        40    129.9971    877.1265 299.9403063 +22.6822939     609.5303     71.85598      2.921     3.97     10.21066     20.29862     31.92247         5     0.853     0.528  56.69   0
        41    633.0976    873.7718 300.0979880 +22.8321960      511.762     71.89267      1.728     4.13     4.694969     20.29862     42.29696         6     0.835     0.627  -0.36   0
        42    819.3874    869.7567 300.1573644 +22.8868662     834.1768     71.92934      2.354     6.83     4.664004     20.29862     42.90757        16     1.437     0.910  51.61   0
        43    867.6678    860.4406 300.1754510 +22.8986535     675.0585     71.92934      1.912     5.42     4.607469     20.29862     47.50273         9     1.371     0.604  38.31   2
        44    718.6949    860.0865 300.1291139 +22.8539178     774.8619      72.1307      1.761     4.37     4.733342     20.29862     71.36618        16     1.169     1.018  -3.49   0
        45    431.3947    856.1753 300.0408860 +22.7666784     4321.446     71.92934      1.870     4.17     4.879025     20.29862     324.5723        39     1.453     1.366  33.21   0
        46    730.3049    857.4561 300.1335881 +22.8566412     671.4215     72.00262      2.037     4.57     4.753061     20.29862     51.85092        12     1.189     0.765 -15.95   0
        47    920.5891    970.0355 300.1563225 +22.9459964     619.2593     71.94767      1.986     5.05     4.549943     20.29862     52.72704         7     1.468     0.491 -64.87   0
        48    474.8689    844.0479 300.0583639 +22.7762308      386.862     71.92934      1.674     4.49     4.879529     20.29862     37.74272         5     1.189     0.482  19.80   0
        49    156.6624    841.8623 299.9600598 +22.6801767     786.9443     71.98431      2.127     6.98     7.902581     20.29862      56.4883        13     1.223     1.116  19.54   0
        50    133.7798    838.7908 299.9539433 +22.6724310      1620.37     71.92934      2.000     4.67     7.054078     20.29862     121.5518        30     1.461     1.393  54.46   0
        51     66.1758    840.4137 299.9323998 +22.6526143     518.7927     71.94767      2.589     4.15     5.536925     20.29862     34.18842         5     0.883     0.556 -49.14   0
        52    761.1689    835.5426 300.1503335 +22.8595939     333.4983       71.966      1.782     5.59     4.895904     20.29862     31.33086         6     1.468     0.600  30.51   0
        53   1005.5833    828.3062 300.2289287 +22.9307257      2122.04     71.87433      1.985     4.93     4.862237     20.29862     119.1926        32     1.493     1.370  64.72   0
        54    959.7700    826.8405 300.2151079 +22.9165845     2174.858     71.94767      2.025     5.36     4.840996     20.29862     109.5656        32     1.486     1.401  -3.21   0
        55    664.6816    827.4557 300.1228862 +22.8283591     400.0603     71.98431      1.628     3.81     4.830575     20.29862      42.8164         6     1.035     0.402 -17.95   0
        56    743.5674    820.8693 300.1496155 +22.8501047     474.4614     71.92934      1.587     4.68     4.988062     20.29862     50.35452        13     1.109     0.914  33.74   0
        57    611.5146    814.3802 300.1105689 +22.8086704     4898.035     71.87433      1.786     4.08      4.83337     20.29862     394.2734        42     1.428     1.353  65.38   0
        58    101.5835    814.5273 299.9518193 +22.6558112     439.7019     71.94767      2.099     3.93     5.781478     20.29862     41.97226         5     0.935     0.499  -0.20   0
        59    413.9741    811.6626 300.0499309 +22.7486767     488.0654     71.94767      1.566     4.84     5.053714     20.29862     41.47095        12     1.016     0.880 -52.01   0
        60    161.5659    808.0871 299.9725616 +22.6719569     1372.964     71.91101      2.037     4.92     6.000901     20.29862      88.4263        26     1.487     1.399 -23.29   0
        61    632.2853    807.1227 300.1193995 +22.8128106      701.019     72.05754      1.670     4.19     4.866693     20.29862     58.66615        11     0.995     0.791 -21.26   0
        62    181.5219    805.1127 299.9797339 +22.6770892     450.6632     72.09413      1.960     3.74     5.755537     20.29862     33.59378         6     0.805     0.500  89.67   0
        63    548.9401    797.2366 300.0966469 +22.7849927     356.0923       71.966      1.555     4.32     5.034472     20.29862      41.0572         6     1.125     0.471  27.74   0
        64   1004.3562    794.4964 300.2395352 +22.9206394     1161.335       71.966      1.957     5.18      4.82156     20.29862     71.36538        21     1.362     1.084  75.83   0
        65    787.5595    794.2555 300.1719814 +22.8556381     4259.396     71.92934      1.834     3.98     5.144012     20.29862     288.7722        39     1.436     1.332  54.90   0
        66    504.2537    787.0504 300.0860394 +22.7686736     526.4188     71.98431      1.742     5.26     5.107924     20.29862     53.63663        12     1.261     0.926 -30.05   0
        67    150.8760    784.4583 299.9769161 +22.6619704     1086.151     72.00262      1.808     5.12     5.586412     20.29862     87.64626        19     1.340     1.081  40.48   0
        68    566.1712    780.4187 300.1074799 +22.7853271     319.3789     71.94767      1.432     5.35     5.001394     20.29862     48.30359        10     1.131     0.715  78.75   0
        69    300.4916    776.5922 300.0260094 +22.7045832     53951.73     71.85598      1.828     4.00     5.417744     20.29862     4557.122        95     1.545     1.511  20.25   0
        70    558.2586    775.7986 300.1065164 +22.7816288      1607.97     71.91101      1.677     3.74     5.027229     20.29862     136.0043        25     1.215     1.199 -39.25   0
        71    971.1664    775.2584 300.2354294 +22.9051706     1042.766       71.966      1.873     4.94     4.913953     20.29862     72.03533        19     1.304     1.057 -23.24   0
        72    228.7088    774.6649 300.0043041 +22.6825040     504.6292     72.07584      1.809     5.02     5.573787     20.29862     43.33076         9     1.294     0.742  57.77   0
        73    587.4406    771.8527 300.1168895 +22.7892411     983.1834     71.92934      1.580     3.56      4.94972     20.29862      89.9532        16     1.080     0.992 -11.01   0
        74    598.0961    770.4746 300.1206570 +22.7920385     559.5302     72.09413      1.545     4.44     4.920808     20.29862     63.11968        12     1.114     0.915 -49.90   0
        75    703.6031    766.8637 300.1547093 +22.8226155     462.1871     71.91101      1.591     5.40     5.013484     20.29862     39.68961        12     1.357     0.737  47.18   0
        76    741.5747    756.9747 300.1697595 +22.8311502     874.7299     71.91101      1.738     4.66     5.115981     20.29862     73.11839        20     1.289     1.151  31.27   0
        77    350.2513    753.8677 300.0488777 +22.7129796     31710.44     71.92934      1.735     3.53     5.417744     20.29862     2987.466        74     1.456     1.438 -66.31   0
        78    364.5867    754.4434 300.0531522 +22.7174428     2114.687       71.966      1.805     3.48     5.366079     20.29862     198.1265        29     1.320     1.261 -37.07   0
        79    873.4593    750.1091 300.2131176 +22.8686814      2939.58     72.02094      1.797     4.08     5.145589     20.29862     205.1182        38     1.454     1.364 -61.38   0
        80    361.1490    748.2176 300.0541052 +22.7146248     746.1069     71.94767      2.626     6.49     5.384383     20.29862     58.34935        16     1.363     1.108 -35.34   1
        81    631.3750    746.0569 300.1389603 +22.7949968     901.0264     71.94767      1.601     4.16     4.914703     20.29862      73.7403        17     1.127     1.060  76.11   0
        82    467.9751    745.8797 300.0881204 +22.7459768     527.9189     71.92934      1.787     6.60     5.293452     20.29862     39.03457        12     1.147     1.066  13.35   0
        83    232.9898    745.8703 300.0149917 +22.6755236     840.4154     71.92934      1.776     4.18     5.557261     20.29862     68.00607        14     1.146     1.022  13.19   0
        84    526.4065    743.3101 300.1071520 +22.7627519     342.6267     71.85598      1.522     3.44     5.166245     20.29862     35.15779         5     0.750     0.457  72.33   0
        85    478.5682    740.6143 300.0931297 +22.7476398     845.3591     71.94767      1.592     3.66     5.346378     20.29862     92.49441        18     1.236     0.947 -81.47   0
        86     37.7224    741.4495 299.9557147 +22.6156876     522.4378     71.94767      1.664     4.14     4.884273     20.29862     43.54094         7     1.032     0.475   9.33   0
        87    879.7692    738.1075 300.2189857 +22.8671216     559.2463     71.89267      1.856     5.38     5.145095     20.29862     42.74261        10     1.275     0.641 -10.10   0
        88    380.2887    737.2339 300.0636310 +22.7172092     432.4065     71.92934      1.685     4.24     5.311846     20.29862     42.96058         7     0.885     0.606 -54.85   0
        89    424.3542    735.7265 300.0778379 +22.7299860     597.5959     71.94767      1.994     5.18     5.194566     20.29862     45.63298        10     0.974     0.868  39.79   0
        90     66.2766    735.2981 299.9665881 +22.6224884     664.4172     72.09413      1.817     5.17     5.179768     20.29862      49.7818        10     1.193     0.727 -47.34   0
        91    632.4639    734.9552 300.1429068 +22.7921339     405.7953       71.966      2.063     5.17     4.935695     20.29862     37.85372         8     1.111     0.680 -34.31   0
        92    230.7467    729.7854 300.0195198 +22.6702342     571.0806       71.966      1.843     6.70     5.555729     20.29862     48.55564        12     1.241     1.016  52.40   0
        93    554.0271    720.7358 300.1230896 +22.7645456     476.5272     71.94767      1.480     4.61     5.167044     20.29862     48.54977         9     1.121     0.575   4.52   0
        94    523.2075    719.0459 300.1140390 +22.7548242      748.522       71.966      1.743     4.55     5.265609     20.29862     54.73009        12     1.089     0.823 -46.25   0
        95    560.4632    718.6088 300.1257855 +22.7658633     199.8353     71.91101      1.546     5.58     5.166346     20.29862     27.52374         5     1.282     0.684  42.86   0
        96    433.1145    718.2405 300.0862462 +22.7275907     283.1416     71.92934      1.343     2.41     5.309731     20.29862     43.58139         6     0.727     0.550  44.72   0
        97    939.8666    715.4527 300.2450960 +22.8786059     4598.598       71.966      1.818     4.04     5.129896     20.29862     329.9106        38     1.387     1.371  85.18   0
        98    545.3906    716.1510 300.1218889 +22.7606406     1339.267       71.966      1.640     3.45     5.214695     20.29862     131.4638        22     1.211     1.089   9.11   0
        99    465.1714    716.0848 300.0969277 +22.7365801     256.1568     71.94767      1.337     4.45     5.372464     20.29862     42.54593         8     1.040     0.781  28.22   0
       100    626.9210    710.8472 300.1490122 +22.7835472      390.007     71.94767      1.482     3.97     5.124145     20.29862      33.1251         6     0.773     0.582  44.74   0
       101    928.3099    706.8961 300.2442702 +22.8726856     1758.742      72.1307      1.847     4.03     5.220687     20.29862     116.1691        27     1.346     1.210  87.69   0
       102    291.3003    700.2683 300.0479469 +22.6799177     955.8102     72.03925      1.799     4.04     5.494894     20.29862     86.08165        17     1.190     1.029  -8.18   0
       103    754.7823    698.1160 300.1930008 +22.8181934     2513.152     71.91101      1.654     3.50     5.203441     20.29862     220.4792        33     1.507     1.201  13.13   0
       104    959.4775    696.8812 300.2572491 +22.8791386     1714.433     72.05754      1.943     4.74     5.048103     20.29862     116.1454        30     1.495     1.372 -14.11   0
       105    140.1402    684.7351 300.0059761 +22.6301329     659.1342     71.98431      1.693     4.52     5.529095     20.29862     59.57296        10     1.160     0.666 -22.81   0
       106    837.1337    683.9891 300.2232697 +22.8387978     715.3369     71.92934      1.922     4.56     5.286077     20.29862     50.40845        12     1.092     0.813  34.16   0
       107    873.1154    674.9754 300.2374209 +22.8469819     148556.2     71.91101      1.714     3.52     5.310623     20.29862     10927.62       160     1.568     1.521 -71.00   0
       108    635.6461    678.6674 300.1621849 +22.7769161     330.4965     71.92934      1.527     5.23     5.371905     20.29862     37.97065         8     1.066     0.725 -24.42   0
       109   1020.0615    676.6436 300.2827315 +22.8914573     1311.603     71.11823      1.999     4.88      4.60533     20.29862     79.56819        24     1.333     1.256   0.09  16
       110    725.5155    675.4403 300.1912431 +22.8029106     827.5767     71.91101      1.923     3.82     5.255054     20.29862     72.00582        17     1.135     1.098  29.16   0
       111    905.8527    667.6142 300.2500248 +22.8546684     387.9949     71.98431      1.775     5.71     5.349656     20.29862     28.72443         9     1.050     0.876  86.12   0
       112    559.3991    663.6789 300.1432979 +22.7497653     1647.459     71.83763      1.547     2.90     5.476845     20.29862     196.8962        22     1.150     1.109  84.26   0
       113    740.5757    661.0707 300.2006056 +22.8032920     9324.414       71.966      1.591     3.28     5.293309     20.29862     830.5867        41     1.282     1.243  84.09   0
       114    242.0474    655.8936 300.0470374 +22.6524116     4851.731       71.966      1.651     3.27     5.517215     20.29862     542.7308        33     1.308     1.246  36.53   0
       115    324.1344    654.1110 300.0731562 +22.6765088     1118.643     72.05754      1.610     3.52     5.551193     20.29862     113.3457        19     1.200     1.033 -56.48   0
       116    201.8450    652.2842 300.0357047 +22.6393217      1100.15     71.92934      1.278     5.50       5.5071     20.29862     227.2269        12     1.418     0.602  14.64   0
       117    532.4524    649.7824 300.1394178 +22.7376991     677.3675     71.92934      1.589     2.83     5.531267     20.29862     92.50692        13     0.995     0.848  19.05   0
       118    524.0450    641.8033 300.1393907 +22.7328877      3157.01     71.94767      1.486     2.98     5.557328     20.29862     336.5142        28     1.168     1.136  49.38   0
       119    514.1240    635.4957 300.1383493 +22.7281030     1393.272     72.09413      1.521     2.92     5.580124     20.29862     168.8107        22     1.202     1.037 -12.15   0
       120    907.8853    633.3918 300.2617748 +22.8454379      387.164     71.89267      1.501     4.90       5.5306     20.29862     47.82854        11     1.159     0.903  31.55   0
       121    443.6746    634.6342 300.1166911 +22.7067446     298.6822     71.92934      1.535     3.76      5.61325     20.29862     44.66954         5     1.014     0.401  16.63   0
       122    177.7175    631.2584 300.0350292 +22.6260517     701.8988     72.02094      1.881     6.07     5.508508     20.29862      58.5439        16     1.677     0.923 -72.45   0
       123    192.2057    630.0913 300.0399140 +22.6300607     607.5442     71.85598      1.515     3.65     5.502577     20.29862     58.03821        13     1.139     0.783 -64.96   0
       124    217.7667    627.0568 300.0488496 +22.6368533     526.4938       71.966      1.566     3.44     5.490228     20.29862     67.90437        12     1.113     0.802  46.68   0
       125    961.0919    627.0332 300.2804416 +22.8595386      361.588     71.91101      1.608     5.31     5.484839     20.29862      34.9401         7     1.093     0.728  -5.17   0
       126    439.0537    625.3009 300.1182835 +22.7026790     1795.418     72.03925      1.528     3.10     5.643825     20.29862     166.4896        22     1.114     1.094 -46.11   0
       127    248.9730    627.1205 300.0585362 +22.6462274     400.4707     71.94767      1.588     4.91     5.511161     20.29862     34.14787         7     1.091     0.626 -10.65   0
       128    538.2411    625.5989 300.1490751 +22.7324861     522.5735     71.94767      1.545     4.73     5.609485     20.29862     54.74879         8     0.956     0.664  59.05   0
       129     92.9658    619.9062 300.0123636 +22.5973796     20276.68     71.91101      1.866     3.59     5.579323     20.29862     1845.948        74     1.595     1.513  53.33   0
       130     13.6882    621.6755 299.9871480 +22.5741116     874.0746     72.07584      2.306     6.18     5.671232     20.29862     59.73471        13     1.287     1.031  10.91   0
       131    523.9629    620.4981 300.1462843 +22.7267427     1003.566     71.94767      1.514     3.33     5.629014     20.29862     102.1022        16     1.105     0.929  81.01   0
       132    559.2719    619.8759 300.1574847 +22.7371430     406.7242     72.03925      1.289     2.60     5.605388     20.29862     55.23272         6     0.756     0.516 -48.56   0
       133    895.2110    616.7757 300.2632172 +22.8368658      314.871     71.94767      1.435     3.99      5.61272     20.29862     29.33304         6     0.795     0.572 -44.04   0
       134    277.3391    611.9944 300.0722730 +22.6503880     374.2241     71.89267      1.742     5.28     5.537459     20.29862     33.48152         8     1.137     0.693   5.91   0
       135    606.6211    609.1434 300.1757214 +22.7482444      280.304       71.966      1.632     4.46     5.543659     20.29862     28.78634         5     1.147     0.493 -35.39   0
       136    942.1502    607.0024 300.2810363 +22.8481082     1099.918     71.94767      1.591     3.70     5.650571     20.29862     86.14973        19     1.216     1.020   5.20   0
       137     39.0318    604.4301 300.0006242 +22.5767635     1630.651     71.94767      2.096     4.86     5.668938     20.29862     118.5194        31     1.581     1.312 -71.78   0
       138    808.7979    605.0679 300.2400663 +22.8076262     456.7496     71.92934      1.640     5.34     5.556755     20.29862      39.1207        10     1.056     0.762  87.48   0
       139   1014.7920    622.7399 300.2985955 +22.8743787     830.1691     71.91101      1.728     6.18     5.414992     20.29862     74.18974        16     1.413     0.993 -52.31  16
       140    487.4507    601.4344 300.1411037 +22.7103259     428.3694       71.966      1.496     3.46     5.717184     20.29862     52.12265         8     0.933     0.653   0.40   0
       141    280.0219    600.7422 300.0767615 +22.6479612     254.1026     71.94767      1.326     4.70     5.502041     20.29862     33.80283         5     0.927     0.675  27.33   0
       142    882.2285    599.8918 300.2646503 +22.8281245     709.5224     71.91101      1.696     4.17     5.636801     20.29862     71.22327        15     1.168     0.982  13.70   2
       143    878.2375    599.6487 300.2634843 +22.8268597      361.809       71.966      1.689     3.02     5.635506     20.29862     45.66567         5     0.762     0.603  77.25   3
       144    626.6597    597.4527 300.1857616 +22.7508878     244.9587     72.00262      1.678     4.19     5.580293     20.29862     29.78199         5     0.989     0.506  44.00   0
       145    444.0840    593.3842 300.1302139 +22.6950187     794.3981     71.91101      1.654     3.15     5.752906     20.29862     79.96127        13     1.031     0.878 -17.80   0
       146    592.2126    592.0206 300.1767924 +22.7390080     538.1778     71.92934      1.446     3.34     5.654898     20.29862     73.02874        12     1.006     0.885 -86.32   0
       147    639.1900    590.7627 300.1918385 +22.7527187      537.679     71.94767      1.402     4.02     5.600518     20.29862     76.66367         6     1.024     0.451 -24.34   0
       148    610.0721    590.2543 300.1829304 +22.7438505     536.1916     71.94767      1.366     3.43     5.601093     20.29862     58.73993        10     0.936     0.728  21.29   0
       149    488.3858    589.0477 300.1454170 +22.7070477     873.9779       71.966      1.568     3.79     5.796719     20.29862      100.907        15     1.176     0.878  58.71   0
       150    922.1685    585.0606 300.2819269 +22.8358170      3314.37     71.98431      1.632     3.41     5.642076     20.29862     285.0655        31     1.276     1.231  -0.78   0
       151    453.8268    584.7170 300.1360617 +22.6954485      1767.57     71.94767      1.522     2.96     5.795253     20.29862      196.058        23     1.269     1.028 -22.96   0
       152   1020.1731    583.2177 300.3131101 +22.8646226      610.293     70.95117      1.830     6.06      5.63354     20.29862     50.71978        15     1.369     0.944 -63.81  16
       153    819.6878    582.0475 300.2509378 +22.8042690     166.9428     71.92934      1.223     3.35     5.541854     20.29862     39.43824         5     0.983     0.552  15.22   0
       154     15.7427    578.1021 300.0019343 +22.5622232     5143.591     72.03925      1.909     3.82     5.717769     20.29862     422.7454        44     1.508     1.457 -16.76   0
       155    483.0097    575.4373 300.1481621 +22.7015268     328.1194       71.966      1.477     5.38     5.881227     20.29862     37.14286         8     1.183     0.691 -73.86   0
       156    961.7652    575.1861 300.2974889 +22.8448305     262.6242     71.94767      1.221     4.01     5.641494     20.29862     38.46998         6     0.774     0.595 -42.47   0
       157    317.2618    571.3409 300.0978952 +22.6506805     9283.879     72.00263      1.621     3.10     5.400464     20.29862     1006.875        48     1.330     1.306  87.02   0
       158    439.7266    568.5027 300.1369360 +22.6865656     8946.703     72.07584      1.537     2.90     5.851339     20.29862     1047.831        39     1.272     1.168  82.06   0
       159    686.0822    564.7523 300.2148982 +22.7592882     293.7866       71.966      1.596     3.39     5.682883     20.29862     40.67413         6     0.989     0.617  51.43   0
       160    851.5412    562.5929 300.2671895 +22.8082126     2197.476     71.92934      1.795     3.55     5.530345     20.29862     178.2382        27     1.364     1.116  70.56   0
       161    936.0865    560.0696 300.2943843 +22.8327967      12748.9     72.05754      1.629     3.33      5.64119     20.29862      1089.32        56     1.410     1.358 -85.85   0
       162    500.3201    558.0809 300.1591881 +22.7017267     11601.81     72.07584      1.481     2.81     6.029466     20.29862      1194.67        46     1.267     1.211  71.18   0
       163    669.8784    553.9254 300.2133632 +22.7513234     532.4982     72.05754      1.474     3.92     5.718157     20.29862     56.71324        10     0.981     0.701  58.03   0
       164    227.8504    553.4183 300.0758959 +22.6187336     1411.644     71.94767      1.573     3.27     5.266547     20.29862       142.39        21     1.137     1.073 -37.54   0
       165    385.6989    553.0785 300.1251241 +22.6659453     505.2054     72.07584      1.741     4.94     5.640286     20.29862     38.95243         9     0.949     0.728  15.78   0
       166    474.4335    551.0435 300.1534113 +22.6919491     343.0403     72.00262      1.445     4.30     6.011167     20.29862     40.85053         7     0.851     0.726 -26.18   0
       167    431.9764    546.2303 300.1417540 +22.6778452      4476.56     71.94767      1.505     3.00     5.924871     20.29862     438.9593        33     1.242     1.167  78.88   0
       168    774.8953    546.4245 300.2485361 +22.7806157     783.0199     71.83763      1.527     3.35     5.591291     20.29862     88.34789        16     1.064     1.023 -72.38   0
       169    410.3730    544.6702 300.1355347 +22.6709238     1388.627     71.94767      1.589     2.79     5.831331     20.29862     154.1588        23     1.292     1.056  24.62   0
       170    851.8052    541.9648 300.2739692 +22.8023604     1670.375     71.94767      1.683     3.65     5.513135     20.29862     133.9829        22     1.224     1.076 -72.56   0
       171    164.7406    543.9766 300.0593326 +22.5971039     648.8177     71.94767      1.618     5.75     5.357596     20.29862     62.13298        12     1.114     0.909 -45.02   0
       172    548.6415    533.8511 300.1821048 +22.7092408       207318     71.94767      1.512     2.88     6.256227     20.29862     24213.14       191     1.515     1.432 -26.11   0
       173    372.8287    540.3889 300.1252375 +22.6584436     384.3291     71.94767      1.372     2.10     5.557505     20.29862     56.39776         5     0.664     0.476 -12.91   0
       174    732.5634    538.8706 300.2377903 +22.7657684     731.7808     71.94767      1.358     2.93     5.741705     20.29862     102.9936        15     1.036     0.873 -51.39   0
       175    936.4462    536.6312 300.3021064 +22.8261638     195.6336     71.98431      1.629     3.45      5.67021     20.29862     31.05869         5     1.080     0.318  68.29   0
       176    234.6679    533.6813 300.0844238 +22.6151097     3623.184     72.05754      1.650     3.32      5.23554     20.29862      364.595        35     1.327     1.233  45.11   0
       177    801.8643    534.9749 300.2606630 +22.7853989     334.3661     71.92934      1.605     3.94     5.534951     20.29862     30.62489         5     0.857     0.518  32.20   0
       178    800.6768    530.2607 300.2618231 +22.7836879     529.4423     72.00263      1.784     3.87     5.556342     20.29862      45.8217         9     0.925     0.672  19.77   0
       179    439.1335    514.4189 300.1543090 +22.6708506     2902.816     71.92934      1.546     2.92     6.052513     20.29862     314.9349        31     1.521     1.124 -79.87   0
       180    283.3947    516.3796 300.1051993 +22.6247456     472.8524     71.92934      2.037     5.45     5.231647     20.29862     44.21812        11     1.323     0.952   2.08   0
       181    888.8818    514.7279 300.2943772 +22.8056273     207.1305     72.07584      1.433     4.66     5.752352     20.29862     35.11598         5     0.988     0.623  32.89   0
       182    850.6536    510.7891 300.2837309 +22.7930511     303.1899     71.94767      1.263     3.49     5.747176     20.29862     44.40471         8     1.023     0.631   3.82   0
       183    669.7690    510.3644 300.2274706 +22.7387698     250.6256       71.966      1.200     3.44     5.774632     20.29862     39.32855         5     0.730     0.469 -11.30   0
       184    868.2357    505.5586 300.2909131 +22.7968101     137.5755     72.00262      1.167     5.13     5.818747     20.29862     38.01164         5     1.483     0.501  50.76   0
       185    756.4617    503.2242 300.2568128 +22.7626764     437.9642     71.94767      1.294     2.71     5.723768     20.29862     53.12074         6     0.721     0.610 -47.53   0
       186    836.2369    500.5090 300.2825713 +22.7857792     1771.796     71.92934      1.549     3.10     5.781133     20.29862     175.3662        23     1.257     1.045 -70.62   0
       187    707.4946    498.0416 300.2432294 +22.7465245     2649.695       71.966      1.486     2.88     5.754304     20.29862     275.5453        26     1.146     1.103  81.71   0
       188    952.1056    495.8207 300.3202411 +22.8191130     417.3295     71.87433      1.490     3.95     5.808196     20.29862     56.64468        10     1.118     0.695 -26.60   2
       189    950.4373    491.2051 300.3212187 +22.8172860     627.9126     71.98431      1.553     4.82     5.829527     20.29862      71.2303        13     1.145     0.894  53.92   3
       190    612.1297    494.9945 300.2144975 +22.7170901     531.1332     71.91101      1.848     4.28     6.181618     20.29862     47.31426        10     1.020     0.870   1.13   0
       191    916.7091    494.9784 300.3094698 +22.8082767     168.7164     71.87433      1.495     4.82     5.864566     20.29862     37.67924         7     1.109     0.594  70.52   0
       192    494.8631    493.8927 300.1783254 +22.6816488     674.3891     72.05754      1.481     3.19      6.25396     20.29862     91.09962        15     1.058     0.964   7.81   0
       193    965.0024    492.2075 300.3254386 +22.8219334     1241.671     71.76418      1.548     3.46     5.797009     20.29862     136.3487        21     1.197     1.042 -47.86   0
       194    836.6186    490.4970 300.2859402 +22.7830144     2233.184     71.85598      1.849     4.18     5.857314     20.29862      182.107        29     1.636     1.083  75.03   0
       195    589.8254    488.8498 300.2095425 +22.7086439     768.5505       71.966      1.475     3.39     6.299016     20.29862     82.81745         9     1.010     0.608  -8.01   0
       196    874.7072    485.6504 300.2993940 +22.7930220     4366.041     72.02094      1.595     3.07     5.973181     20.29862     432.9807        34     1.296     1.202 -85.97   0
       197    428.0111    487.5122 300.1595795 +22.6597879     403.7372     71.89267      1.483     3.71     6.115127     20.29862     41.74245         6     0.792     0.499   3.41   0
       198    375.4809    488.7367 300.1428292 +22.6444007     356.8294     72.05754      1.475     3.99     5.752697     20.29862     40.86997         6     0.934     0.633  -7.54   0
       199    515.5163    485.6695 300.1874267 +22.6854725     95.76695     72.05754      1.121     3.49     6.331473     20.29862     32.24262         5     1.069     0.329 -19.29   0
       200    535.2937    481.3180 300.1949992 +22.6901461     237.5092     72.11242      1.298     3.86     6.393982     20.29862     53.32275         6     0.814     0.524  41.13   0
       201    966.7809    476.4517 300.3311077 +22.8179335      729.925     71.92934      1.547     4.56     5.808085     20.29862     83.38487        14     1.260     0.939  -2.16   0
       202    106.7178    475.5727 300.0634932 +22.5600698     1088.757     71.94767      1.825     4.13     5.492157     20.29862     108.3171        20     1.383     1.080 -56.43   0
       203    372.7691    469.1137 300.1483537 +22.6379509     264.7165     71.92934      1.440     4.42     5.735045     20.29862     33.45321         6     0.994     0.560 -24.59   0
       204    962.7652    465.6667 300.3333549 +22.8136294     383.6209     71.94767      1.713     3.61     5.784557     20.29862     44.79332         5     0.957     0.463   5.92   0
       205     99.4147    465.4956 300.0644929 +22.5549872     421.2663     71.87433      1.547     3.49     5.500183     20.29862     59.69951         6     0.837     0.570 -36.64   0
       206    707.0189    460.2144 300.2553586 +22.7355071     410.2764     71.91101      1.390     3.01      5.76081     20.29862      50.2495         8     0.823     0.706  -1.34   0
       207    596.0311    457.8148 300.2215485 +22.7015823     424.6611     71.94767      1.687     4.25     6.265981     20.29862     38.02508         7     0.754     0.684 -39.44   0
       208    315.2742    458.3906 300.1339397 +22.6176430     262.5966     71.94767      1.391     3.40     5.494947     20.29862     30.63787         5     0.746     0.449  18.71   0
       209    648.3614    455.8689 300.2384864 +22.7166940     698.9735     71.91101      1.412     4.09     5.949754     20.29862     73.24097        14     1.090     0.919  67.68   0
       210    708.8954    448.5193 300.2597390 +22.7327065     807.7917     72.07584      1.358     3.38     5.761534     20.29862     94.16875        13     1.090     0.782 -51.56   0
       211    962.4366    448.7463 300.3387440 +22.8086636     576.8844       71.966      1.592     4.19     5.730975     20.29862     70.76119        12     1.258     0.891  63.22   0
       212    866.1535    444.7573 300.3099979 +22.7787008     960.2519     71.98431      1.388     2.92     5.993943     20.29862     110.6169        14     1.002     0.870  57.84   0
       213    850.4347    441.0237 300.3063064 +22.7729222     667.7369       71.966      1.477     3.11     5.941078     20.29862       63.567        12     0.961     0.912  54.91   0
       214    830.6825    441.3774 300.3000308 +22.7671117     269.7374     71.91101      1.325     4.15     5.875575     20.29862     39.53716         7     1.013     0.662  14.24   0
       215    594.7887    438.7964 300.2273332 +22.6957436     3308.984     71.76418      1.441     2.65     6.201429     20.29862     425.1277        27     1.179     1.017  67.85   0
       216    954.8381    438.2589 300.3397762 +22.8033729      488.063       71.966      1.370     2.84       5.7198     20.29862     64.77952         8     0.896     0.588   8.59   0
       217     71.2714    429.8627 300.0673063 +22.5363195     468.4148     71.98431      1.277     3.61     5.621148     20.29862     46.41455         8     1.021     0.527 -34.38   0
       218    434.5036    426.2034 300.1814970 +22.6441169      398.197     71.85598      1.440     2.77     5.794185     20.29862     54.94334         7     0.860     0.574 -15.42   0
       219   1006.1660    418.0413 300.3623562 +22.8129149     1317.603     72.00262      1.576     3.66     5.442979     20.29862      113.273        23     1.295     1.055  73.70   0
       220    964.4905    416.8877 300.3497235 +22.8001131     830.7501     72.11242      1.480     3.23     5.616404     20.29862     93.05096        15     1.012     0.951  84.77   0
       221    877.8636    418.1659 300.3222799 +22.7745572     526.9996     71.94767      1.415     3.25     5.929751     20.29862     57.79799         8     0.929     0.606  28.74   0
       222    614.7260    414.8784 300.2413065 +22.6948384     333.9112     72.05754      1.348     3.41     6.033875     20.29862     34.00926         5     0.972     0.345 -44.15   0
       223    501.1793    413.2801 300.2064530 +22.6603746     311.4957     71.92934      1.322     3.63      6.13272     20.29862     47.74357         8     0.891     0.750  74.93   0
       224    705.5496    412.7464 300.2703044 +22.7214192      1114.15     71.98431      1.446     2.95     5.767998     20.29862     135.1991        17     1.152     0.920 -19.70   0
       225    209.4536    411.0169 300.1163890 +22.5723246     733.2962     71.92934      1.635     2.93     5.545937     20.29862     85.58276        12     1.009     0.776 -35.66   0
       226     49.0191    409.1253 300.0671176 +22.5236947     348.7766     71.94767      1.522     5.66     5.720748     20.29862     32.52985         8     1.172     0.771  -5.77   0
       227    271.6893    406.5265 300.1372068 +22.5896844      3758.31     72.11242      1.556     2.71     5.731997     20.29862     470.5902        31     1.220     1.157  66.55   0
       228   1004.8797    405.4308 300.3660466 +22.8089017     4334.185     71.94767      1.646     3.05      5.45213     20.29862     444.5382        34     1.277     1.233   5.12   0
       229    218.8372    401.2029 300.1224919 +22.5723178     7659.208     71.98431      1.597     3.09     5.619594     20.29862     756.1691        41     1.347     1.257  54.58   0
       230    984.7958    396.4818 300.3626819 +22.8003178      1891.13     71.87433      1.630     3.40      5.51625     20.29862     180.0177        25     1.271     1.108 -57.53   0
       231    359.7053    395.4768 300.1681816 +22.6128805     4895.124     72.07584      1.521     2.70     5.704628     20.29862     620.6456        34     1.283     1.121  71.06   0
       232    603.9147    392.3618 300.2452436 +22.6851281     18552.65     71.92934      1.433     2.60     6.011607     20.29862     2403.269        51     1.268     1.170  88.15   0
       233    621.5214    392.4279 300.2507083 +22.6904190     849.3004       71.966      1.889     6.72     5.953346     20.29862     61.16387        15     1.516     0.835 -44.99   0
       234    231.7740    390.4047 300.1300193 +22.5730927     377.0758     71.91101      1.651     3.40     5.716598     20.29862     31.36509         5     1.150     0.291  54.23   0
       235    462.1972    389.1735 300.2021346 +22.6417707     351.8081     71.89267      1.595     3.61     5.902151     20.29862     30.80968         5     1.147     0.326 -10.05   0
       236    847.3632    388.7752 300.3223022 +22.7569751     227.1492       71.966      1.309     3.65     5.919716     20.29862     32.14453         5     0.944     0.406   6.49   0
       237    801.2708    382.9722 300.3098095 +22.7415108     386.9542     71.92934      1.452     4.91     5.794461     20.29862     47.73726         8     1.079     0.706  12.69   0
       238    223.8280    379.8053 300.1309861 +22.5676670     420.5926     71.92934      2.170     4.56     5.774274     20.29862     41.91292         6     1.087     0.544 -23.31   0
       239    937.6699    375.1132 300.3549084 +22.7800693     794.1795     72.05754      1.481     3.70     5.573613     20.29862     89.51509        14     1.103     0.896  -5.81   0
       240    474.6844    374.6387 300.2107385 +22.6413333      380.943     71.92934      1.596     2.57      5.93285     20.29862     40.74722         5     0.687     0.482  10.95   2
       241    158.5890    372.2303 300.1131525 +22.5459410     2024.987     71.94767      1.657     3.16     5.829002     20.29862     215.6997        26     1.288     1.124 -62.08   0
       242    544.6074    361.8184 300.2366756 +22.6585885     6554.094     71.91101      1.443     2.54     5.955411     20.29862      847.699        37     1.242     1.086  71.16   0
       243    958.2139    362.3663 300.3654547 +22.7825487     1172.868     71.92934      1.487     3.79     5.514329     20.29862     130.6426        18     1.178     0.998 -34.54   0
       244    259.4446    361.1948 300.1481033 +22.5729928     768.9802     71.94767      1.590     3.46     5.931006     20.29862     80.70655        11     1.061     0.808  11.82   0
       245    804.2911    353.9556 300.3201651 +22.7340689     391.3282     71.92934      1.391     2.37     5.820839     20.29862      47.4243         7     0.710     0.634  83.09   0
       246    117.1469    354.6171 300.1059793 +22.5284624     430.5627     71.92934      1.360     3.86     5.831156     20.29862     57.76327         6     0.963     0.444 -13.34   0
       247    748.7135    350.8891 300.3038295 +22.7165523     1178.823     72.11242      1.494     3.25     5.812482     20.29862     119.2856        17     1.107     0.926  52.62   0
       248    658.4478    351.9602 300.2753443 +22.6898395     477.3006     71.98431      1.287     2.95     5.804002     20.29862     62.99702         9     0.810     0.772 -18.73   0
       249    451.2821    348.0075 300.2120902 +22.6266701     6298.472     71.87433      1.435     2.78     5.851096     20.29862     699.5787        38     1.264     1.135  73.40   0
       250    940.2853    342.7412 300.3662264 +22.7715379     697.0654     72.05754      1.508     4.06      5.47753     20.29862     65.36127        15     1.184     0.893  64.47   0
       251    843.3201    342.4009 300.3360859 +22.7424255     1432.343     71.83763      1.605     2.87     5.844227     20.29862     171.8977        20     1.200     1.050 -71.91   0
       252    435.8325    336.7613 300.2109276 +22.6188107     400.9773     71.98431      1.348     2.53     5.840802     20.29862     73.95285         9     0.861     0.704 -81.44   0
       253    518.8328    334.4435 300.2375269 +22.6430009      425.199     71.98431      1.477     2.65      5.86693     20.29862      51.4555         6     0.727     0.626  73.39   0
       254    499.2580    332.7925 300.2319657 +22.6366646     303.3256     71.92934      1.100     2.98     5.865497     20.29862     51.03738         7     0.831     0.762  38.19   0
       255    815.7604    330.5656 300.3313293 +22.7307733     566.3549     71.98431      1.325     3.29     5.736274     20.29862     72.05466         7     0.932     0.485   7.30   0
       256    338.8020    327.1310 300.1838462 +22.5869799     2531.737     71.91101      1.451     2.77     5.925876     20.29862     295.4815        25     1.218     1.045  82.42   0
       257     57.1355    324.4050 300.0971218 +22.5017999     1119.175     71.92934      1.922     3.95      5.78207     20.29862     122.5225        19     1.275     1.076  33.71   0
       258    686.3516    322.2921 300.2936648 +22.6896613     309.5336     71.98431      1.320     2.66     5.784402     20.29862     42.52135         5     0.727     0.441  71.54   0
       259    286.3601    320.7679 300.1695904 +22.5694417      187.085     71.98431      1.118     3.16     5.992595     20.29862     31.70893         5     0.741     0.444 -72.01   0
       260    308.0973    316.5511 300.1777221 +22.5747419      30252.9     72.00262      1.526     2.80     5.969638     20.29862     3367.569        67     1.399     1.252  68.07   0
       261    842.7493    314.4323 300.3449799 +22.7342088     1394.764     71.98431      1.400     2.86         5.66     20.29862     164.5029        16     1.023     0.957 -78.14   0
       262    798.3910    312.6718 300.3317164 +22.7204280     175.2442     71.92934      1.249     4.03     5.644944     20.29862     34.84268         6     0.889     0.523  49.16   0
       263      4.4118    304.1371 300.0873078 +22.4801769     4996.657     69.80838      1.830     3.75      5.78207     20.29862     519.0961        46     1.515     1.380  65.61  24
       264    758.4052    303.3833 300.3222604 +22.7057895     666.8522     71.91101      1.490     2.92     5.741334     20.29862     80.13693        12     0.991     0.806 -50.96   0
       265    182.1965    302.7967 300.1430148 +22.5330707     490.9396     71.72742      1.919     4.93     6.003533     20.29862     55.56516         6     1.128     0.609  56.78   0
       266    406.5774    302.0678 300.2130716 +22.6000774      532.475     71.94767      1.516     3.26     5.888107     20.29862      60.7989        10     0.933     0.777 -13.41   0
       267    718.5598    296.4612 300.3120827 +22.6918730       1933.4     71.94767      1.505     2.67     5.803648     20.29862     248.9056        20     1.171     0.941  82.93   0
       268    933.6853    289.4252 300.3814602 +22.7542221     631.7503     71.91101      1.669     3.43     5.393243     20.29862     69.56005        13     1.104     0.812 -59.88   0
       269    380.2538    280.9454 300.2117268 +22.5861227     2184.952     71.98431      1.611     3.34      5.90352     20.29862     233.4531        29     1.513     1.082  81.33   0
       270    592.5297    279.8721 300.2781841 +22.6493768     328.0033     72.02094      1.434     4.95     5.814856     20.29862     42.09969         9     0.930     0.745  64.73   0
       271    811.9756    274.8778 300.3482102 +22.7136209     362.1698       71.966      1.494     4.30     5.521047     20.29862     48.78262         7     1.059     0.513 -57.32   0
       272    819.5707    274.2170 300.3507932 +22.7157035     597.9893     71.94767      1.430     3.20     5.514457     20.29862      71.4942        11     0.983     0.718 -11.12   0
       273    719.4626    272.0678 300.3202750 +22.6851271     266.2555     72.00262      1.179     3.17     5.849432     20.29862      43.7857         6     0.909     0.507  16.80   0
       274    701.7039    272.3535 300.3146463 +22.6798942     403.1131       71.966      1.279     3.60     5.826519     20.29862     49.35558         7     0.975     0.593 -26.01   0
       275    670.2898    270.9088 300.3053230 +22.6700761       258.47     72.11242      1.174     2.62     5.790084     20.29862     47.92774         7     0.801     0.597  67.42   0
       276    456.3421    260.4633 300.2420577 +22.6030212     1243.017     72.00262      1.412     2.61     5.824241     20.29862     147.7092        18     1.121     0.949  70.72   0
       277     28.7830    260.7375 300.1089549 +22.4750176     319.2879     71.92934      1.257     3.64     5.767414     20.29862     36.76295         5     1.299     0.294  59.65   0
       278    968.0681    256.6625 300.4028146 +22.7550792     410.4143     72.00262      1.685     3.32     5.383294     20.29862       45.971         5     0.782     0.409 -20.83   0
       279    839.2552    254.1334 300.3634454 +22.7158152     415.3907     72.00262      1.682     3.54     5.498806     20.29862     44.23278         6     0.774     0.548  37.95   0
       280    701.0635    252.2923 300.3209519 +22.6739323     2198.873     72.05754      1.447     2.72     5.862844     20.29862     281.3396        22     1.155     0.999  89.60   0
       281    962.4681    246.8713 300.4042419 +22.7505862     3171.738     71.98431      1.580     3.20     5.385049     20.29862     293.6687        34     1.332     1.198 -83.67   0
       282   1023.4454    241.8655 300.4248972 +22.7673838     381.9756      57.2522      1.401     4.94     5.367198     20.29862     42.76508         7     1.035     0.668 -85.63  24
       283    409.1675    235.9654 300.2353126 +22.5818526     679.5169     71.98431      1.520     4.35     5.830765     20.29862     82.91986        15     1.270     0.999   7.60   0
       284     84.4218    230.2170 300.1361453 +22.4829242     1520.361     71.92934      1.894     3.89     6.016059     20.29862      134.988        20     1.361     0.933 -43.07   0
       285    115.0541    230.2231 300.1456672 +22.4921044     477.7552       71.966      1.390     3.05     6.094328     20.29862     60.01652         8     0.829     0.642  42.60   0
       286    978.1678    227.5592 300.4154035 +22.7497239     481.6104     72.00262      1.549     4.03     5.380367     20.29862     57.62679         9     1.045     0.672 -44.36   0
       287    822.0425    224.2533 300.3677653 +22.7020679     346.6654     71.94767      1.414     4.67     5.517204     20.29862     41.94218         9     1.105     0.711  46.10   0
       288    168.6028    222.4259 300.1648468 +22.5059077     446.7686     71.89267      1.203     2.38     6.162202     20.29862     76.45242         8     0.899     0.563 -46.67   0
       289    963.5038    220.2582 300.4131942 +22.7432364     301.8891     72.02094      1.175     2.34     5.416835     20.29862     46.19928         5     0.693     0.454 -66.34   0
       290    844.2958    216.1216 300.3773426 +22.7063860     197.9355     72.05754      1.345     4.60     5.536787     20.29862     35.07279         7     1.061     0.565  22.03   0
       291    772.6257    214.0296 300.3556691 +22.6843405     683.6218     71.94767      1.568     3.33      5.77983     20.29862     77.43587        14     1.075     0.942 -47.34   0
       292    363.3447    213.5592 300.2283122 +22.5616898     255.7055     71.92934      1.103     3.39     5.875777     20.29862     43.25985         5     0.720     0.467 -18.00   0
       293    863.4559    207.1889 300.3862153 +22.7095476     247.1928     71.92934      1.163     2.87     5.567638     20.29862     41.92215         5     0.726     0.451  68.10   0
       294    870.9781    202.9095 300.3899492 +22.7105664     2088.407     71.87433      1.485     2.98     5.581312     20.29862     240.6609        27     1.223     1.118  67.14   0
       295    289.5106    200.0041 300.2097280 +22.5356816     2266.616     71.85598      1.540     2.93     6.060939     20.29862     257.0035        25     1.193     1.092 -13.41   0
       296    367.2110    195.0036 300.2355310 +22.5575138     1064.423     71.78255      1.695     3.77     5.846237     20.29862     84.01157        18     1.182     1.026  82.08   0
       297    119.6158    195.7913 300.1582474 +22.4835791      373.622     71.87433      1.548     4.85     6.311204     20.29862     39.11759         6     0.908     0.733 -88.78   0
       298    769.3236    194.8389 300.3608609 +22.6778311     639.0237     71.92934      1.500     3.01     5.851877     20.29862     68.46251        10     0.901     0.753  43.31   0
       299    876.0858    191.8593 300.3951250 +22.7089144     336.0282     72.05754      1.334     4.78     5.634212     20.29862     40.99829         7     1.021     0.636  66.69   0
       300    183.8869    187.3690 300.1809646 +22.5004133     721.9481     71.92934      1.498     4.38     6.306828     20.29862     67.51611        12     1.080     0.838  52.97   0
       301    177.4686    199.7374 300.1749591 +22.5020446     136.8759     72.00262      1.456     5.10     6.269579     20.29862      31.5407         5     1.332     0.552 -45.19   0
       302    787.1245    184.2488 300.3698448 +22.6801101     566.9501     71.94767      1.406     3.30     5.776854     20.29862     68.01026        10     0.980     0.725  33.37   0
       303    722.1761    184.2548 300.3495920 +22.6606786     1702.372       71.966      1.421     2.79      6.04257     20.29862     212.4623        22     1.200     0.994 -66.26   0
       304    205.7753    180.7567 300.1899161 +22.5050698     540.1516     71.98431      1.376     2.98     6.231706     20.29862     68.45451         7     0.985     0.471 -24.25   0
       305    993.5021    176.9157 300.4366081 +22.7397326      945.382     72.11242      1.504     3.67     5.693028     20.29862     100.9757        19     1.189     1.074  73.56   0
       306    725.9117    176.0996 300.3534002 +22.6594502      736.377     72.11242      1.460     3.74     6.054526     20.29862     80.00138        16     1.201     0.937  18.82   0
       307    646.6988    175.0018 300.3290649 +22.6354301     1378.683     71.83763      1.501     2.94     6.052804     20.29862     139.4731        19     1.083     1.004 -64.41   0
       308    841.9498    166.6804 300.3926387 +22.6914568     1453.073       71.966      1.482     2.56     5.766152     20.29862     182.6797        18     1.073     0.911  49.12   0
       309    572.7965    166.7309 300.3087176 +22.6109328     935.3287     71.91101      1.423     2.70     5.886567     20.29862     126.0905        12     0.945     0.816  55.75   0
       310    900.5681    165.4167 300.4113347 +22.7086275     206.6706     71.92934      1.570     3.51     5.773868     20.29862     50.62996         5     1.041     0.415  36.87   0
       311    853.9555    165.8707 300.3966460 +22.6948152     856.7243     71.91101      1.503     3.02     5.770032     20.29862     111.0642        13     0.985     0.893 -20.16   0
       312   1014.9517    156.7099 300.4498531 +22.7403301     1771.424     71.94767      1.670     3.27     5.848198     20.29862      168.856        24     1.262     1.166 -46.11   0
       313    970.5836    155.9392 300.4362547 +22.7268401     1146.336     71.89267      1.708     4.95     5.859524     20.29862     102.1154        18     1.330     1.137  64.91   0
       314    204.8344    149.0334 300.1999053 +22.4956714     715.2624     72.02094      1.487     3.82     6.332839     20.29862     87.89177        12     1.225     0.759  55.55   0
       315     66.6730    143.2381 300.1588205 +22.4526189     2174.551     71.91101      1.773     3.56     6.527752     20.29862     241.4872        31     1.476     1.202  63.20   0
       316    889.8403    140.4861 300.4160684 +22.6982432     768.1157     71.92934      1.821     4.14     5.947714     20.29862     83.30812        15     1.295     1.049  54.21   0
       317    205.3229    138.3142 300.2035311 +22.4927371      301.466     72.05754      1.205     4.94     6.383199     20.29862     51.14635         8     1.204     0.648  25.34   0
       318    224.0889    136.7952 300.2098609 +22.4979211      5625.89     71.85598      1.590     3.11     6.308701     20.29862     562.7181        35     1.317     1.178  68.51   0
       319      8.0688    130.9964 300.1445717 +22.4315436      1365.44     71.91101      2.012     4.38     6.527219     20.29862     126.5517        29     1.521     1.323  29.32  16
       320    207.5659    127.5817 300.2077069 +22.4903244     843.9124     71.94767      1.985     3.72     6.419303     20.29862     71.91389        16     1.119     1.049  65.93   0
       321   1022.6984    124.6986 300.4626467 +22.7334303     15717.91     61.40795      1.542     3.88     6.244645     20.29862     1642.049        41     1.532     1.014  84.00  24
       322    868.2874    118.5686 300.4164479 +22.6854883     3557.435     71.92934      1.583     3.03     5.986063     20.29862     415.9093        34     1.365     1.145  76.67   0
       323    972.0054    117.5112 300.4491533 +22.7162026      2813.64     71.85598      1.553     3.05     6.321153     20.29862     325.9268        29     1.244     1.183 -28.24   0
       324    417.7522    113.6179 300.2776427 +22.5492477     741.9267     71.98431      1.514     3.84     5.709837     20.29862     84.26959        13     1.166     0.843  65.10   0
       325    531.5457    111.4726 300.3137758 +22.5826932     166.4532     71.94767      1.105     4.04     5.811086     20.29862     35.05319         5     1.203     0.388  34.51   0
       326    342.0176    105.7324 300.2566222 +22.5243062     638.9694     71.94767      1.621     3.64     5.928361     20.29862     67.03977        10     0.959     0.786 -19.46   0
       327    469.1121    100.9566 300.2977381 +22.5609814     1758.984     71.94767      1.483     3.44      5.71419     20.29862      172.428        21     1.139     1.016  88.80   0
       328    397.3235    101.6153 300.2751719 +22.5396806        406.5     71.94767      1.153     3.32     5.739927     20.29862     51.92567         7     0.823     0.659  65.62   0
       329    108.2093    102.6540 300.1848853 +22.4534009      497.373     71.94767      1.228     1.93     6.533697     20.29862     77.12376         5     0.663     0.464 -12.94   0
       330    530.7239    100.5165 300.3170702 +22.5792960     386.4029     72.03925      1.547     3.29     5.830513     20.29862     44.42517         6     0.897     0.645 -65.92   0
       331    212.7962     96.3857 300.2194427 +22.4829246     273.7682     71.80091      1.317     3.38     6.567915     20.29862     39.40483         5     0.762     0.433 -20.74   0
       332    757.2775     90.8576 300.3908061 +22.6443072     369.7534     71.98431      1.559     2.82     6.055495     20.29862     44.67898         5     0.716     0.655  25.48   0
       333    114.6639     86.6931 300.1920637 +22.4507477     355.9523     72.05754      1.299     3.02     6.503575     20.29862      47.7121         6     0.834     0.510 -44.14   0
       334    903.6207     85.6273 300.4381462 +22.6865737     359.9515     71.94767      1.287     2.93     6.353385     20.29862     53.50271         5     0.729     0.467  12.83   0
       335    243.0893     80.7110 300.2339453 +22.4874908     6027.794     72.11242      1.593     3.02     6.505775     20.29862     644.7651        39     1.396     1.230  70.00   0
       336    749.7676     81.3872 300.3915333 +22.6393352     403.4496     71.92934      1.380     4.49     6.143247     20.29862     56.71813         8     1.096     0.631 -80.65   0
       337     94.2606     80.5625 300.1877062 +22.4428745      802.466       71.966      1.868     3.44     6.521674     20.29862     74.21357        14     1.043     0.950   2.31   0
       338    872.2161     78.4461 300.4306754 +22.6751145     303.0454       71.966      1.380     3.18     6.060242     20.29862      44.7972         5     0.731     0.483  12.34   0
       339    718.9481     72.3950 300.3848381 +22.6275277     230.1713     71.92934      1.051     3.89     6.357415     20.29862     33.56746         5     0.893     0.485   4.51   0
       340      5.0601     71.2379 300.1629992 +22.4134740     545.8041     71.41424      1.648     2.77      6.52872     20.29862     51.66491         6     0.883     0.551 -63.29  16
       341    489.2327     66.1041 300.3152970 +22.5569801     6377.797     71.92934      1.500     2.85     5.782619     20.29862     736.2654        36     1.340     1.115  82.92   0
       342    374.7000     66.1763 300.2796118 +22.5227176     625.4883     71.89267      1.349     2.85     5.773753     20.29862     70.75538         9     0.870     0.660   8.53   0
       343    546.1777     61.3516 300.3345742 +22.5726555     337.8696     71.94767      1.284     3.00      6.26074     20.29862     49.52332         5     0.759     0.422  20.74   0
       344    509.8150     60.5718 300.3234999 +22.5615489     243.5514       71.966      1.031     3.52     5.964451     20.29862     32.57563         5     0.772     0.463  16.48   0
       345    683.7651     57.4864 300.3787008 +22.6127120     265.6719     71.92934      1.609     3.45     6.528224     20.29862     36.79974         5     0.772     0.445 -21.11   0
       346    741.8834     55.8595 300.3973462 +22.6296304     873.0944     72.03925      1.576     4.18     6.347089     20.29862     82.26248        16     1.300     0.941  49.05   0
       347    834.5477     55.2792 300.4264315 +22.6571801     441.8051       71.966      1.523     4.85     5.885146     20.29862     46.50004         9     1.170     0.637   1.58   0
       348    182.0486     50.2136 300.2248378 +22.4604452     549.7445     71.98431      1.613     4.74     6.186065     20.29862     54.48481        10     1.111     0.674 -63.80   0
       349    540.7701     48.1682 300.3371608 +22.5672449     363.4569     71.94767      1.459     5.25     6.352605     20.29862     60.83583         9     1.331     0.585  68.21   0
       350    617.5944     46.2278 300.3617254 +22.5896749     6258.475     71.94767      1.515     2.90     6.563105     20.29862     754.0483        37     1.329     1.147  80.61   0
       351    392.4661     45.3208 300.2918991 +22.5220387     1503.064     72.05754      1.470     2.63     5.753701     20.29862     173.9655        16     0.999     0.920  52.35   0
       352    658.7125     43.7423 300.3753450 +22.6012621      708.377     72.02094      1.409     3.56     6.562609     20.29862     84.06883        14     1.069     0.902  68.56   0
       353    674.3842     39.7407 300.3815260 +22.6047992      513.676     71.91101      1.411     2.96     6.562495     20.29862     76.15656         9     1.063     0.764  44.38   0
       354    944.7633     37.7163 300.4665074 +22.6850832     412.1355     71.92934      1.265     2.73     6.568227     20.29862     70.68341         9     0.878     0.722 -19.68   0
       355    141.4742     37.1660 300.2164458 +22.4445438     656.8375     71.92934      1.790     4.81     6.068668     20.29862     86.88271        15     1.391     1.133 -53.01   0
       356    983.3292     37.3145 300.4786735 +22.6964983     311.1999     72.05754      1.614     4.08     6.579519     20.29862     29.67344         6     0.945     0.504 -44.51   0
       357    713.2394     35.4325 300.3950337 +22.6151832     503.3226     71.98431      1.301     3.31     6.544861     20.29862     56.29616         7     0.892     0.642   1.97   0
       358    661.8033     31.1823 300.3803772 +22.5985727     2628.863     71.87433      1.485     2.74     6.566165     20.29862     337.0382        27     1.252     1.040  79.10   0
       359    677.1345     30.3235 300.3854340 +22.6029121     838.8604     72.03925      1.814     5.35      6.56653     20.29862     81.79128        17     1.494     0.871  39.77   0
       360    303.0493     32.1354 300.2683390 +22.4914790       380.87       71.966      1.394     2.93      5.79408     20.29862      76.1991        10     1.021     0.690   8.59   0
       361    748.3210     22.7991 300.4100638 +22.6220413     1558.846     71.83763      1.536     3.00     6.482378     20.29862     161.2058        22     1.177     1.072  75.82   0
       362    686.2691     16.2348 300.3928453 +22.6015905     670.9423     71.94767      1.311     2.56     6.589314     20.29862     84.09111        11     0.856     0.779  -3.78   0
       363    166.6057    996.7914 299.9127794 +22.7276026     2937.236     71.80091      5.682    24.09     81.75237     20.29862     65.94232       157     5.502     2.930  35.69  18
       364    291.8965   1011.8337 299.9468567 +22.7695099     1205.847     71.94767      2.602     4.96     6.871281     20.29862     76.21983        18     1.467     0.837  64.49   2
       365    126.8438   1007.4308 299.8969563 +22.7187217     1511.519     71.98431      3.297    12.40     90.96416     20.29862     58.00188        36     2.628     1.628 -32.41  18
       366    132.0000   1008.0417 299.8983606 +22.7204443     401.3146       71.966      2.084     3.73     91.86868     20.29862     37.44272         5     0.711     0.563  89.87   3
       367      1.6574   1009.2516 299.8574553 +22.6816701     709.9409     57.89344      3.605     4.29    -1.967495     20.29862     33.90583         5     1.223     0.428 -51.09  24
       368    162.3400    974.9141 299.9185680 +22.7200478     2137.579     72.05754     27.848    20.44     61.95721     20.29862     57.50684       104     5.512     2.106  67.14   3
