#   1 NUMBER                 Running object number                                     
#   2 X_IMAGE                Object position along x                                    [pixel]
#   3 Y_IMAGE                Object position along y                                    [pixel]
#   4 ALPHA_J2000            Right ascension of barycenter (J2000)                      [deg]
#   5 DELTA_J2000            Declination of barycenter (J2000)                          [deg]
#   6 FLUX_APER              Flux vector within fixed circular aperture(s)              [count]
#   7 FLUXERR_APER           RMS error vector for aperture flux(es)                     [count]
#   8 FLUX_RADIUS            Fraction-of-light radii                                    [pixel]
#   9 FWHM_IMAGE             FWHM assuming a gaussian core                              [pixel]
#  10 BACKGROUND             Background at centroid position                            [count]
#  11 THRESHOLD              Detection threshold above background                       [count]
#  12 FLUX_MAX               Peak flux above background                                 [count]
#  13 ISOAREA_IMAGE          Isophotal area above Analysis threshold                    [pixel**2]
#  14 A_IMAGE                Profile RMS along major axis                               [pixel]
#  15 B_IMAGE                Profile RMS along minor axis                               [pixel]
#  16 THETA_IMAGE            Position angle (CCW/x)                                     [deg]
#  17 FLAGS                  Extraction flags                                          
         1    519.0939     17.0213 300.3326281 +22.5431530     1165.097     72.38684      1.479     2.85     5.987377     20.44337      131.626        16     1.032     0.918 -59.14   0
         2     92.0854     17.2558 300.1997003 +22.4153635     628.6526     72.55293      1.857     4.24     5.691533     20.44337     62.85894        10     1.195     0.720 -36.20   0
         3    776.5415      8.6346 300.4155621 +22.6177738     67.93089     72.47916      0.997     3.28     6.458065     20.44337     38.95295         5     1.049     0.298 -22.09   0
         4    194.2260      5.0051 300.2354250 +22.4424366     3949.091     71.81182      1.664     3.12     5.866571     20.44337     400.4411        37     1.502     1.195  56.31  24
         5    762.4002      5.9069 300.4120374 +22.6127588     517.4276      72.3314      1.298     2.61     6.520952     20.44337     84.86444         9     0.845     0.713  -2.60  16
         6    520.0493      2.8162 300.3375279 +22.5393545     280.8087     64.24294      1.270     4.38      6.00244     20.44337     52.24197         9     1.125     0.680  62.91  24
         7    616.7878      2.4317 300.3677844 +22.5681938     243.5448     62.31976      1.396     4.70      6.58734     20.44337     32.79476         7     1.035     0.607  75.15  24
         8    194.7156    999.7438 299.9126464 +22.7280880     2622.309     72.55293      5.735    18.84     80.49854     20.44337     65.80403        84     4.835     2.041  19.10  18
         9    271.6209   1016.7714 299.9310215 +22.7560485     2734.369     72.46071      7.430    40.16     34.92883     20.44337     66.16827       241     8.628     5.188  54.96  27
        10    222.8142    987.6287 299.9253242 +22.7330468     4456.873     72.47916      9.364    39.18     65.59897     20.44337     88.34649       441     9.249     4.606 -86.14  19
        11    241.6235    986.3967 299.9315739 +22.7383379     6243.506     72.42379     11.290    46.73     49.76607     20.44337      110.681       633     9.921     6.434 -82.27  19
        12      4.2715    975.3311 299.8614014 +22.6639272     2007.818     69.92468     11.086    17.47    -12.78294     20.44337     57.54404        76     4.336     1.957  86.21  27
        13    146.5277    953.4733 299.9127166 +22.7003612     1180.564     72.51606      3.983     4.69     44.49355     20.44337     43.33356         5     2.751     0.227  73.94   3
        14    150.5577    953.7087 299.9138928 +22.7016381      1337.25     72.46071      6.901     8.24     46.22839     20.44337     54.49669        14     1.589     1.194 -61.00   3
        15    153.4037    956.5971 299.9138380 +22.7033202     1320.605     72.23889      5.870     8.78     49.14133     20.44337     42.81602        17     2.008     1.073 -68.96   2
        16    169.5172    957.8035 299.9184548 +22.7085018      1393.75     72.38685      4.493     8.29     49.84616     20.44337     45.79995        24     1.840     1.339 -37.65   2
        17    674.6975    955.3160 300.0764885 +22.8593151     6947.856     72.62663      1.933     4.34     4.690121     20.44337      396.043        49     1.562     1.426  30.55   0
        18    758.0000    989.1149 300.0914526 +22.8939887     480.0291      72.3314      1.582     3.72     4.639563     20.44337     40.86786         5     1.380     0.289 -90.00   2
        19    166.7350    955.7264 299.9182655 +22.7070714     1058.494     72.49761      2.793     3.53     48.83959     20.44337     48.07952         5     1.012     0.355 -43.08   3
        20    553.8726    949.2631 300.0408218 +22.8213514     521.7999     72.49761      1.810     4.98     4.566437     20.44337     36.20068         9     1.057     0.664  52.21   0
        21    266.0703    949.2579 299.9512569 +22.7350239     582.1873     72.47916      1.589     3.77     16.44023     20.44337     61.36703         8     0.948     0.688  22.78   0
        22    583.1459    945.8705 300.0510417 +22.8291555     1673.391     72.49761      1.925     4.85     4.616197     20.44337     131.1884        28     1.393     1.344 -88.32   0
        23    477.1630    942.4971 300.0191387 +22.7964061     1066.787     72.46071      1.856     4.21     4.574898     20.44337     88.23677        19     1.230     1.150 -89.82   0
        24    407.6021    940.4850 299.9981420 +22.7749659     6692.466     72.38685      1.855     4.08     4.943307     20.44337     454.6837        47     1.474     1.426  16.92   0
        25    755.5128    988.9200 300.0907408 +22.8931872     454.0324     72.62663      1.929     4.83     4.639563     20.44337     33.60408         8     1.486     0.444 -68.97   2
        26    656.2747    988.3461 300.0600038 +22.8632714     8743.075     72.47916      2.012     4.79     4.802086     20.44337     497.1308        48     1.630     1.453  17.25   3
        27    440.0865    927.0107 300.0126345 +22.7808435     370.0922     72.40532      1.648     5.05     4.772623     20.44337     37.88398         7     1.256     0.574   8.52   0
        28    661.9203    985.8513 300.0625743 +22.8642481     9418.944     72.46071      1.961     4.49     4.795413     20.44337     597.6597        51     1.543     1.456  35.17   3
        29    953.9299    919.3904 300.1752283 +22.9326850     2121.736     72.44225      2.016     4.67     4.984347     20.44337     118.9763        36     1.524     1.446  -5.68   0
        30    604.2003    916.8010 300.0670541 +22.8271258     369.0294     72.23889      1.517     5.20     4.610458     20.44337     30.74131         9     1.053     0.726 -18.51   0
        31    743.0458    908.9346 300.1128729 +22.8664890     779.9987     72.46071      2.207     8.19     4.710479     20.44337     50.05209        18     1.559     1.202  74.79   0
        32    777.5751    902.6086 300.1256927 +22.8750216     1050.273     72.46071      1.793     4.35     4.624356     20.44337     78.84921        23     1.296     1.190  14.14   0
        33    555.7311    903.2147 300.0563771 +22.8086945     218.1712     72.47916      1.326     4.65     4.581724     20.44337     35.74057         5     0.853     0.718  18.81   0
        34    261.8549    976.0515 299.9412308 +22.7414422     9628.105     72.49761     13.273    39.71     29.35576     20.44337     182.1715      1118    13.312     6.193  70.63  19
        35    799.8592    896.0675 300.1347666 +22.8798217     11549.19     72.49761      1.828     4.14     4.534944     20.44337     685.0623        49     1.470     1.382 -34.09   0
        36    992.0116    896.5607 300.1945341 +22.9375360     475.5185     72.44225      2.282     5.40     5.197339     20.44337     29.77187         6     1.424     0.578 -89.39   0
        37    845.2949    896.3147 300.1488520 +22.8935082     521.1772     72.64504      1.673     6.21     4.588381     20.44337     45.98486        10     1.221     0.887  44.70   0
        38    230.3609    894.6149 299.9579222 +22.7086399     975.8282     72.47916      7.109     7.32     9.247577     20.44337     30.63327         8     1.853     0.809  20.16   1
        39    111.3128    888.2630 299.9229773 +22.6710975     1196.386     72.57137      6.166     7.44     9.715574     20.44337     65.93774        19     1.514     1.382  50.63   0
        40    505.5358    884.3461 300.0468833 +22.7882292     376.8286     72.49761      1.631     5.18      4.61175     20.44337     43.94581         9     1.130     0.795  58.15   0
        41    852.2617    883.7805 300.1551006 +22.8919963     373.5281     72.44225      1.675     3.90     4.586674     20.44337     30.96814         5     0.915     0.476 -43.97   0
        42    188.8605    975.2199 299.9188035 +22.7193000     1444.672     72.40532      4.117    12.03     60.26776     20.44337     48.33034        24     3.487     1.156  22.15   2
        43    808.4198    878.1143 300.1432738 +22.8772319     1369.364     72.38685      1.789     4.28     4.492441     20.44337     92.94238        25     1.308     1.226 -20.49   0
        44    991.1215    877.3904 300.2004908 +22.9317625     407.7113     72.42379      1.831     7.89     5.112725     20.44337     35.53921        10     1.551     1.123 -16.64   0
        45    660.4175    875.3291 300.0980534 +22.8320750      634.114     72.47916      2.041     4.98     4.613873     20.44337     46.54455         8     1.001     0.701 -87.72   0
        46    846.4584    871.4995 300.1572847 +22.8867306     865.7148     72.55293      2.053     5.50     4.561149     20.44337     52.62386        15     1.223     0.949 -79.26   0
        47    954.7763    868.6766 300.1919853 +22.9183719     336.8479     72.47916      1.703     5.93     4.913217     20.44337     34.75729         7     1.239     0.798  49.71   0
        48    894.9045    863.2032 300.1750900 +22.8988632     738.5109     72.36837      2.138     5.81     4.701307     20.44337     40.09952        14     1.247     0.964   5.18   0
        49    746.4731    862.0706 300.1291809 +22.8540612     691.5344      72.5345      1.766     3.69      4.88074     20.44337      67.3404        12     1.056     0.859  63.67   0
        50    458.7687    858.1175 300.0408526 +22.7666794     4219.354     72.46071      1.684     3.52     4.822535     20.44337     350.7953        33     1.304     1.253 -23.97   0
        51    757.7989    858.9518 300.1337251 +22.8565599     710.0238     72.46071      1.840     5.35     4.806623     20.44337     53.50362        15     1.251     1.005  23.39   0
        52    502.0033    846.7040 300.0580229 +22.7763679     293.7236     72.36837      1.620     4.56     4.690346     20.44337     32.80487         5     1.245     0.475 -28.12   0
        53      7.0986   1008.7317 299.8514150 +22.6743476     2740.385     72.55293     13.622    47.70    -21.47165     20.44337     68.97908       580    11.113     5.683  87.78  26
        54    101.4434    845.7734 299.9337244 +22.6559533     279.9998     72.47916      1.452     3.45      5.93834     20.44337     33.42299         5     0.761     0.452 -70.33   0
        55    183.9052    843.6159 299.9600590 +22.6800767     714.2861     72.38685      1.800     4.01     7.538254     20.44337     73.68693        14     1.164     0.997 -31.23   0
        56    569.8130    992.8358 300.0316117 +22.8386340     2412.552     72.44225      1.996     4.93     4.653016     20.44337     152.5307        36     1.516     1.408 -11.85   0
        57    161.1358    840.6246 299.9539527 +22.6723875     1647.955     72.44225      1.861     3.96     7.916935     20.44337     162.3095        27     1.344     1.262  32.34   0
        58    190.1094    981.1849 299.9172515 +22.7213849     1365.446     72.38685      3.945     8.40     65.16287     20.44337     56.17617        23     1.871     1.268  64.18   3
        59    987.2265    828.5000 300.2151729 +22.9165505     2131.805     72.40532      1.913     4.57     5.072468     20.44337     137.9398        33     1.473     1.404  88.81   0
        60    770.4585    822.7043 300.1494564 +22.8499451     561.3836      72.5345      1.519     4.63     4.957032     20.44337     53.03821        10     1.157     0.641  28.38   0
        61    193.5201    822.1677 299.9700209 +22.6768100      460.132     72.46071      1.754     5.37     6.347164     20.44337     48.05668        10     1.113     0.976 -77.54   0
        62    638.8055    816.3220 300.1105055 +22.8086576      4777.21     72.36837      1.610     3.40     4.834425     20.44337     378.0717        35     1.283     1.214 -10.11   0
        63    949.2609    971.9662 300.1566695 +22.9463856      769.584     72.47916      1.964     6.67     5.019823     20.44337     41.21733        16     1.249     1.069 -48.14   0
        64    440.9930    812.8729 300.0500289 +22.7483660      526.497     72.40532      1.576     5.06      4.96355     20.44337     56.35882        11     1.218     0.887   8.27   0
        65    189.0986    809.8592 299.9726472 +22.6719534     1380.156     72.55293      1.825     3.81     5.829351     20.44337     122.5131        24     1.286     1.227  47.15   0
        66    659.4502    808.7709 300.1193921 +22.8126773     720.3859     72.47916      1.644     3.91     4.873657     20.44337       89.772        14     1.101     0.975  40.65   0
        67    208.6957    807.7117 299.9794386 +22.6772163     438.7986     72.64504      1.595     4.86     5.794594     20.44337     45.70124        11     1.050     0.928  59.79   0
        68    576.0920    799.5712 300.0964164 +22.7850510     319.6635     72.42379      1.517     4.65     4.816379     20.44337     33.99142         7     0.955     0.644 -52.15   0
        69    814.8208    796.0573 300.1719487 +22.8555846     4245.694     72.46071      1.697     3.64     5.068462     20.44337     297.1474        34     1.359     1.238  24.80   0
        70    545.9206    793.1006 300.0891236 +22.7741493     318.2217     72.58979      1.723     5.25      4.77548     20.44337     32.28436         5     0.904     0.861 -43.56   0
        71    223.4069    790.2201 299.9896986 +22.6766120     397.8413     72.42379      1.493     5.51     5.668056     20.44337     51.60806         9     0.946     0.931 -80.58   0
        72    531.6021    788.4011 300.0861925 +22.7685081     597.0757     72.23889      1.727     5.84     4.801705     20.44337     52.07229        14     1.277     1.000  15.68   0
        73    178.0338    786.3393 299.9768519 +22.6618882     1113.278     72.47916      1.829     4.47     5.304783     20.44337     102.8454        23     1.357     1.219  -7.84   0
        74    593.8887    782.2042 300.1076045 +22.7853999     568.7507     72.36837      1.644     4.15     4.866687     20.44337     44.00256         8     0.794     0.717  36.58   0
        75    327.8984    778.4847 300.0260135 +22.7045851     54038.52     72.62663      1.669     3.47      5.07578     20.44337       5156.5        89     1.449     1.424  32.93   0
        76    585.9101    777.5866 300.1066204 +22.7816828     1676.959     72.40532      1.597     3.79     4.859533     20.44337     143.0771        22     1.171     1.118  -7.80   0
        77    255.9745    776.8807 300.0041623 +22.6825540       488.61     72.44225      1.556     4.80     5.419259     20.44337     56.24158        10     1.050     0.915 -56.29   0
        78    998.8064    777.0365 300.2355165 +22.9052323     834.3957     72.47916      1.662     4.91     5.085195     20.44337     76.26558        14     1.177     0.948 -15.09   0
        79    300.9616    775.9016 300.0184733 +22.6957657     365.0492     72.46071      2.123     5.40     5.143852     20.44337     28.01986         5     1.478     0.556  74.80   0
        80    614.7377    773.7085 300.1168601 +22.7892098     1013.863     72.55293      1.599     4.84     4.896708     20.44337     81.12735        18     1.203     1.139 -30.85   0
        81    624.5052    770.1967 300.1210443 +22.7911290     1423.391     72.36837      1.549     6.81     4.902876     20.44337     796.2484        13     1.800     0.723  66.31   0
        82     14.8838    772.8397 299.9305339 +22.6090672      946.978     72.42379      1.823     2.67     5.185336     20.44337     96.92909        13     0.964     0.829  53.71   2
        83    946.1052    769.4774 300.2215315 +22.8872766     358.2117     72.57137      1.718     4.77      5.14234     20.44337     30.53862         7     0.987     0.654  19.97   0
        84    730.8763    768.2330 300.1548263 +22.8224418     478.5252     72.46071      1.543     3.95     4.999537     20.44337     43.55212         9     0.974     0.706  81.39   0
        85    525.6339    765.5876 300.0917491 +22.7601705     251.0844     72.44225      1.036     3.65     4.850723     20.44337     36.35867         5     1.308     0.294 -45.18   0
        86    768.6643    758.7581 300.1696839 +22.8310430      799.677     72.44225      1.641     4.07       5.0416     20.44337     68.02899        16     1.096     1.021  15.35   0
        87    377.6199    755.7432 300.0488752 +22.7129696     31418.33     72.47916      1.623     3.39     4.961894     20.44337     3162.244        68     1.375     1.336  39.65   0
        88    391.8835    756.3202 300.0531262 +22.7174120      2154.44     72.60822      1.721     3.35     4.949889     20.44337     172.7526        30     1.322     1.224   0.28   0
        89    900.8404    751.8914 300.2131284 +22.8686665     2904.985     72.46071      1.680     3.56     5.139551     20.44337     197.2867        29     1.278     1.203   9.48   0
        90    388.7997    750.3599 300.0541037 +22.7147769     627.6558     72.47916      2.031     4.28     4.940641     20.44337     47.63656        12     1.080     0.855  80.54   0
        91    658.5207    747.8220 300.1389135 +22.7948987     958.7748     72.42379      1.701     3.80     4.918571     20.44337     82.88235        15     1.106     0.901   7.03   0
        92    495.0534    747.8727 300.0879851 +22.7459184     492.9353     72.47916      1.477     3.74     4.922567     20.44337     49.09594        10     0.924     0.761 -63.67   0
        93    260.3094    747.5135 300.0150546 +22.6754292     825.9824     72.62663      1.626     3.52      5.35409     20.44337     83.65119        14     1.121     0.845  -7.76   0
        94    553.0026    745.6818 300.1067412 +22.7626600     274.7847     72.36837      1.530     4.48     4.870307     20.44337      28.1395         6     0.930     0.613  89.90   0
        95    505.7568    742.7136 300.0929942 +22.7476460     809.1506     72.44225      1.525     3.12     4.917673     20.44337     91.72499        15     1.037     0.921 -30.70   0
        96     65.3615    742.8020 299.9559795 +22.6155995     545.1244     72.47916      1.490     4.33     5.183871     20.44337     57.99323         8     1.008     0.581  71.80   0
        97    907.0020    739.2655 300.2191537 +22.8668846     418.5379     72.47916      1.410     5.02     5.182425     20.44337      42.5233         9     1.064     0.669 -88.93   0
        98    408.2593    738.6652 300.0639602 +22.7172552     301.0536     72.49761      1.434     3.29     4.896812     20.44337     41.00027         5     1.211     0.260  56.24   0
        99    451.5017    737.9219 300.0776609 +22.7300062     365.8508     72.57137      1.501     4.98      4.92366     20.44337     61.20739         9     1.175     0.716 -31.86   0
       100    363.9895    738.2434 300.0503209 +22.7038607     241.3958     72.46071      1.461     4.29     4.946608     20.44337     28.74947         5     1.036     0.507  36.97   0
       101     93.5730    736.7993 299.9666975 +22.6223419     603.7244     72.42379      1.808     6.36     5.163154     20.44337      41.0265        14     1.330     0.854  86.19   0
       102    660.3950    737.0143 300.1430098 +22.7923569     263.0226      72.3314      1.505     5.23      4.92026     20.44337      32.9575         7     1.030     0.750   4.87   0
       103    884.8148    734.5984 300.2137507 +22.8588982     498.0221      72.3129      1.692     3.23      5.15287     20.44337     48.82603         8     1.092     0.625 -64.08   0
       104    257.8408    731.9075 300.0193583 +22.6702114     566.5041     72.46071      1.575     4.44     5.354676     20.44337     63.68805        11     1.115     0.896 -47.75   0
       105    580.9557    722.4424 300.1229991 +22.7643661     431.3096     72.55293      1.471     3.29      5.00846     20.44337     54.52335         8     0.888     0.651 -10.75   0
       106    550.4556    720.9094 300.1139985 +22.7547847     612.8224     72.51606      1.502     4.65     5.028114     20.44337     60.77113        12     1.020     0.854  23.62   0
       107    967.1663    717.1750 300.2451007 +22.8785558     4544.463     72.47916      1.659     3.45     5.271936     20.44337     351.3264        36     1.350     1.244  21.33   0
       108    572.6750    718.0520 300.1218468 +22.7606238     1381.493     72.47916      1.504     3.29     5.041304     20.44337     137.5499        19     1.079     1.013  30.24   0
       109    460.2101    719.4188 300.0863845 +22.7273058     273.6405     72.42379      1.203     2.90     4.933067     20.44337     42.72947         6     0.710     0.636 -69.63   0
       110    492.4271    717.6315 300.0969949 +22.7364503     239.7132     72.46071      1.159     3.50     4.975461     20.44337     41.70698         5     1.036     0.341  68.51   0
       111    654.9558    712.7274 300.1492077 +22.7837528     319.5441     72.44225      1.576     4.21     5.029409     20.44337     38.41362         5     1.003     0.564 -74.87   0
       112    955.7178    708.6639 300.2442949 +22.8726816       1675.2     72.57137      1.658     3.61     5.335287     20.44337     150.0329        21     1.210     1.072  30.67   0
       113    318.4846    702.3868 300.0478144 +22.6799266     883.1827     72.40532      1.531     3.49     5.105408     20.44337     86.32536        16     1.059     0.992 -11.45   0
       114    782.0833    699.6761 300.1930675 +22.8180930      2583.41     72.55293      1.684     3.61     5.073848     20.44337     221.3973        32     1.394     1.184  -9.00   0
       115    986.8201    698.7379 300.2572241 +22.8791429     1624.277     72.42379      1.682     3.82     5.365549     20.44337     123.1474        24     1.335     1.109  21.67   0
       116      4.1560    689.6184 299.9542426 +22.5819846      860.774      69.4834      1.944     4.32     5.225435     20.44337     87.52471        18     1.303     1.282 -20.31  24
       117    864.2184    685.9487 300.2231368 +22.8387519     646.0848     72.44225      1.478     2.91     5.390764     20.44337      63.3616        10     0.904     0.707 -13.00   0
       118    447.4040    686.2405 300.0931787 +22.7139432      300.874     72.47916      1.450     3.79     4.917434     20.44337     28.22187         5     0.996     0.414  -6.84   0
       119    167.4067    685.8758 300.0061940 +22.6298827      721.941     72.38685      1.801     5.68     5.204095     20.44337     59.56108        14     1.214     1.158  42.90   0
       120    900.4737    676.7733 300.2374251 +22.8469738     148642.3     72.46071      1.625     3.48     5.489347     20.44337     12943.12       160     1.494     1.470 -30.37   0
       121    662.7928    680.9230 300.1619837 +22.7769675     270.2553     72.40532      1.227     3.76     5.168226     20.44337     46.37136         5     0.792     0.513 -30.10   0
       122    752.8196    677.0361 300.1913019 +22.8028231     673.3468     72.47916      1.317     3.42     4.941043     20.44337     73.99384        13     1.031     0.849  -8.63   0
       123    933.2146    669.4697 300.2500106 +22.8546799     399.7218     72.47916      1.405     3.28     5.544843     20.44337      62.0015        10     1.011     0.873  42.27   0
       124    586.7413    665.5283 300.1432938 +22.7497579     1627.138     72.49761      1.406     2.86     5.371406     20.44337      195.278        21     1.144     0.994  56.29   0
       125    767.9417    662.8571 300.2006223 +22.8032800     9441.457      72.5345      1.491     2.99     5.051867     20.44337     979.0567        43     1.240     1.205  48.02   0
       126    249.7315    664.2396 300.0388220 +22.6483640     347.1399     72.42379      1.330     3.45     5.431797     20.44337     40.16718         5     1.188     0.290  34.89   0
       127    269.3954    657.6824 300.0470681 +22.6523787     4905.006     72.38685      1.584     3.06     5.387195     20.44337     575.8614        37     1.296     1.206  16.14   0
       128    351.5394    655.8905 300.0732046 +22.6764933     1159.018     72.55293      1.493     2.63     5.100245     20.44337     146.5349        16     1.038     0.941  30.29   0
       129    227.1588    653.6636 300.0352377 +22.6385604     515.6741     72.44225      1.621     5.32     5.512387     20.44337     53.70248         9     1.130     0.829 -18.99   0
       130    560.1288    651.5755 300.1395383 +22.7377765     677.3796     72.47916      1.460     2.58     5.496354     20.44337     90.46712        11     0.866     0.830 -28.69   0
       131    551.3925    643.5495 300.1394249 +22.7328537     3332.955     72.46071      1.426     2.63     5.532533     20.44337     430.3979        24     1.131     1.028 -78.95   0
       132    541.6237    637.3577 300.1383941 +22.7281483     1405.991     72.51606      1.373     2.89     5.542521     20.44337     170.8255        17     1.003     0.961  67.92   0
       133    935.0057    635.4517 300.2616213 +22.8454401     477.6593     72.44225      1.796     4.63     5.544843     20.44337     47.02752         7     1.121     0.543  32.21   0
       134    452.5771    634.3286 300.1116536 +22.7005913     270.0278     72.49761      1.250     5.06     5.315548     20.44337     39.53192         7     1.017     0.712   2.58   0
       135    204.7920    633.2404 300.0349165 +22.6259930      636.155     72.47916      1.421     4.49     5.483074     20.44337     74.44975        13     1.146     0.919 -25.29   0
       136    219.2303    632.0837 300.0397820 +22.6299907     478.2774     72.47916      1.460     4.17     5.515817     20.44337     61.05254         7     1.065     0.625 -32.57   0
       137    988.7991    629.0626 300.2804794 +22.8597102     578.3118     72.42379      1.639     5.60     5.544843     20.44337     51.52805        13     1.226     0.879 -31.52   0
       138    275.8858    628.8652 300.0584477 +22.6460550     391.6109     72.55293      1.783     4.51     5.459088     20.44337     47.42609         8     1.078     0.887  65.27   0
       139    244.9677    628.8901 300.0488233 +22.6367918       571.47     72.42378      1.461     3.86     5.502512     20.44337     63.90689        12     1.049     0.865  74.70   0
       140    565.6694    627.8079 300.1489847 +22.7326117     522.9874     72.44225      1.461     2.91     5.580465     20.44337     62.37288        10     1.011     0.650  47.34   0
       141    466.3875    627.0098 300.1183301 +22.7026293     1794.391     72.34988      1.463     2.78     5.402543     20.44337     213.8635        21     1.116     1.001   7.75   0
       142    120.3169    621.8108 300.0123664 +22.5973801     20153.72     72.42379      1.714     3.27     5.360939     20.44337     2242.155        67     1.481     1.397  25.67   0
       143     41.0908    623.5314 299.9871856 +22.5741107     827.4462     72.58979      1.932     3.98     5.230471     20.44337     78.05958        14     1.155     1.070  87.03   0
       144    551.3618    622.4775 300.1462603 +22.7267936     919.6588     72.44225      1.312     2.82      5.59074     20.44337      111.311        14     0.957     0.882  31.38   0
       145    586.8174    621.1155 300.1577453 +22.7370267     279.2025     72.42379      1.158     4.88     5.628261     20.44337     44.04863         8     1.106     0.609 -20.49   0
       146    304.7176    614.0939 300.0722142 +22.6504599     359.3297     72.62663      1.253     2.23     5.483625     20.44337     53.81818         5     0.740     0.410 -72.39   0
       147    969.4509    608.8678 300.2810028 +22.8481128     1216.837     72.44225      1.660     3.62     5.544843     20.44337     108.7313        20     1.260     1.009   1.33   0
       148     66.3936    605.9630 300.0007542 +22.5766607     1566.615     72.47916      2.022     5.22     5.279747     20.44337     111.3659        27     1.663     1.170 -88.64   0
       149    836.0693    606.7820 300.2400783 +22.8075743     513.2349     72.47916      1.382     4.33     5.404012     20.44337     55.99749        12     1.151     0.846 -36.87   0
       150    132.5278    606.5574 300.0211161 +22.5966660     430.8724     72.44225      1.524     5.36     5.431219     20.44337      47.2563         9     1.045     0.775   8.96   0
       151    909.3329    601.4301 300.2646648 +22.8279752     914.6324     72.44225      1.839     4.53     5.510939     20.44337     69.34962        16     1.360     0.876  33.15   2
       152    514.7067    603.2181 300.1411016 +22.7102790     469.9268     72.38685      1.374     3.67     5.623328     20.44337     58.85396         8     0.926     0.610   2.53   0
       153    307.2937    601.6105 300.0770700 +22.6476493     362.0206     72.40532      1.220     3.83     5.508265     20.44337     48.95041         5     0.969     0.435  81.10   0
       154    654.3527    599.7043 300.1857383 +22.7511114     309.2688     72.47916      1.520     4.34     5.582365     20.44337     36.52676         5     0.908     0.590  37.36   0
       155    471.4654    595.2961 300.1302116 +22.6950456      614.207     72.57137      1.350     3.04     5.618304     20.44337      83.4026        12     1.003     0.773   1.18   0
       156    666.5734    592.4124 300.1919143 +22.7526779     383.7539     72.46071      1.414     4.64     5.533444     20.44337     56.13889        11     1.239     0.673 -52.84   0
       157    619.2932    593.7299 300.1767563 +22.7388918     468.2022     72.58979      1.478     3.33     5.726442     20.44337     70.98913        11     1.130     0.632  52.13   0
       158    637.2564    592.1446 300.1828673 +22.7438181     508.7189     72.51606      1.338     2.82      5.65591     20.44337     77.67896         9     0.886     0.664 -10.23   0
       159    702.8209    590.7431 300.2037515 +22.7630566     289.7149     72.47916      1.490     4.32     5.349699     20.44337     37.48913         6     0.976     0.544  66.88   0
       160    515.6053    590.9833 300.1453551 +22.7070349     1034.481     72.42379      1.590     3.23     5.653098     20.44337     103.4927        13     0.987     0.866  -9.42   0
       161    949.5243    586.7401 300.2819734 +22.8357867     3338.994     72.51606      1.586     3.24     5.519522     20.44337     305.9121        31     1.302     1.149  76.79   0
       162    481.2183    586.5964 300.1360734 +22.6954704     1710.808     72.38685      1.403     2.55     5.650531     20.44337     188.8221        18     0.987     0.953 -48.09   0
       163    846.3419    584.0489 300.2506653 +22.8041179     317.4149     72.51606      1.711     4.93     5.400374     20.44337     31.98193         7     1.114     0.617  26.42   0
       164     43.0867    579.9843 300.0019483 +22.5622176     5192.911     72.40532      1.804     3.28     5.229385     20.44337     576.8241        40     1.438     1.331  65.73   0
       165    831.0978    582.4821 300.2464208 +22.7991027     249.8501     72.60822      1.132     4.14     5.375255     20.44337     43.33504         7     1.221     0.400  15.03   0
       166    510.7270    577.4192 300.1482414 +22.7016780     311.7133     72.46071      1.255     4.54     5.685355     20.44337     42.67506         7     1.299     0.451  -9.51   0
       167    988.7129    576.5016 300.2975254 +22.8445758     330.6453     72.62663      1.476     4.24     5.508012     20.44337     35.15605         5     0.992     0.516  40.83   0
       168    344.5990    573.2310 300.0978930 +22.6506862     9188.253     72.42379      1.489     2.83     5.503012     20.44337      986.829        41     1.242     1.184  89.02   0
       169    467.0494    570.2554 300.1369693 +22.6865321     9161.417     72.49761      1.403     2.73     5.661397     20.44337     955.1523        44     1.229     1.186  45.61   0
       170    713.3501    567.1396 300.2146985 +22.7594295     296.5354     72.51606      1.557     4.90     5.324738     20.44337     28.53688         6     1.182     0.575 -21.83   0
       171    878.7990    564.5267 300.2671273 +22.8082264     1899.301     72.34988      1.535     2.75     5.421408     20.44337     198.9529        23     1.113     1.098 -63.17   0
       172    111.0726    565.8088 300.0276800 +22.5785404     379.8625     72.44225      1.526     3.73     5.289585     20.44337     42.37362         8     0.942     0.637 -61.87   0
       173    963.4524    561.8671 300.2943970 +22.8328069        12589     72.47916      1.583     3.30     5.490748     20.44337     1144.999        50     1.323     1.279 -59.55   0
       174    527.6443    559.9209 300.1591917 +22.7017221     11589.15     72.44225      1.402     2.64     5.736696     20.44337     1562.786        42     1.193     1.141  42.08   0
       175    255.0366    555.5432 300.0757753 +22.6187606     1378.643     72.46071      1.444     3.51     5.515836     20.44337     139.5186        20     1.187     1.028   3.95   0
       176    697.2968    555.9524 300.2133288 +22.7514069      498.585     72.49761      1.257     2.89     5.406157     20.44337     72.97575         8     0.845     0.732  35.78   0
       177    412.9604    554.6649 300.1251955 +22.6658457      234.558     72.42379      1.118     3.66     5.585202     20.44337       40.543         6     0.883     0.632 -68.31   0
       178    502.0706    552.8792 300.1535153 +22.6920369     405.5068     72.57137      1.385     4.42      5.73738     20.44337     50.65284         9     1.040     0.783  89.15   0
       179    802.1508    548.2418 300.2485154 +22.7805947     726.0887     72.47916      1.391     3.23     5.330067     20.44337     78.41491        15     1.078     0.875  50.34   0
       180    459.2942    548.0574 300.1417634 +22.6778340     4432.839     72.51606      1.399     2.63     5.687793     20.44337      546.427        30     1.151     1.095  60.38   0
       181    437.6695    546.5521 300.1355207 +22.6709214     1159.626     72.44225      1.347     2.65     5.645194     20.44337     154.0767        16     1.015     0.911  -0.34   0
       182    191.9196    545.8724 300.0592874 +22.5970620     784.1948     72.58979      1.585     3.57     5.424483     20.44337     83.07036        14     1.083     0.881   2.79   0
       183    879.1992    543.7358 300.2740040 +22.8023707     1572.041     72.46071      1.546     3.18     5.391956     20.44337     147.7108        20     1.116     1.037 -21.00   0
       184    399.8277    542.1392 300.1251755 +22.6583135     310.6314     72.46071      1.308     2.32     5.589421     20.44337     48.49413         6     0.735     0.539 -41.92   0
       185    759.6386    540.7839 300.2376845 +22.7657204      818.987     72.47916      1.400     2.61     5.287406     20.44337     110.1555        14     0.919     0.872 -49.79   0
       186    575.9918    535.6907 300.1821165 +22.7092484     206824.4     72.36837      1.411     2.62     5.819077     20.44337     26873.89       189     1.444     1.370 -18.54   0
       187    261.9994    535.5443 300.0844347 +22.6151077     3445.057     72.38685      1.456     2.81     5.523146     20.44337     403.6802        27     1.201     1.054  39.22   0
       188    828.1122    532.2719 300.2617957 +22.7837793       540.79     72.62663      1.588     3.97     5.350749     20.44337     51.31758         9     0.989     0.643 -54.74   0
       189    846.5953    530.4909 300.2681373 +22.7888018     347.2142     72.36837      1.717     5.22     5.361023     20.44337     32.48428         5     0.996     0.772  78.20   0
       190    466.5856    516.0115 300.1544384 +22.6708164     2897.848     72.38685      1.487     2.67     5.737658     20.44337     349.0827        28     1.365     1.036  86.50   0
       191    310.9428    518.4216 300.1052188 +22.6248637     395.3334     72.47916      1.298     3.07     5.591146     20.44337     55.45893         8     0.831     0.690  53.36   0
       192    877.9903    512.5577 300.2837509 +22.7930472     459.1425     72.46071      1.310     3.39     5.381962     20.44337     57.06675         7     0.917     0.590  54.05   0
       193    623.1216    513.6301 300.2039601 +22.7170300      361.558     72.46071      1.474     3.91     5.813562     20.44337     39.36767         5     0.907     0.482   2.08   0
       194    783.8397    504.9035 300.2568791 +22.7626570     422.6399     72.44225      1.538     3.95     5.345116     20.44337     49.81646        10     1.069     0.672 -23.81   0
       195    863.6901    502.3058 300.2826198 +22.7858191     1754.742     72.62663      1.461     2.84     5.369884     20.44337      196.997        23     1.164     1.045  42.58   0
       196    750.1628    502.6129 300.2471249 +22.7519141     344.5726     72.44225      1.275     2.35     5.335193     20.44337     42.16825         5     0.723     0.431 -22.96   0
       197    734.8570    499.9556 300.2432170 +22.7465669     2632.407     72.47916      1.373     2.70     5.349044     20.44337     341.9433        26     1.123     1.063 -63.87   0
       198     94.2311    500.2498 300.0437308 +22.5546787     281.5755     72.49761      1.428     3.89     5.295686     20.44337      35.9576         5     0.900     0.482  45.48   0
       199    977.9216    492.9835 300.3212790 +22.8173350     915.9191     72.46071      2.058     3.87      5.40152     20.44337     60.76223        13     1.056     0.863 -61.62   2
       200    944.2597    497.0617 300.3094528 +22.8084315     359.6734     72.49761      1.446     4.61     5.406879     20.44337     36.60245         8     1.005     0.600  27.05   0
       201    639.5229    496.3501 300.2146800 +22.7169784     455.1709     72.46071      1.327     2.78     5.813311     20.44337     61.78554         7     0.827     0.623   9.33   0
       202    521.9860    495.7292 300.1782724 +22.6815904     663.6738     72.46071      1.285     2.82     5.783889     20.44337     106.1577        13     0.970     0.847  40.25   0
       203    992.1620    493.9703 300.3254019 +22.8218810     1310.546     72.49761      1.545     3.34      5.40286     20.44337     123.1539        17     1.119     0.934  -4.63   0
       204    863.9860    492.3669 300.2859390 +22.7830509     2356.208     72.46071      1.698     3.56     5.369971     20.44337     235.9714        32     1.520     1.190  70.83   0
       205    616.9549    488.9869 300.2100398 +22.7081032     814.5164     72.46071      2.209     7.36     5.846924     20.44337     58.24092        16     1.787     0.849  88.91   0
       206    402.9382    490.3291 300.1429648 +22.6443691      337.085     72.49761      1.392     4.62     5.731304     20.44337     35.73576         8     1.067     0.567 -23.38   0
       207    902.1023    487.4505 300.2994229 +22.7930486     4312.151      72.5345      1.438     2.73     5.383638     20.44337     526.8511        31     1.170     1.113 -71.73   0
       208    455.6468    489.2426 300.1597238 +22.6598512     371.2816     72.49761      1.239     3.32     5.747961     20.44337     49.26921         9     0.876     0.735  -5.87   0
       209    543.2668    486.3796 300.1879346 +22.6852804     270.3503     72.44225      1.287     4.45     5.787762     20.44337     36.52993         6     0.889     0.721   5.40   0
       210    639.9561    484.0577 300.2188057 +22.7135765     160.7742     72.49761      1.148     3.63     5.844493     20.44337     39.29779         5     0.675     0.563  88.96   0
       211    562.5096    483.3885 300.1948985 +22.6901858     222.5635     72.40532      1.096     3.17     5.805993     20.44337      48.8455         6     0.823     0.542  48.68   0
       212    993.7803    478.0013 300.3310914 +22.8177739     719.7195     72.38685      1.424     3.22     5.383679     20.44337     76.87746        11     0.930     0.799 -36.62   0
       213    134.0024    477.6729 300.0634219 +22.5601246     1097.674     72.36837      1.596     3.43     5.508922     20.44337     113.5865        16     1.172     0.905 -13.34   0
       214    794.7621    471.6350 300.2710849 +22.7563661     291.6697      72.5345      1.406     3.43     5.373463     20.44337     39.57628         5     0.727     0.468  11.61   0
       215    181.8095    469.8537 300.0808230 +22.5722129     304.4529     72.46071      1.640     4.43     5.658497     20.44337     28.19125         5     0.810     0.690 -48.63   0
       216    127.0394    467.8958 300.0644310 +22.5552309     321.9993     72.44225      1.222     3.25      5.55323     20.44337     63.28728         6     0.980     0.658  31.49   0
       217    990.6626    467.4861 300.3335322 +22.8138172     390.4968     72.57137      1.634     4.74     5.377207     20.44337     37.65255         6     1.296     0.491  -4.43   0
       218    734.4920    462.1087 300.2553899 +22.7355815     372.4567     72.62663      1.108     3.56     5.407011     20.44337     73.78829         8     1.232     0.551 -45.09   0
       219    623.5709    459.6824 300.2216138 +22.7016656     299.2827     72.47916      1.228     2.76     5.840122     20.44337     55.47797         5     0.853     0.472  77.78   0
       220    675.6440    457.8830 300.2384221 +22.7167443     740.9047     72.42379      1.280     2.33     5.817868     20.44337     119.7614        12     0.921     0.796  -8.64   0
       221    990.0994    450.7064 300.3388036 +22.8088238     600.0771     72.64504      1.405     2.33     5.367793     20.44337     69.08097        10     0.828     0.724  89.24   0
       222    736.1287    449.9832 300.2598360 +22.7325869     839.2452     72.46071      1.335     3.77     5.402303     20.44337      99.9874        12     1.134     0.731  59.10   0
       223    893.3867    446.4673 300.3100089 +22.7786577     1102.218     72.46071      1.391     2.47     5.378569     20.44337     134.7659        15     0.939     0.904  72.91   0
       224    877.6188    442.5969 300.3063474 +22.7728250      741.516     72.38685      1.566     3.85      5.38523     20.44337     103.3895        15     1.233     0.924   6.18   0
       225    858.6151    443.1340 300.3002465 +22.7672906     368.8155     72.44225      1.600     3.91     5.391641     20.44337     33.20148         6     0.747     0.633  37.26   0
       226    622.0743    440.6425 300.2273278 +22.6957468     3291.763     72.44225      1.328     2.35     5.829115     20.44337     479.0418        25     1.071     0.984 -87.13   0
       227    768.8079    440.5809 300.2730743 +22.7396696     115.5035     72.42379      1.342     3.68      5.40182     20.44337     24.91478         5     1.012     0.384 -84.71   0
       228    982.2292    439.5096 300.3399824 +22.8032487     555.0818     72.42379      1.478     4.67      5.36132     20.44337     69.96028        11     1.094     0.855  58.36   0
       229     98.0918    431.7009 300.0671806 +22.5361642      375.822     72.64504      1.604     5.88     5.708264     20.44337     37.28662        10     1.198     0.813  19.07   0
       230    627.4819    428.5340 300.2329426 +22.6938872     184.8731     72.57137      0.958     2.93     5.822163     20.44337      48.4008         5     0.872     0.524 -41.96   0
       231    461.8743    427.6457 300.1816566 +22.6440257     345.3066     72.44225      1.328     2.20     5.791727     20.44337     64.25318         7     0.788     0.575  80.63   0
       232    393.9567    427.8357 300.1604545 +22.6237313      266.255     72.51606      1.324     3.86     5.900351     20.44337     38.86796         6     0.912     0.469  35.15   0
       233    905.5999    419.7316 300.3224962 +22.7746268     568.3418     72.40532      1.195     2.79     5.368911     20.44337     95.34114        11     0.966     0.747 -41.37   0
       234    991.8590    418.7285 300.3497323 +22.8001548     996.3463     72.49761      1.455     2.97     5.348964     20.44337     122.1582        16     1.037     0.968  65.19   0
       235    641.8429    416.9742 300.2411685 +22.6948665     256.3897     72.49761      1.598     3.50      5.81521     20.44337     33.18655         5     0.800     0.503 -35.35   0
       236    732.6503    414.6022 300.2702357 +22.7213768     1178.816     72.44225      1.327     2.43     5.459755     20.44337      162.895        15     0.969     0.853  46.62   0
       237    528.3997    415.0325 300.2064634 +22.6603312     470.0137     72.42379      1.439     2.89     5.793822     20.44337      56.5569         9     0.835     0.771   0.60   0
       238    236.5447    412.4185 300.1164849 +22.5721321     619.5215     72.44225      1.449     4.47     5.846569     20.44337     80.10765        13     1.109     0.870  75.63   0
       239    298.9849    408.3875 300.1372150 +22.5896878     3805.197     72.40532      1.396     2.67     5.857456     20.44337     430.8575        27     1.124     1.071  14.65   0
       240     76.6724    409.8773 300.0676056 +22.5234791     353.7435     72.55293      1.630     4.51     5.721109     20.44337     26.76467         6     1.010     0.573  28.53   0
       241    246.1250    403.0790 300.1224953 +22.5723220     7622.479     72.57137      1.451     2.96     5.846569     20.44337     829.9856        40     1.261     1.170  43.53   0
       242   1012.0486    398.2039 300.3626938 +22.8002940     1936.306     72.44225      1.609     2.90     5.348536     20.44337     197.8787        26     1.204     1.169 -27.17   0
       243    387.0668    397.3198 300.1682135 +22.6129029     4870.205     72.57137      1.381     2.66      5.91592     20.44337     577.7998        28     1.158     1.054  81.19   0
       244    631.2233    394.1516 300.2452667 +22.6851280     18682.18     72.46071      1.341     2.55     5.836682     20.44337      2145.26        47     1.188     1.138  84.97   0
       245    650.6423    393.3547 300.2515754 +22.6907142     300.0837      72.5345      1.309     2.54     5.857985     20.44337     51.24926         5     0.704     0.471  62.12   3
       246    478.5001    395.2941 300.1973317 +22.6397134     347.0861     72.64504      1.434     3.38     5.749582     20.44337     44.84385         5     0.770     0.430  66.43   0
       247    648.0451    395.0117 300.2502285 +22.6904126     698.6086     72.46071      1.580     3.28      5.85162     20.44337     78.91427        12     1.057     0.772 -86.92   2
       248    828.2332    384.2973 300.3098682 +22.7412813      364.536     72.44225      1.251     3.55     5.548521     20.44337     54.12563         8     0.887     0.758  13.08   0
       249    250.9575    381.3731 300.1310418 +22.5675381     330.6186     72.47916      1.382     4.43     5.846569     20.44337     37.62549         7     0.902     0.618  28.97   0
       250    965.1169    377.1774 300.3548734 +22.7802029     699.0938     72.42379      1.429     3.93     5.345462     20.44337      81.8235        10     1.097     0.731 -27.37   0
       251    501.6925    375.6703 300.2109206 +22.6410231     425.2875     72.58979      1.682     2.18     5.766234     20.44337     79.99957         7     0.814     0.615  67.36   0
       252    674.6176    375.0988 300.2649700 +22.6926469     263.8541     72.36837      1.273     3.39     5.922176     20.44337     38.61236         5     0.765     0.434 -69.65   0
       253    185.8626    374.1236 300.1131506 +22.5459474     2032.215     72.51606      1.520     2.96     5.965973     20.44337     204.7232        24     1.203     1.045  68.56   0
       254    571.8306    363.6366 300.2366675 +22.6585727      6744.92     72.47916      1.362     2.45     5.813274     20.44337     944.4521        39     1.240     1.077  72.09   0
       255    985.5886    364.1500 300.3654882 +22.7825823     1223.944     72.49761      1.445     3.07     5.347017     20.44337       132.42        15     1.024     0.872   6.41   0
       256    286.7656    362.8218 300.1481993 +22.5729417     831.5248     72.47916      1.537     3.68     5.846569     20.44337     92.02671        13     1.184     0.820  74.10   0
       257    144.5222    356.1812 300.1061187 +22.5284055     466.8141     72.46071      1.354     2.49     6.040474     20.44337     60.57956         7     0.795     0.593  18.39   0
       258    831.7947    355.5713 300.3203002 +22.7340885     350.6636     72.46071      1.289     2.64     5.627225     20.44337     60.74054         5     0.758     0.438 -21.84   0
       259    775.8978    352.8228 300.3037644 +22.7165664     1083.879     72.38685      1.403     2.73     5.890935     20.44337     149.3447        16     1.080     0.845  52.49   0
       260    685.4379    353.8005 300.2752526 +22.6897653     501.8855     72.46071      1.502     3.48     5.959245     20.44337     59.39857        10     1.129     0.714  53.70   0
       261    478.5269    349.8241 300.2120942 +22.6266588     6297.558     72.49761      1.382     2.46     5.755596     20.44337     901.0504        33     1.176     1.050  70.95   0
       262    967.8877    344.6033 300.3663078 +22.7716639      651.933     72.38685      1.503     3.81     5.395573     20.44337     71.12914        13     1.077     0.857 -87.83   0
       263    870.4602    344.3473 300.3359996 +22.7424341     1596.319     72.51606      1.526     2.61     5.336292     20.44337     177.1828        19     1.085     0.952  69.73   0
       264    545.8820    336.8568 300.2372747 +22.6431064     530.8519     72.49761      1.574     3.17     5.827706     20.44337     71.93579         8     0.910     0.664 -57.84   0
       265    463.3248    338.5500 300.2110191 +22.6188663     590.7656     72.46071      1.418     2.91     5.817983     20.44337     66.59987         7     0.933     0.479  -9.60   0
       266    526.7460    334.6033 300.2320465 +22.6367279     158.6329     72.42379      1.040     3.48     5.815902     20.44337     36.78282         5     0.772     0.453  17.25   0
       267    475.9539    333.0343 300.2167404 +22.6210645     240.8718     72.47916      1.266     3.79     5.796854     20.44337     33.89978         5     0.655     0.631   2.96   0
       268    843.4589    332.0449 300.3315707 +22.7308154     605.9377     72.49761      1.371     3.10     5.465144     20.44337     62.03399        10     0.896     0.821 -15.52   0
       269    366.0813    328.8728 300.1838913 +22.5869561      2591.48     72.58979      1.390     2.88     5.860545     20.44337     303.7914        26     1.188     1.053  72.85   0
       270     84.3787    326.4556 300.0970669 +22.5018446     1009.408     72.47916      1.563     3.86     5.990094     20.44337     97.45911        18     1.259     0.943  24.99   0
       271    714.2056    323.8952 300.2939204 +22.6897822      223.785     72.34988      1.293     2.97     5.880531     20.44337      48.8489         5     0.819     0.456 -35.80   0
       272    335.4027    318.4133 300.1777382 +22.5747608     29920.19     72.29441      1.404     2.55     5.828517     20.44337     3734.623        65     1.308     1.199  57.54   0
       273    870.1237    316.2090 300.3450239 +22.7342422     1334.265     72.42379      1.380     2.86     5.326981     20.44337      154.291        19     1.098     0.966  78.94   0
       274     31.6962    306.0990 300.0872981 +22.4802092     5047.646     72.64504      1.664     3.40     5.807936     20.44337     478.5829        40     1.438     1.275  48.26   0
       275    828.7932    305.8087 300.3355092 +22.7188821     254.1773      72.3129      1.486     3.66     5.408278     20.44337     32.26117         5     0.760     0.667 -32.23   0
       276    784.9804    305.1121 300.3220750 +22.7055684     519.6594     72.40532      1.263     3.48      5.56175     20.44337     73.88855        10     0.970     0.728 -38.03   0
       277    433.9384    304.1370 300.2130350 +22.6001775     349.4002     72.49761      1.209     2.52     5.928129     20.44337     79.08721         9     0.873     0.680 -66.41   0
       278    209.5803    305.2060 300.1428840 +22.5332675     417.7066     72.42379      1.401     2.58     5.892332     20.44337     75.92983         7     0.861     0.730  14.85   0
       279    745.8652    298.3167 300.3120860 +22.6919064     1914.511     72.57137      1.386     2.60     5.785573     20.44337     231.7052        20     1.074     0.975  45.82   0
       280    554.1970    293.0198 300.2540853 +22.6329994     454.4958     72.40532      1.211     2.76     5.871141     20.44337       50.734         7     0.715     0.647  -6.13   0
       281    960.7836    291.0427 300.3814679 +22.7541332     590.6558     72.47916      1.307     4.83     5.670004     20.44337     77.47021         9     1.046     0.632  60.42   0
       282    120.8430    285.0418 300.1218345 +22.5008847     1386.307     72.57137      0.611     1.33     6.053823     20.44337     709.2891         7     0.657     0.392  30.33   0
       283    407.7112    282.7246 300.2118169 +22.5861700      2139.05     72.58979      1.564     3.04     5.936171     20.44337     263.7704        23     1.268     0.989  63.27   0
       284    620.1221    281.7953 300.2782611 +22.6495133     298.4856     72.36837      1.124     2.50     5.874949     20.44337     71.15582         7     0.870     0.553  19.53   0
       285    846.8027    275.8307 300.3508496 +22.7156515       679.95     72.42379      1.364     3.26     5.339137     20.44337     93.49493        11     1.024     0.733  89.22   0
       286    729.2426    273.4957 300.3149562 +22.6797947     300.5295     72.47916      1.257     3.78     5.838539     20.44337     51.93096         6     0.893     0.572  61.71   0
       287    746.2969    273.4076 300.3203005 +22.6848741     292.9437     72.34988      1.231     3.65     5.775055     20.44337     46.58827         5     0.861     0.447  46.73   0
       288    697.4366    272.8167 300.3052637 +22.6700786     289.6378     72.46071      1.196     2.72     5.859422     20.44337     50.05615         5     0.717     0.458 -69.83   0
       289    483.5647    262.2257 300.2420787 +22.6029985     1339.082     72.47916      1.397     2.64     5.874926     20.44337     153.6291        19     1.116     0.935  59.19   0
       290     56.8788    262.3982 300.1092973 +22.4752127     327.5554     72.36837      1.438     4.44     6.155342     20.44337     32.97946         7     0.895     0.628 -80.93   0
       291    995.0468    258.6688 300.4026598 +22.7550715     345.4263     72.44225      1.344     5.04     6.028364     20.44337      44.8233         9     1.099     0.653  41.16   0
       292    866.5569    255.7455 300.3635248 +22.7157867      380.715     72.47916      1.224     2.88     5.322777     20.44337      47.3286         6     0.880     0.435   1.67   0
       293    728.4516    254.1280 300.3209914 +22.6739895     2098.874     72.46071      1.309     2.58     5.823563     20.44337     262.1915        19     1.032     0.935 -84.27   0
       294    989.6705    248.7008 300.4042153 +22.7505956     3050.464     72.60822      1.495     2.76     5.993522     20.44337     353.7049        27     1.201     1.069  72.33   0
       295    436.6336    237.8992 300.2353575 +22.5819534     656.0968     72.44225      1.321     2.27     5.884248     20.44337     116.2618        12     0.863     0.816  30.32   0
       296    111.4606    232.1745 300.1360630 +22.4828934     1326.429     72.46071      1.732     3.96     6.252599     20.44337     121.3151        25     1.468     1.049 -34.44   0
       297    142.3453    232.5131 300.1455543 +22.4922457     543.1395     72.49761      1.269     2.93     6.190774     20.44337     65.90971         7     0.909     0.486   8.84   0
       298   1005.2389    229.4106 300.4153295 +22.7497032     402.0882     72.46071      1.312     3.32     6.069466     20.44337     61.52127         7     0.887     0.604 -72.87   0
       299    848.9688    225.7781 300.3677587 +22.7019050     273.4533     72.46071      1.181     3.48     5.417391     20.44337     45.31851         8     0.909     0.649  60.22   0
       300    196.0588    224.0599 300.1649963 +22.5059127     568.7524      72.5345      1.563     3.90     5.981116     20.44337     61.95827        10     0.945     0.757   4.64   0
       301    990.6595    221.8368 300.4132363 +22.7431629      513.131     72.47916      1.855     3.04     6.002642     20.44337     63.06723         8     0.957     0.820  46.53   0
       302    800.0319    215.7176 300.3557620 +22.6843678      520.661     72.46071      1.304     3.17     5.731671     20.44337      67.8096        11     0.957     0.762 -70.89   0
       303    390.4947    215.1606 300.2283700 +22.5616016     449.3876     72.46071      1.300     3.08     5.835953     20.44337     56.99759         6     0.725     0.621 -53.21   0
       304    936.7306    209.5944 300.4003804 +22.7235080     228.9852     72.42379      1.161     4.51     5.815026     20.44337     32.73197         5     0.818     0.706 -46.94   0
       305     75.2244    207.4687 300.1328108 +22.4649403     197.2762     72.46071      1.502     3.43     6.494908     20.44337     30.20743         5     0.751     0.453  20.41   0
       306    898.1761    204.6618 300.3899532 +22.7105546     1986.996     72.44225      1.432     2.66     5.643302     20.44337     285.3058        23     1.134     1.044  53.68   0
       307    316.7322    201.9152 300.2097116 +22.5357030     2189.814     72.55293      1.477     2.50     5.769805     20.44337     299.5739        24     1.119     1.037  17.14   0
       308    394.5879    196.9856 300.2355372 +22.5576052     1146.628     72.38685      1.496     3.18     5.840458     20.44337     115.2831        18     1.162     0.927  55.83   0
       309    146.0665    197.0232 300.1582187 +22.4831691     345.4879     72.44225      1.453     3.67     6.245332     20.44337     36.56537         5     0.637     0.609  -2.60   0
       310    796.5765    196.1480 300.3610305 +22.6777057     593.9324     72.47916      1.422     3.00     5.736796     20.44337     71.76015         8     0.810     0.688  43.46   0
       311    903.6966    193.5512 300.3952779 +22.7090101     434.5183     72.51606      1.351     2.44     5.730562     20.44337     62.25675         6     0.833     0.457  86.13   0
       312    442.1358    193.3621 300.2515121 +22.5708032     387.2187     72.44225      1.890     4.40     5.887884     20.44337     28.50912         7     0.891     0.619  78.85   0
       313    211.6444    189.1926 300.1811484 +22.5005679     830.0621     72.47916      1.531     2.62     5.993149     20.44337     95.39295        11     0.929     0.734  -2.13   0
       314    749.3243    186.0752 300.3495659 +22.6606686     1597.786     72.55293      1.324     2.57     5.777506     20.44337     208.5328        19     1.040     0.935 -87.23   0
       315    814.1878    185.8227 300.3698695 +22.6800061     579.9093     72.44225      1.188     1.93     5.711148     20.44337      97.1486         8     0.730     0.628  38.38   0
       316    232.7408    182.3713 300.1899209 +22.5049287     547.6708     72.46071      1.579     3.28     5.942864     20.44337     61.99699         8     0.953     0.586  12.77   0
       317   1020.8246    178.7684 300.4366154 +22.7397941     850.1151     69.54111      1.591     4.02     6.012485     20.44337     88.91579        13     1.102     0.909  57.31  16
       318    753.2499    177.3621 300.3536146 +22.6593377      832.405     72.46071      1.477     3.58     5.774513     20.44337     102.3088        15     1.272     0.768  51.86   0
       319    673.8776    176.9540 300.3290093 +22.6354657     1238.764     72.44225      1.329     2.49     5.823636     20.44337     176.8783        16     0.950     0.890  32.53   0
       320    522.7650    178.6149 300.2813977 +22.5907073     300.8935     72.46071      1.221     2.33     5.899248     20.44337     47.83156         5     0.704     0.451  19.85   0
       321    495.4228    173.0939 300.2746735 +22.5809341     407.6674     72.36837      1.297     3.17      5.93742     20.44337     42.46503         5     0.756     0.582  13.83   0
       322    600.0451    168.7358 300.3086703 +22.6110030     1021.141     72.47916      1.306     2.30     5.874921     20.44337     158.5539        13     1.107     0.704 -86.64   0
       323    869.2483    168.3088 300.3927181 +22.6914427     1592.752     72.47916      1.478     2.62     5.769169     20.44337     189.5676        20     1.140     1.000  35.60   0
       324    881.3521    167.7067 300.3966883 +22.6948907     744.8118     72.47916      1.266     2.48     5.801247     20.44337     98.91109        11     0.893     0.762  15.81   0
       325    927.6210    166.2691 300.4115868 +22.7083189     353.8669     72.46071      1.683     3.13     5.933745     20.44337     40.26839         6     0.932     0.615  61.99   0
       326    998.2013    157.7307 300.4363763 +22.7269741     1071.376     72.40532      1.594     3.78     5.962058     20.44337     120.6238        18     1.169     1.091 -70.23   0
       327     21.9434    154.3089 300.1334871 +22.4337092     445.0238     72.51606      1.358     3.45     6.862505     20.44337     58.86877         9     1.018     0.758 -87.47   0
       328    232.1471    150.7339 300.1999927 +22.4956628     768.6191     72.49761      1.426     2.82      5.99316     20.44337     90.57955        13     0.972     0.815 -35.05   0
       329     94.0537    145.2233 300.1588427 +22.4527084     2123.717     72.47916      1.556     3.14       6.6518     20.44337     213.4793        27     1.245     1.190  85.61   0
       330    917.1528    142.7554 300.4159444 +22.6984225     753.4806     72.49761      1.324     2.24     5.933123     20.44337     128.7865        12     0.862     0.826 -39.61   0
       331     43.4566    142.4770 300.1440076 +22.4367586     545.3947     72.47916      1.437     3.15     6.800288     20.44337     60.34811        10     0.964     0.711   1.10   0
       332    251.3835    138.6752 300.2098847 +22.4979607     5838.257     72.46071      1.530     2.65     5.908523     20.44337     763.4731        36     1.338     1.102  66.42   0
       333    233.0906    139.5843 300.2039003 +22.4927424      286.244     72.38685      0.994     3.31     5.968693     20.44337     46.87598         6     0.787     0.482   9.49   0
       334     35.3786    132.8459 300.1446191 +22.4315723     1358.706     72.51606      1.795     4.18     6.823377     20.44337     115.5195        22     1.275     1.141  50.95   0
       335    234.6185    129.5470 300.2076291 +22.4903166     636.1599     72.44225      1.502     4.36      5.94389     20.44337     68.36431        12     1.094     0.813   5.43   0
       336    895.5255    120.4628 300.4164249 +22.6855394     3569.885     72.49761      1.486     2.56     5.920442     20.44337     465.8676        30     1.240     1.113 -80.18   0
       337    999.2233    119.2404 300.4491732 +22.7162039     2905.824     72.49761      1.530     2.86     5.962188     20.44337     358.4724        31     1.324     1.151  55.15   0
       338    444.8838    115.6423 300.2775628 +22.5492895     754.7054     72.42379      1.518     2.58     5.912067     20.44337      79.8363         9     0.787     0.732  39.90   0
       339    197.8293    116.3757 300.2004569 +22.4755128     311.6037     72.46071      1.108     3.39     6.146232     20.44337     51.61059         5     0.767     0.432 -20.12   0
       340    369.0994    107.3758 300.2566539 +22.5242220     664.3274     72.40532      1.494     2.92      5.80687     20.44337     69.68564         7     0.730     0.651   7.31   0
       341    372.9960    106.0882 300.2582839 +22.5250188     520.1636     72.36837      1.667     3.71     5.811787     20.44337     48.23534         5     1.008     0.393 -29.28   1
       342    135.4596    104.5636 300.1848928 +22.4534359     474.4426     72.47916      1.222     2.50     6.565912     20.44337     67.63007        11     0.884     0.769  12.75   0
       343    424.3298    103.5159 300.2750949 +22.5396501      473.372     72.58979      1.239     3.03     5.878226     20.44337     60.11622         7     0.801     0.651  72.30   0
       344    496.3774    102.7572 300.2977712 +22.5610022     1619.376     72.51606      1.275     2.35     5.945817     20.44337     230.1059        16     0.961     0.932 -51.70   0
       345    558.1747    102.3770 300.3171392 +22.5793918     413.7956     72.42379      1.558     2.65     5.859244     20.44337     42.50119         6     0.708     0.619 -59.88   0
       346    239.8768     98.3285 300.2193829 +22.4829227     400.7278     72.57137      1.341     2.95     5.876147     20.44337     73.73093         8     1.011     0.671  43.69   0
       347    712.6259     97.0128 300.3669993 +22.6240734     181.5042     72.46071      1.054     3.96      5.81077     20.44337     39.11105         5     1.035     0.434  24.68   0
       348    784.8049     92.6754 300.3909045 +22.6444224     413.8992     72.36837      1.430     2.61     5.841247     20.44337     54.60498         5     0.842     0.468   1.58   0
       349    270.3694     82.5679 300.2339754 +22.4875270     5991.899     72.46071      1.499     2.58     5.858774     20.44337     785.9065        35     1.286     1.113  68.12   0
       350    776.7631     83.5996 300.3913390 +22.6394058       362.14     72.46071      1.635     2.12     5.908191     20.44337      46.3965         5     0.688     0.454  20.93   0
       351    121.3804     81.8918 300.1878633 +22.4427059     895.5886     72.38685      1.764     4.19      6.47399     20.44337     82.68159        16     1.316     0.975  10.23   0
       352    899.8437     80.4736 300.4307334 +22.6753255     343.8923     72.44225      1.396     3.57     5.990496     20.44337     43.66734         6     0.786     0.496   5.47   0
       353    241.8614     76.3250 300.2271311 +22.4771953     342.4849     72.51606      1.602     5.62     5.892999     20.44337     38.72691         8     1.095     0.812  -5.13   0
       354    746.5640     74.2529 300.3849540 +22.6276819     297.3091     72.47916      1.474     3.56     6.002178     20.44337     36.94492         6     0.715     0.664  25.35   0
       355     32.8107     73.1724 300.1631606 +22.4136664     519.9581     72.46071      2.254     4.96     6.450417     20.44337     43.68498         7     1.189     0.585   5.01   0
       356    516.4615     67.9559 300.3153040 +22.5570096      6338.26     72.47916      1.432     2.58      5.93825     20.44337     743.4746        36     1.248     1.089  70.81   0
       357    401.9383     67.5980 300.2797657 +22.5226224     644.8661     72.44225      1.430     2.60     5.892943     20.44337     100.0443        10     0.924     0.781 -58.03   0
       358    573.4206     62.6483 300.3347635 +22.5725322     428.1156     72.49761      1.576     3.05     6.006317     20.44337     49.82043         5     0.884     0.467 -77.59   0
       359    768.8530     58.1861 300.3971090 +22.6297288     1004.203     72.49761      1.916     5.20      6.10816     20.44337     94.55859        19     1.623     1.030 -72.26   0
       360    710.6488     59.6747 300.3784840 +22.6127428     252.1895     72.46071      1.223     2.66     6.098704     20.44337     52.95761         5     0.731     0.463   7.07   0
       361    861.4479     56.7259 300.4264541 +22.6570079     430.1203     72.46071      1.342     4.53     6.051093     20.44337     52.32034        11     1.140     0.770 -39.15   0
       362    209.5344     51.6337 300.2250781 +22.4604190     449.6224     72.46071      1.149     2.60     5.967539     20.44337     59.57664         7     0.787     0.642  78.68   0
       363    568.0250     50.2649 300.3370957 +22.5673566      523.613     72.44225      1.467     3.64     6.042655     20.44337     57.33871        10     0.932     0.823 -52.64   0
       364    644.8149     48.0723 300.3617284 +22.5897067     6383.882     72.46071      1.389     2.67     6.180516     20.44337     775.4418        34     1.277     1.044  81.00   0
       365    419.7463     47.1225 300.2919437 +22.5220685     1437.916     72.49761      1.392     2.53     5.949478     20.44337     194.3699        19     1.033     0.932  46.01   0
       366    686.0414     45.4548 300.3754231 +22.6012900     797.2863     72.42379      1.405     4.18     6.176149     20.44337     101.1845        15     1.208     0.938  71.78   0
       367    755.4642     42.8854 300.3978935 +22.6213218      369.855     72.57137      1.696     5.27     6.244378     20.44337     36.42501         8     0.953     0.821 -68.55   0
       368    702.0009     41.5801 300.3816523 +22.6049508     650.4816     72.38685      1.502     2.87     6.223926     20.44337     67.20753        11     0.866     0.835  18.08   0
       369    971.5227     39.7586 300.4662898 +22.6850461     507.7907     72.44225      1.309     2.57     6.341333     20.44337     66.95685        10     0.923     0.670   0.25   0
       370    168.7729     39.2131 300.2164273 +22.4446420     853.3496     72.46071      1.842     3.52     6.061509     20.44337     89.50098        13     1.109     0.811 -44.14   0
       371   1010.8759     39.2942 300.4787203 +22.6966800     252.3258     72.60822      1.231     3.81     6.569738     20.44337     40.77922         6     1.027     0.405  12.75   0
       372    740.4299     37.1538 300.3950643 +22.6151752     412.3214     72.49761      1.186     4.27     6.319284     20.44337      58.6886         7     0.877     0.592  -4.71   0
       373    704.1382     31.9887 300.3854264 +22.6028314     862.0343     72.40532      1.738     4.38     6.303113     20.44337     67.14694        16     1.458     0.791  63.31   0
       374    689.0215     33.0263 300.3803791 +22.5986070     2744.206     72.44225      1.424     2.70     6.266767     20.44337     333.5719        26     1.190     1.062  53.86   0
       375    329.9726     33.9571 300.2682707 +22.4914062     415.2513     72.47916      1.477     3.30     5.926954     20.44337      54.6503         9     0.901     0.723  65.76   0
       376    775.4176     24.6124 300.4100348 +22.6220343     1639.969     72.42379      1.493     2.57     6.345072     20.44337      201.269        21     1.176     1.003  76.92   0
       377    936.0126     22.9778 300.4606483 +22.6695976     294.9872     72.44225      1.230     4.43     6.195661     20.44337     36.75234         6     0.900     0.668  43.12   0
       378    713.3630     17.9390 300.3928538 +22.6015500     657.9799     72.47916      1.273     2.32     6.430441     20.44337     102.7017        11     0.901     0.713  -6.47   0
       379    179.1379   1021.8293 299.9006184 +22.7297441     281.0906     65.72471      1.802     5.50     101.1865     20.44337      30.6199         5     1.186     0.720 -80.21  16
       380    318.0644   1013.6924 299.9464693 +22.7691014     1589.299     72.57137      2.579     4.97     9.954062     20.44337     99.60843        30     1.538     1.361  22.91   0
       381    423.2316     15.2918 300.3033421 +22.5139617     777.5638     72.40532      1.395     2.25     5.997492     20.44337     105.2501         9     0.833     0.683   5.93   0
       382    805.2925     14.1028 300.4227543 +22.6279473     416.6485     72.64504      1.430     3.55     6.350028     20.44337     53.87299         5     0.951     0.453 -25.05   0
       383    153.8555   1008.6010 299.8970624 +22.7183639     1708.819     72.38685      3.845    13.27     91.92667     20.44337     51.43095        44     2.948     1.661 -22.67  18
       384     99.0444    943.8291 299.9010948 +22.6833457     5667.474     72.49761     26.886   110.00     25.34702     20.44337     1274.709      4241    21.041    15.955 -80.00  18
       385    111.1781   1011.4938 299.8828562 +22.7063834     3826.551     72.38685     13.763    77.87     88.02879     20.44337     146.7823      1535    15.860    10.608  44.03  27
       386    195.9991    993.2172 299.9151686 +22.7266020     2024.528     72.36837      7.509    14.43     74.36486     20.44337       53.993        44     3.291     1.760 -74.16   3
