#   1 NUMBER                 Running object number                                     
#   2 X_IMAGE                Object position along x                                    [pixel]
#   3 Y_IMAGE                Object position along y                                    [pixel]
#   4 ALPHA_J2000            Right ascension of barycenter (J2000)                      [deg]
#   5 DELTA_J2000            Declination of barycenter (J2000)                          [deg]
#   6 FLUX_APER              Flux vector within fixed circular aperture(s)              [count]
#   7 FLUXERR_APER           RMS error vector for aperture flux(es)                     [count]
#   8 FLUX_RADIUS            Fraction-of-light radii                                    [pixel]
#   9 FWHM_IMAGE             FWHM assuming a gaussian core                              [pixel]
#  10 BACKGROUND             Background at centroid position                            [count]
#  11 THRESHOLD              Detection threshold above background                       [count]
#  12 FLUX_MAX               Peak flux above background                                 [count]
#  13 ISOAREA_IMAGE          Isophotal area above Analysis threshold                    [pixel**2]
#  14 A_IMAGE                Profile RMS along major axis                               [pixel]
#  15 B_IMAGE                Profile RMS along minor axis                               [pixel]
#  16 THETA_IMAGE            Position angle (CCW/x)                                     [deg]
#  17 FLAGS                  Extraction flags                                          
         1    502.9515     15.5149 300.3325315 +22.5432094     1112.013     72.32301      1.502     2.56     5.365591     20.40972     145.2695        17     1.052     0.972  68.16   0
         2    406.7688     13.5384 300.3032251 +22.5138547       810.03     72.35986      1.361     3.05     5.303645     20.40972     101.0265        16     1.104     0.880  31.19   0
         3    789.1030     12.3198 300.4227338 +22.6278997     406.2448     72.47031      1.358     4.80     5.371895     20.40972     42.18372         8     1.018     0.643  12.21   0
         4    340.8034      9.0602 300.2841443 +22.4928216     1604.352     72.32301      0.506     2.48     5.187438     20.40972     1139.926         8     0.476     0.388   7.15   0
         5    746.3119      4.4292 300.4119483 +22.6128309     643.9119     70.24739      1.446     3.25     5.336669     20.40972     75.14939        11     1.074     0.692  49.30  16
         6    178.1649      3.4069 300.2353804 +22.4425030     3775.545     66.64452      1.627     2.80     5.866778     20.40972     404.4282        38     1.473     1.186  22.95  24
         7    503.9590      1.3505 300.3374328 +22.5394383     132.4839     56.37222      1.120     3.30     5.369665     20.40972      35.6157         5     0.868     0.477   1.23  24
         8    301.8578   1011.8666 299.9465699 +22.7690439     1651.251     72.37828      3.791     5.88     6.865569     20.40972     74.82304        29     1.607     1.432  -6.56   0
         9     92.1409   1009.2721 299.8822045 +22.7053705     4920.326     72.37828     16.743    82.51     79.30422     20.40972     150.0272      2051    16.779    12.699  43.04  27
        10     83.6500    944.7403 299.9005488 +22.6843252      6096.26      72.3967     31.595   121.81     22.32915     20.40972     1316.505      5207    22.242    18.509 -54.24  19
        11    640.1905    986.5801 300.0601220 +22.8632557     8796.404     72.32301      2.073     5.16     4.714735     20.40972     503.2496        51     1.624     1.534   4.73   3
        12    174.7649    983.1740 299.9163753 +22.7226848     1042.951     72.35986      4.822    11.01     67.63394     20.40972     39.00012        17     2.512     1.344  24.59   3
        13    175.1917    974.4789 299.9193353 +22.7203201     1600.933     72.28614      4.571     9.93     59.80378     20.40972     62.70085        22     2.617     1.051 -78.73   3
        14    171.2405    970.1599 299.9195113 +22.7178963     1447.833     72.41511      5.795    12.54     56.85585     20.40972     46.51324        31     2.645     1.655  84.06   3
        15    933.0946    970.6387 300.1566191 +22.9464607      688.283     72.32301      1.959     6.95     4.278183     20.40972     37.29474        16     1.473     0.919 -15.31   0
        16    155.1267   1006.6934 299.9026215 +22.7235341     660.6139     72.47031      1.839     4.74     89.27971     20.40972     45.03428        13     1.273     0.926 -29.92   0
        17    139.4170   1006.8019 299.8977026 +22.7188508     1719.304     72.24924      3.540    14.07     87.74905     20.40972     51.49599        43     2.647     2.081 -39.20   2
        18    152.6134    954.9282 299.9186727 +22.7079402     1944.645     72.34144      7.235    14.31     44.16256     20.40972     53.94767        36     3.378     1.685  69.04   2
        19    658.4504    953.7122 300.0764994 +22.8592967     6897.506     72.34144      1.961     4.31     4.671045     20.40972     395.5031        48     1.566     1.418   7.24   0
        20    362.0464    998.4332 299.9696648 +22.7832474     385.2539     72.37828      1.578     4.26     4.556836     20.40972     48.52041         6     1.044     0.495   0.81   0
        21    538.6638    948.2366 300.0409670 +22.8218144      483.896     72.34144      2.218     6.02     4.084229     20.40972     38.52115         7     1.524     0.669  65.01   0
        22    811.4799    947.5164 300.1262105 +22.9033823     265.0894      72.4887      1.078     3.72     4.363712     20.40972     32.40882         6     0.961     0.415  71.26   0
        23    186.4387   1003.7590 299.9133108 +22.7320891     885.6198     72.43351      2.699    12.26     84.81866     20.40972     46.33407        21     2.997     1.396 -71.32   3
        24    566.9354    944.3038 300.0510504 +22.8291622     1586.372     72.45191      1.891     4.36     4.252613     20.40972     121.8213        24     1.297     1.224  11.32   0
        25    252.5788    995.7440 299.9364849 +22.7496364     2560.793     72.37828      5.237    26.58     44.57199     20.40972     62.57844       161     7.084     2.770 -27.01  19
        26    460.5339    940.9959 300.0189948 +22.7963100     943.8169     72.34144      1.752     5.94     4.267518     20.40972     76.47363        17     1.394     0.942 -27.59   0
        27    391.3063    938.7789 299.9981680 +22.7749134     6570.052     72.26769      1.901     4.11     4.598463     20.40972     487.6698        45     1.490     1.447 -11.53   0
        28    701.7839    929.3648 300.0979190 +22.8652970     233.7746     72.34144      1.306     3.44     4.550858     20.40972        28.89         5     0.765     0.448 -16.62   0
        29    424.4060    925.5322 300.0127766 +22.7810398      465.099     72.30457      1.516     5.27     4.533665     20.40972     43.45633         8     1.373     0.571  63.66   0
        30    937.8609    917.6593 300.1753335 +22.9326737     2154.453     72.39669      2.057     5.11     4.611009     20.40972     109.3961        31     1.511     1.364 -80.97   0
        31      8.9161   1001.9356 299.8587292 +22.6782878      2753.27     72.45191     17.183    57.40    -22.32625     20.40972     77.79338       909    15.881     5.756  85.02  24
        32    588.4855    915.1687 300.0672353 +22.8272618     446.7366     72.34144      2.307     4.19     4.377314     20.40972     44.43465         5     0.784     0.638 -26.20   0
        33    726.6002    906.5981 300.1130551 +22.8661989      719.653     72.11998      1.853     4.23     4.518056     20.40972     64.07722        14     1.173     0.968  23.97   0
        34    177.9988    996.4954 299.9130488 +22.7274742     2918.929     72.24924      6.328    27.09     78.62385     20.40972      82.4786       189     5.593     4.384 -56.51  19
        35    553.7145    991.3353 300.0316391 +22.8386933     2365.022     72.43351      1.947     4.44     4.109541     20.40972     142.0991        34     1.455     1.356  18.57   0
        36    783.6301    894.4100 300.1347944 +22.8797894     11201.18     72.34144      1.872     4.27     4.506205     20.40972     713.1538        51     1.493     1.426  -8.00   0
        37    761.5334    901.0131 300.1257594 +22.8750640     1035.386     72.32301      1.733     4.43     4.508671     20.40972     73.35487        20     1.374     1.009  41.03   0
        38    973.9702    894.6862 300.1940681 +22.9368916     478.6235     72.34144      2.083     4.53     4.610031     20.40972     29.08608         6     0.921     0.635  37.52   0
        39    828.9443    894.8100 300.1487926 +22.8934817     504.4159     72.34144      1.765     6.11     4.355156     20.40972     36.97351         9     1.257     0.836  50.13   0
        40    226.1515    984.7363 299.9318457 +22.7385513     5457.207     72.35986     10.613    46.76     62.59881     20.40972     96.73111       565     9.732     6.236 -54.69  19
        41    539.1888    901.5342 300.0563145 +22.8085705     413.0072     72.28614      1.561     3.38     4.148651     20.40972     33.76728         5     0.742     0.448 -21.68   0
        42     94.5597    886.0148 299.9230299 +22.6707638     1190.839     72.35986      6.945     6.93     8.600099     20.40972     51.87762        22     1.492     1.377  26.36   0
        43    834.9503    882.2913 300.1547351 +22.8916863     430.9792     72.35986      1.767     6.56     4.327512     20.40972     42.75759         8     1.247     0.968  74.73   0
        44    489.3886    882.4390 300.0470150 +22.7881606     416.0784     72.32301      1.764     3.88     4.240438     20.40972     35.99329         6     0.888     0.486  87.02   0
        45    244.7824    973.4365 299.9413142 +22.7409011     8159.045     72.34144     10.097    33.04     38.22164     20.40972     162.8434       794    10.914     5.079  64.15  19
        46    792.2175    876.5209 300.1432871 +22.8772260     1246.546     72.34144      1.744     4.38     4.500217     20.40972     97.67169        21     1.307     1.112  -8.52   0
        47    975.4530    875.9421 300.2006244 +22.9319515     341.0178      72.3967      1.574     3.74      4.59155     20.40972     32.32725         6     0.812     0.495  85.45   0
        48    644.4220    873.4147 300.0982344 +22.8320442     438.8529     72.34144      1.755     4.63     4.413812     20.40972     37.16324         8     0.994     0.800  -8.89   0
        49    830.3000    869.8752 300.1573211 +22.8867276     995.7092     72.47031      2.043     5.99     4.356326     20.40972     49.82438        21     1.302     1.201 -27.69   0
        50    878.5900    861.1345 300.1752216 +22.8986841     595.2845     72.30457      1.769     5.73     4.305312     20.40972     47.54673        13     1.135     0.872 -52.48   0
        51    729.8235    860.1888 300.1291464 +22.8538408     696.6795     72.34144      1.804     4.90     4.498264     20.40972     53.65325        13     1.232     0.882  26.94   0
        52    741.0688    857.6031 300.1334919 +22.8564681     545.8726     72.32301      1.693     4.94     4.495991     20.40972     45.14749        13     1.159     0.932 -54.40   0
        53    442.6207    856.4889 300.0408902 +22.7666924     4237.658     72.26769      1.793     3.76     4.508377     20.40972     320.2373        36     1.350     1.319 -27.29   0
        54    538.7796    852.0615 300.0722685 +22.7942500      405.402     72.30457      0.510     0.79     4.231647     20.40972      309.225         5     0.464     0.345 -42.30   0
        55    182.1342    998.5826 299.9136558 +22.7293134     1438.524     72.32301      4.968     9.35     80.82801     20.40972     61.13904        21     2.378     1.027  80.65   3
        56    486.0164    844.3030 300.0583606 +22.7762061     290.4361     72.24924      1.632     5.46     4.358719     20.40972     30.45325         7     1.165     0.721   0.76   0
        57     85.5679    844.1156 299.9338529 +22.6560529       291.02     72.32301      1.227     3.47     6.213245     20.40972     33.47748         5     0.811     0.428 -68.83   0
        58    167.7836    842.2620 299.9600124 +22.6801866     778.4655     72.32301      1.803     5.85     7.124403     20.40972     60.34213        14     1.157     1.125  81.22   0
        59    144.9525    838.9473 299.9539915 +22.6723870     1534.027     72.37828      1.907     3.72     6.892571     20.40972     144.1211        32     1.501     1.352 -23.92   0
        60   1016.7088    828.5657 300.2288977 +22.9306964     2146.765     72.32301      2.022     4.76     4.478501     20.40972     111.8914        32     1.529     1.304  56.09  16
        61    971.1292    826.8978 300.2152171 +22.9165674     1897.859     72.47031      1.864     4.90     4.559154     20.40972     127.2815        31     1.466     1.332  -0.49   0
        62    676.6365    827.3271 300.1232518 +22.8284679     415.5564     72.28614      1.669     4.20     4.504576     20.40972     30.45572         6     1.118     0.450   7.43   0
        63    447.4593    825.7871 300.0523745 +22.7593333     281.3842     72.32301      1.524     4.32     4.670525     20.40972      33.2515         5     0.936     0.567  40.90   0
        64    754.4868    820.7601 300.1496491 +22.8499094     561.5644     72.32301      1.777     6.33     4.495991     20.40972     44.05405        13     1.158     0.971 -35.37   0
        65    176.7134    820.8444 299.9697489 +22.6767231     511.2346     72.32301      1.849     6.42     5.977248     20.40972     49.49044         9     1.331     0.870  12.87   0
        66    622.6357    814.6405 300.1105496 +22.8086428     4787.086      72.3967      1.682     3.48     4.337631     20.40972     416.6928        35     1.275     1.262  89.94   0
        67    645.6003    984.4821 300.0624897 +22.8642754     9539.655     72.21234      2.018     4.69     4.732805     20.40972     501.3534        53     1.602     1.497  54.35   3
        68    424.6693    811.9133 300.0497890 +22.7485195     523.4037     72.45191      1.662     5.05     4.909834     20.40972     61.75028        14     1.283     0.986  -0.24   0
        69    643.4079    807.2596 300.1194198 +22.8127489     760.2081     72.30457      1.638     4.26     4.405661     20.40972     68.01307        17     1.205     1.008 -77.58   0
        70    172.7989    808.2311 299.9726305 +22.6719314     1412.387     72.30457      1.819     4.12     5.382122     20.40972     115.1181        26     1.454     1.144  -1.94   0
        71    191.6940    805.7086 299.9793253 +22.6768755     453.7453     72.50708      1.874     5.50     5.293485     20.40972     40.92885         8     1.212     0.704 -49.25   0
        72    560.1851    798.1673 300.0964499 +22.7851971     343.8988     72.32301      2.017     4.96     4.317076     20.40972     36.48012         7     1.393     0.501 -14.33   0
        73   1015.7231    794.7240 300.2395886 +22.9206777     1239.223     72.43351      1.981     5.39     4.396104     20.40972      76.5782        24     1.494     1.233  62.03  16
        74    798.7161    794.4290 300.1719944 +22.8555985     4213.765     72.34144      1.724     3.71     4.495991     20.40972     320.2675        36     1.393     1.255 -45.98   0
        75    207.3307    788.3715 299.9898209 +22.6765928     401.3329     72.34144      1.418     3.94     5.137451     20.40972     55.76468         8     0.943     0.732 -31.96   0
        76    515.8526    787.2500 300.0861913 +22.7687757     584.6188     72.37828      1.486     4.13       4.4219     20.40972     58.54193        12     1.114     0.755   0.09   0
        77    162.0634    784.7470 299.9769232 +22.6619759     942.8414      72.3967      1.656     4.11     5.004315     20.40972     88.76102        18     1.274     0.967 -13.29   0
        78    311.6798    776.7866 300.0260418 +22.7045626     53716.16     72.32301      1.728     3.55     5.269206     20.40972     4674.475        94     1.492     1.477  32.79   0
        79    577.6220    780.2927 300.1076890 +22.7852920     568.8742     72.24924      1.624     4.98     4.413772     20.40972     59.45707        10     1.185     0.742 -18.21   0
        80    569.7468    776.0738 300.1066070 +22.7817207     1625.908     72.35986      1.579     3.55     4.412819     20.40972     143.9924        22     1.188     1.092  52.89   0
        81    982.9075    775.2911 300.2356633 +22.9052676     858.4019     72.50708      1.802     4.83     4.553843     20.40972     66.55482        22     1.322     1.179 -24.66   0
        82    285.4066    774.3778 300.0186510 +22.6959932     198.4304     72.32301      1.403     4.26       5.3032     20.40972     36.89563         6     1.339     0.385  44.89   0
        83    239.9420    774.4686 300.0044799 +22.6823852     576.1453     72.35986      2.127     5.71     5.199406     20.40972     49.93671         7     1.055     0.869  20.74   0
        84    598.5298    772.0270 300.1168873 +22.7891849     740.1674     72.34144      1.544     4.44      4.51867     20.40972     76.24497        15     1.182     0.939 -51.15   0
        85    609.3431    770.6497 300.1207033 +22.7920300     536.9468      72.3967      1.725     4.85     4.557702     20.40972     55.59493        10     1.207     0.840 -16.61   0
        86    929.1567    768.3774 300.2211400 +22.8871850     227.2244     72.39669      1.700     4.37     5.014717     20.40972     28.74948         5     1.133     0.479  -4.17   0
        87    714.9983    766.5679 300.1549509 +22.8225163     390.1718     72.30457      1.549     4.24     4.495991     20.40972     50.11805        10     1.072     0.867  79.72   0
        88    752.7097    756.9832 300.1698194 +22.8310618     779.3132     72.26769      1.577     3.60     4.495991     20.40972      77.6144        15     1.088     0.963  40.08   0
        89    361.4019    754.0754 300.0488914 +22.7129544     31685.23     72.24924      1.674     3.30     5.090319     20.40972     3016.288        77     1.469     1.386   0.39   0
        90    375.5995    754.6662 300.0531177 +22.7173804     1970.512     72.32301      1.725     3.67     4.957205     20.40972     184.7607        25     1.246     1.152 -35.84   2
        91    372.6849    748.7971 300.0541174 +22.7148225     686.9242     72.26769      1.824     4.57     4.961094     20.40972     48.51984        12     1.223     0.757  60.92   3
        92    884.5827    750.2615 300.2131223 +22.8686313     2905.202     72.30457      1.765     3.59     5.210117     20.40972     222.7094        33     1.331     1.263  11.37   0
        93    913.9185    748.9478 300.2226995 +22.8770394     291.1882     72.37828      1.393     3.60     5.220325     20.40972      33.8912         5     1.005     0.370  56.99   0
        94    642.4374    746.0894 300.1389933 +22.7948952     1088.075     72.32301      1.673     3.83     4.626823     20.40972     88.29024        22     1.277     1.128 -10.62   0
        95    244.2269    745.8956 300.0150953 +22.6754733     681.4114     72.26769      1.575     3.47     5.166707     20.40972     67.90384        12     0.941     0.862 -74.69   0
        96    489.4416    741.0084 300.0929915 +22.7475864      893.688     72.35986      1.723     3.84     4.415587     20.40972     92.00322        18     1.202     1.047  19.49   0
        97     49.2524    741.6111 299.9558717 +22.6157653     344.7722     72.34144      1.199     3.92     5.213253     20.40972     51.39828         7     0.960     0.582 -76.74   0
        98    890.6539    737.9437 300.2190179 +22.8669108     552.4232      72.3967      1.683     5.32     5.338985     20.40972     40.86039        10     1.218     0.655  43.64   0
        99    435.7079    736.0079 300.0778875 +22.7300450     565.5206     72.24924      1.900     3.82     4.417671     20.40972     58.10602         9     1.036     0.825 -62.91   0
       100    391.2916    737.2446 300.0636610 +22.7170853     257.9693     72.32301      1.533     3.54     4.707262     20.40972     57.09422         6     0.773     0.673 -51.29   0
       101    347.9661    736.8105 300.0503194 +22.7039719     295.2115     72.32301      1.084     2.82     5.156294     20.40972     46.20143         6     0.890     0.439  37.93   0
       102    479.0473    746.0474 300.0881182 +22.7459174     443.5714     72.37828      1.752     5.09     4.432315     20.40972     41.50347         8     0.988     0.742  -0.04   0
       103     77.4605    735.0894 299.9667566 +22.6223569     555.0317     72.43351      1.872     5.74     5.092247     20.40972     45.99332         9     1.235     0.751 -11.96   0
       104    868.7949    732.9201 300.2138324 +22.8589212     332.8499     72.26769      1.405     4.02     5.363552     20.40972     56.13947         7     0.989     0.552 -10.96   0
       105    241.7049    730.2908 300.0193802 +22.6702402     497.4919     72.52547      1.562     4.09     5.147716     20.40972     49.11207        11     1.180     0.716 -22.84   0
       106    564.7924    720.8741 300.1229973 +22.7643889     393.6546     72.30457      1.519     4.23     4.663421     20.40972     41.85738        11     0.969     0.829  27.38   0
       107    534.8292    719.0810 300.1142480 +22.7548948     585.9365     72.35986      1.475     3.86     4.588921     20.40972     59.95469        13     0.993     0.926 -64.57   0
       108    951.0719    715.6173 300.2451185 +22.8785883     4457.464     72.34144      1.701     3.61     5.116681     20.40972     341.6102        39     1.371     1.345  64.19   0
       109    556.3198    716.3906 300.1218149 +22.7605626     1366.728     72.28614      1.560     3.37     4.663602     20.40972     136.1305        20     1.194     0.990  14.66   0
       110    443.7683    717.2776 300.0864812 +22.7270851     315.2286     72.32301      1.623     4.79     4.610902     20.40972     40.49632         6     0.998     0.651  40.73   0
       111    476.5475    715.9327 300.0971229 +22.7365239     292.5096     72.35986      1.345     2.63     4.625625     20.40972     42.14338         6     0.770     0.497  88.00   0
       112    638.3450    711.4113 300.1489839 +22.7837113     369.1464     72.34144      1.189     3.38     4.788535     20.40972     49.52097         5     0.734     0.482  10.46   0
       113    939.5952    707.0688 300.2443150 +22.8726955     1693.535     72.30457      1.693     3.69     5.270961     20.40972     126.1778        25     1.257     1.159 -37.88   0
       114    707.5969    706.5338 300.1721479 +22.8030580     295.9791     72.34144      1.401     4.12     4.673976     20.40972     31.07728         5     0.983     0.493   5.22   0
       115    168.9798    701.6147 300.0060792 +22.6402047     380.4398     72.32301      1.669     4.48     5.048239     20.40972     28.66599         5     0.996     0.574  74.42   0
       116    302.3254    700.4431 300.0479321 +22.6798526     917.0366     72.32301      1.676     3.56     5.225514     20.40972     88.17602        17     1.194     0.929  59.27   0
       117    765.9356    698.2234 300.1930314 +22.8181466     2468.551     72.32301      1.651     3.33     4.727856     20.40972     215.1209        29     1.428     1.087   7.32   0
       118    970.6431    697.1876 300.2572117 +22.8791522     1686.691     72.32301      1.710     3.76     4.959458     20.40972     125.6252        28     1.397     1.175 -18.83   0
       119    848.6637    684.0117 300.2234420 +22.8388411     449.0283     72.30457      1.825     4.82     5.362966     20.40972     41.32374         7     1.326     0.496  11.69   0
       120    151.3625    684.2385 300.0062453 +22.6299367      690.879     72.41511      1.578     4.61     5.069645     20.40972     55.74315        10     1.051     0.755  -9.03   0
       121    884.2780    675.1509 300.2374272 +22.8469602     149326.2     72.34144      1.648     3.23     5.534969     20.40972      12399.3       161     1.551     1.495  -6.40   0
       122    646.6536    678.9004 300.1621327 +22.7768644     300.6899     72.43351      1.234     5.45     4.902815     20.40972     42.55362         9     1.271     0.712  42.92   0
       123    736.4464    675.5633 300.1911994 +22.8028046     774.3765     72.37828      1.613     4.91     4.837879     20.40972     66.17265        16     1.335     0.949 -16.49   0
       124    916.8268    668.2246 300.2498296 +22.8547160     241.8621     72.30457      1.305     4.55     5.458164     20.40972     49.36211         9     0.966     0.650  22.10   0
       125    570.3357    663.8134 300.1432577 +22.7496663     1586.952     72.30457      1.475     3.04     5.031186     20.40972     188.6532        22     1.164     1.036  12.75   0
       126    751.7567    661.2051 300.2006351 +22.8032661     9290.112     72.35986      1.548     2.97     4.863418     20.40972      915.525        44     1.277     1.248  82.86   0
       127    253.1611    656.0577 300.0470535 +22.6523760     4802.679     72.34144      1.608     3.20     5.169161     20.40972     501.2397        40     1.343     1.268   7.04   0
       128    335.4073    654.3920 300.0731810 +22.6765544     1118.671     72.19388      1.416     2.62     5.142122     20.40972     135.1333        15     0.969     0.893 -25.16   0
       129    211.1075    651.8324 300.0353464 +22.6385549     464.1233     72.26769      1.434     4.92     5.113143     20.40972     56.04564         7     1.158     0.592  45.33   0
       130    543.6115    649.9033 300.1394518 +22.7376647     728.4037      72.2308      1.392     2.80     5.057821     20.40972     102.8559        13     0.960     0.861   5.99   0
       131    535.1525    641.9294 300.1394068 +22.7328405     3285.264     72.32301      1.477     3.04     5.062785     20.40972      335.544        29     1.171     1.139  32.26   0
       132    525.4935    635.7474 300.1384063 +22.7281713     1434.238      72.3967      1.491     2.76     5.066466     20.40972     174.2953        18     1.034     0.989  14.16   0
       133    919.5333    634.2189 300.2617180 +22.8457541     346.0482     72.32301      1.619     5.56     5.353937     20.40972     41.95793        10     1.249     0.698 -49.63   0
       134    453.5756    635.3715 300.1161356 +22.7065124     388.1924     72.34144      1.639     4.12     5.061738     20.40972     38.82831         5     1.018     0.475  -5.50   0
       135    188.7895    631.7554 300.0349256 +22.6261025     592.8998     72.35986      1.611     4.07     5.098182     20.40972     59.05154        12     1.005     0.890 -72.65   0
       136    203.1960    630.2218 300.0399034 +22.6299820     654.2078     72.30457      1.430     3.77     5.107703     20.40972     79.37827        10     1.059     0.646 -21.39   0
       137    972.6431    627.1687 300.2805771 +22.8596278     460.4342     72.39669      1.637     4.66     5.101077     20.40972     44.92456         9     1.105     0.693 -47.30   0
       138    228.7231    627.0834 300.0488612 +22.6367349     660.0028     72.45191      1.674     4.51     5.129306     20.40972     69.79008        12     1.172     0.837  39.32   0
       139    450.2580    625.6235 300.1182682 +22.7027196     1849.464     72.34144      1.610     2.98     5.059747     20.40972     180.6332        26     1.280     1.145  -7.07   0
       140    259.8300    626.8848 300.0586009 +22.6460038     469.4427     72.34144      1.906     5.29     5.180786     20.40972     44.65736         8     1.155     0.684  18.97   0
       141    549.2702    626.1293 300.1489343 +22.7325336     435.5684     72.43351      1.329     3.07      5.06986     20.40972      56.8767        10     0.945     0.706  23.85   0
       142    484.2345    624.8200 300.1291072 +22.7126705     248.9464     72.35986      1.144     3.36     5.073531     20.40972     35.12656         5     0.939     0.348  43.60   0
       143    104.1169    620.1025 300.0123847 +22.5973695     19743.44     72.50708      1.767     3.36     5.117903     20.40972     1845.621        71     1.523     1.461  18.66   0
       144     25.3214    622.0457 299.9872653 +22.5742959     688.7856     72.32301      1.575     3.74     5.530443     20.40972     73.91239        10     1.095     0.688 -11.23   0
       145    535.2702    620.6734 300.1463458 +22.7267722     1012.224     72.41511      1.458     3.02     5.069813     20.40972      100.431        16     1.019     0.950   0.30   0
       146    569.6909    620.1757 300.1572278 +22.7369422     349.7618     72.28614      1.357     2.52     5.092829     20.40972     49.54703         5     0.745     0.423 -72.39   0
       147    906.2066    616.6155 300.2632773 +22.8367052     199.1391     72.26769      1.223     3.49     5.212256     20.40972     28.88193         5     0.786     0.448 -17.07   0
       148    590.3710    613.2409 300.1659212 +22.7411462     220.4177     72.35986      1.663     3.42     5.126951     20.40972     31.48486         5     0.735     0.461  75.37   0
       149    953.0757    607.3669 300.2809021 +22.8480786     1053.997     72.34144      1.698     3.28     5.214085     20.40972     109.2474        18     1.128     0.968  42.17   0
       150    618.3928    608.0369 300.1763404 +22.7480463     299.4643     72.34144      1.448     4.73     5.138647     20.40972     43.23287         8     1.085     0.584 -69.42   0
       151    116.4043    605.5930 300.0209150 +22.5968914     396.5903     72.17541      2.274     6.96     5.106631     20.40972     49.33907        13     1.534     1.070 -60.31   0
       152     50.3373    604.4027 300.0007670 +22.5767377     1443.926     72.34144      2.083     4.82     5.396334     20.40972     119.2739        28     1.632     1.144 -82.34   0
       153    820.3079    605.0628 300.2402389 +22.8076659     583.1587     72.45191      1.511     3.74     4.852263     20.40972     60.58736        11     1.014     0.766 -20.21   0
       154    498.5980    601.4915 300.1411542 +22.7102762     449.4902     72.24924      1.360     4.21     5.100586     20.40972     55.97448         7     0.895     0.661 -19.14   0
       155    893.2797    600.0768 300.2646154 +22.8280820     788.1901     72.45191      1.944     3.65     5.033885     20.40972      67.2799        13     1.058     0.992  29.42   2
       156    889.4006    599.6741 300.2635362 +22.8268049     349.4632      72.2308      1.260     3.10      5.00636     20.40972     47.02101         5     0.757     0.461  27.94   3
       157    455.3785    593.7490 300.1302116 +22.6951027     752.6754     72.34144      1.621     3.71     5.088832     20.40972     70.47237        13     1.155     0.802  -8.80   0
       158    603.3452    592.3226 300.1767548 +22.7390252     438.6039     72.37828      1.285     3.84     5.215781     20.40972     52.27252         9     0.955     0.679   7.60   0
       159    650.4305    590.6111 300.1919800 +22.7526380     394.4209     72.34144      1.406     3.13      5.09693     20.40972     61.39504         9     1.117     0.675  49.88   0
       160    621.1167    590.4137 300.1829110 +22.7438005     605.3594     72.30457      1.590     3.28     5.191066     20.40972     60.27826         8     0.828     0.703  55.32   0
       161    499.5603    589.6041 300.1453134 +22.7071511     994.2974     72.35986      1.655     3.13     5.138059     20.40972     98.77806        14     1.026     0.877  14.61   0
       162    933.3904    585.1790 300.2819649 +22.8358084     3416.921     72.32301      1.640     3.29     5.155121     20.40972     318.4777        32     1.299     1.202  18.19   0
       163    465.1131    584.9021 300.1361145 +22.6954794     1773.461     72.50708      1.507     2.86     5.117999     20.40972     202.0013        18     1.037     0.982  26.39   0
       164     26.8785    578.2499 300.0019674 +22.5622003      5010.48     72.34144      1.833     3.65     5.588197     20.40972     477.2385        42     1.485     1.337  42.04   0
       165    972.6369    575.2936 300.2974193 +22.8447150     348.1918     72.32301      1.736     4.30     4.985484     20.40972     34.16229         7     1.184     0.445 -27.48   0
       166    494.2989    575.4766 300.1482616 +22.7015179     408.0348     72.48869      1.320     3.48     5.181457     20.40972     41.62831         5     0.749     0.465  17.95   0
       167    328.4398    571.5536 300.0979095 +22.6506890     9154.289      72.3967      1.545     2.72     5.119081     20.40972     1128.626        42     1.263     1.206  76.49   0
       168    450.8449    568.6534 300.1369475 +22.6865386     9069.254     72.35986      1.485     2.81     5.126699     20.40972     1023.388        44     1.240     1.217 -85.05   0
       169    862.6653    562.8231 300.2671622 +22.8082100      1927.38     72.32301      1.601     3.23     4.790888     20.40972     186.4701        25     1.252     1.135  87.40   0
       170    697.9864    564.9097 300.2151436 +22.7594984     395.6812     72.28613      1.625     4.40     5.004805     20.40972     34.85513         6     1.130     0.487 -29.54   0
       171    947.2973    560.1970 300.2944144 +22.8327906     12505.98     72.24924      1.606     3.20     4.956988     20.40972     1173.014        49     1.363     1.315 -51.92   0
       172    511.4964    558.2749 300.1592009 +22.7017307     11620.26     72.48869      1.425     2.66     5.266341     20.40972     1246.681        42     1.193     1.172  50.84   0
       173    239.0564    553.7789 300.0758733 +22.6187956     1462.526     72.37828      1.612     4.11     4.923172     20.40972     142.1456        26     1.367     1.152  70.23   0
       174    681.0310    554.3608 300.2132841 +22.7513898     509.5892     72.34144      1.387     3.06     5.098898     20.40972     59.33557         9     0.866     0.691  53.18   0
       175    485.5128    551.0872 300.1534434 +22.6918818     408.3616     72.50708      1.321     3.12     5.240802     20.40972     53.52437         8     0.776     0.706  20.24   0
       176    545.0357    549.7733 300.1724056 +22.7093370     346.0809     72.34144      1.421     3.76     5.368425     20.40972     31.36379         5     0.810     0.502  50.81   0
       177    443.1341    546.4435 300.1417567 +22.6778508     4596.647     72.32301      1.461     2.63     5.144142     20.40972     491.3113        32     1.196     1.111  42.63   0
       178    786.1430    546.7614 300.2485147 +22.7806830     813.5809     72.34144      1.434     4.32     4.853943     20.40972     86.00336        16     1.295     0.852   7.14   0
       179    421.6679    544.8701 300.1355852 +22.6709669      1313.69      72.3967      1.415     2.63     5.089686     20.40972     172.1366        18     1.135     0.942   7.39   0
       180    862.9987    542.1124 300.2739895 +22.8023575     1626.724     72.26769      1.637     3.42     4.765596     20.40972     146.7202        23     1.234     1.060 -28.67   0
       181    559.8019    534.0229 300.1821173 +22.7092367     207108.9     72.28614      1.456     2.74     5.383271     20.40972      24806.4       186     1.483     1.407 -21.29   0
       182    109.5644    541.7774 300.0395046 +22.5765307     463.2792     72.35986      1.920     6.02     5.058433     20.40972     37.04811         8     1.212     0.840 -21.85   0
       183    963.5660    540.7484 300.3058040 +22.8320694     221.5313     72.35986      1.564     4.28     4.858264     20.40972     35.01069         5     0.993     0.700  -6.55   0
       184    383.2827    540.0898 300.1251894 +22.6580922      374.676     72.45191      1.491     2.58     5.109244     20.40972     51.34721         6     0.865     0.555 -21.70   0
       185    743.5919    538.9502 300.2377853 +22.7656972     802.0096     72.34144      1.358     3.22     4.878434     20.40972     89.96693        14     1.013     0.916  67.77   0
       186    948.0300    536.0133 300.3024938 +22.8260581     338.3602     72.34144      1.268     2.26     4.850149     20.40972     44.74127         5     0.622     0.564  -0.33   0
       187    245.8320    533.8859 300.0844378 +22.6151169     3547.268     72.32301      1.602     3.35     4.886472     20.40972     328.2956        32     1.350     1.145  29.48   0
       188    811.6424    530.2839 300.2618140 +22.7835827      657.268     72.30457      1.523     3.48     4.817225     20.40972     56.80292         8     0.952     0.570  14.89   0
       189    175.8156    544.0408 300.0593672 +22.5970429     649.0523     72.35986      1.534     3.25     4.855424     20.40972     68.70777        12     0.946     0.899 -30.29   0
       190    591.3882    520.8519 300.1962312 +22.7149148       293.08     72.34144      1.423     3.31     5.381842     20.40972     42.35334         6     0.743     0.623  33.68   0
       191    450.4711    514.5114 300.1544054 +22.6708797     2943.175     72.50709      1.574     2.93     5.185088     20.40972     288.5809        32     1.552     1.066  86.04   0
       192    295.1797    516.6321 300.1053884 +22.6249548     457.6353     72.34144      1.603     3.24     4.931849     20.40972     56.71583         9     1.020     0.673 -66.47   0
       193    862.1962    510.6195 300.2839618 +22.7930656     530.3021     72.30457      1.558     4.83     4.759819     20.40972     40.38742        10     0.983     0.734  85.51   0
       194    681.2636    510.1896 300.2276945 +22.7387690     342.1311     72.28614      1.402     3.88     5.143763     20.40972     40.33915         5     0.898     0.481  42.98   0
       195    767.7509    503.2208 300.2569137 +22.7626640      474.558     72.34144      1.386     1.94     4.923663     20.40972      60.3682         6     0.682     0.544 -42.46   0
       196    847.5114    500.6589 300.2826149 +22.7858067     1793.693     72.41511      1.560     2.81     4.762787     20.40972     199.6659        21     1.131     1.058 -88.71   0
       197    734.7668    501.2453 300.2472728 +22.7522203     406.6022      72.3967      1.369     2.84     5.067647     20.40972     44.66085         6     0.725     0.603 -37.68   0
       198    718.6649    498.1926 300.2432447 +22.7465217      2517.26     72.32301      1.422     2.73     5.102197     20.40972     260.6224        25     1.119     1.069  73.32   0
       199    963.3633    496.0755 300.3202412 +22.8191659      438.138     72.30457      1.373     3.32     4.779122     20.40972     55.67847         7     0.842     0.660 -10.44   0
       200    927.9570    495.2414 300.3094654 +22.8083292     291.0274     72.43351      1.370     3.79      4.78521     20.40972     44.30969         6     0.927     0.445  34.52   0
       201    623.5111    494.8495 300.2146778 +22.7170662     429.2563     72.34144      1.442     3.35     5.334103     20.40972      56.8983        11     1.105     0.755  23.53   0
       202    505.9886    494.2060 300.1782813 +22.6816803     659.4189     72.21234      1.385     3.21     5.299256     20.40972     77.33445        11     0.981     0.740   8.04   0
       203    976.0280    492.2593 300.3254315 +22.8218590      1243.87     72.34144      1.560     3.45     4.768713     20.40972     118.4652        21     1.175     1.105 -49.56   0
       204    961.7648    491.5690 300.3212051 +22.8173919     680.7476     72.35986      1.752     5.04     4.772345     20.40972     61.48376        12     1.306     0.763  51.79   0
       205    847.7568    490.7296 300.2859141 +22.7830261     2328.242     72.30457      1.825     3.89     4.757184     20.40972     217.3054        31     1.584     1.191  78.14   0
       206    601.0789    487.7423 300.2099958 +22.7083061     888.4512     72.37828      2.182     7.83     5.380447     20.40972     54.84385        17     1.856     0.923  84.70   0
       207    885.9498    485.7984 300.2994264 +22.7930413     4367.273     72.32301      1.461     2.97     4.759698     20.40972     482.9723        30     1.160     1.139  -6.27   0
       208    439.7201    487.4538 300.1598398 +22.6598884     335.9902     72.37828      1.281     3.10     5.181654     20.40972     48.82213         5     0.714     0.478 -15.19   0
       209    623.0962    482.2931 300.2186235 +22.7133345     229.1069     72.52547      1.138     3.02     5.337692     20.40972      49.2469         6     0.857     0.514  37.95   0
       210    546.1669    481.5788 300.1948916 +22.6900885     310.3922     72.34144      1.318     3.89     5.329948     20.40972     43.83273         8     0.895     0.659 -55.21   0
       211    117.6876    475.8589 300.0634223 +22.5600502     1028.863     72.41511      1.796     3.94     4.859158     20.40972     101.1268        19     1.232     1.132  24.91   0
       212    977.9139    476.3015 300.3311990 +22.8178352     717.5246     72.50708      1.464     3.86     4.754736     20.40972     80.40904        14     1.089     0.975   0.27   0
       213    917.3309    474.5548 300.3128642 +22.7992018     228.3894     72.32301      1.421     4.18     4.794828     20.40972     28.23734         6     1.085     0.460  84.28   0
       214    778.8494    469.9482 300.2711720 +22.7564247     304.5172     72.37828      1.280     3.74     4.905371     20.40972     41.26534         7     0.925     0.595 -72.97   0
       215    383.8865    469.7012 300.1482214 +22.6380623     269.8694     72.50708      1.396     4.04     5.106346     20.40972     35.38131         7     0.848     0.627 -25.87   0
       216    110.2243    466.3991 300.0641718 +22.5550980     269.7386     72.28614      1.162     2.90     4.866335     20.40972      60.1104         6     0.799     0.486  -5.40   0
       217    973.8769    465.6511 300.3333957 +22.8135648     422.0052     72.34144      1.434     3.38     4.774748     20.40972     45.77359         5     0.748     0.443  16.92   0
       218    764.8070    461.2137 300.2696286 +22.7497103     340.9241      72.2308      1.667     4.35     4.964614     20.40972     29.87248         5     0.792     0.681  33.72   0
       219    718.1846    460.4608 300.2553399 +22.7355353     346.0914     72.30457      1.220     3.86     5.065841     20.40972     51.01078         8     0.877     0.675  50.15   0
       220    326.8358    458.8954 300.1339741 +22.6178652     290.3725     72.34144      1.567     4.51     4.900351     20.40972     34.23765         7     1.057     0.547  18.52   0
       221    607.5863    458.1992 300.2216102 +22.7017675     335.9096     72.17541      1.184     3.46     5.365161     20.40972     50.65871         7     0.863     0.584  -9.53   0
       222    659.5007    456.1996 300.2384341 +22.7167393     745.2452     72.17541      1.419     3.39     5.144351     20.40972     79.39055        14     1.089     0.831  -8.75   0
       223    974.1010    449.0776 300.3388438 +22.8088665     504.5245     72.47031      1.418     4.43     4.803601     20.40972     56.41404        11     1.008     0.965  19.36   0
       224    720.1483    448.4097 300.2598625 +22.7326601     932.2177     72.34144      1.400     2.80     5.009187     20.40972     109.6827        15     1.092     0.811 -83.19   0
       225    877.4608    444.7068 300.3101134 +22.7786878      1102.79     72.43351      1.521     3.11     4.936202     20.40972     127.1499        17     1.099     0.972  30.73   0
       226    841.7325    441.7615 300.2999263 +22.7671471     483.9514     72.30457      1.941     4.15     4.942338     20.40972     36.79304         6     0.739     0.667 -13.89   0
       227    861.6411    441.1077 300.3063472 +22.7729181     580.9597     72.34144      1.403     3.39     4.947965     20.40972     79.91041        11     0.913     0.852  76.91   0
       228    605.9739    438.9587 300.2273510 +22.6957566     3169.374     72.39669      1.380     2.57     5.347318     20.40972     416.2393        29     1.163     1.045 -76.58   0
       229    966.0188    438.0510 300.3399000 +22.8032773     538.0562     72.32301      1.488     4.12     4.855506     20.40972     55.08084         9     0.993     0.662  51.46   0
       230     82.2279    430.1053 300.0672448 +22.5362895     332.8468     72.24924      1.346     3.36     5.042769     20.40972     53.08856         6     1.024     0.629   9.45   0
       231    445.7640    425.8024 300.1817260 +22.6439927     499.3665     72.34144      1.785     3.63     5.288903     20.40972     53.00948         9     1.135     0.654  52.32   0
       232   1017.3389    418.0506 300.3624044 +22.8128820     1347.493      72.3967      1.724     3.63     4.600756     20.40972     144.1179        26     1.397     1.181 -49.38  16
       233    888.9465    418.0637 300.3223408 +22.7744656     537.0292     72.37828      1.470     4.19     5.083907     20.40972     68.62861        11     1.107     0.848  41.94   0
       234    975.8328    417.0691 300.3497702 +22.8001806     963.7302     72.32301      1.632     4.58     4.845852     20.40972     96.58351        15     1.260     0.868 -42.36   0
       235    625.6110    415.1868 300.2411817 +22.6948066     222.6832     72.24924      1.133     1.98     5.223255     20.40972      54.9037         5     0.699     0.432 -65.72   0
       236    512.2505    413.5425 300.2064050 +22.6603858     456.9167      72.3967      1.313     2.82     5.345315     20.40972     59.56193         8     0.865     0.644 -52.80   0
       237    716.6679    412.9454 300.2702844 +22.7214260      1037.78     72.37828      1.332     2.83     4.872022     20.40972     136.9853        13     0.958     0.845  21.00   0
       238    220.3452    411.0092 300.1163829 +22.5722054     699.6055     72.34144      1.593     3.29      4.83984     20.40972     77.67167        12     1.082     0.737  33.55   0
       239    282.8904    406.7288 300.1372265 +22.5897187     3740.017     72.50708      1.488     2.58     4.726233     20.40972     463.1646        31     1.210     1.121  84.85   0
       240     60.0876    409.2335 300.0671345 +22.5236624     252.1663     72.30457      1.403     6.08     5.356032     20.40972     32.96622         8     1.607     0.646   6.09   0
       241   1015.9649    405.4955 300.3660490 +22.8088602     4374.879     72.34144      1.569     2.89     4.710646     20.40972     463.8206        34     1.290     1.205  78.89  16
       242    229.9768    401.3802 300.1225022 +22.5723273     7767.728     72.34144      1.527     2.90      4.85215     20.40972     825.3691        46     1.339     1.272  77.90   0
       243    609.1237    401.0866 300.2406195 +22.6858181     357.3828     72.47031      1.932     5.00     5.219344     20.40972     33.57886         8     1.018     0.695 -65.56   0
       244    995.8228    396.6278 300.3626401 +22.8002835     1901.478     72.34144      1.545     3.11     4.862215     20.40972     204.9238        25     1.318     1.094 -33.52   0
       245    370.8283    395.6797 300.1681733 +22.6128929     4813.257     72.35986      1.448     2.54     5.009912     20.40972     654.7778        33     1.177     1.149  65.33   0
       246    615.0771    392.5488 300.2452440 +22.6851475     18631.96     72.34144      1.385     2.49     5.144241     20.40972     2517.457        52     1.239     1.147  67.22   0
       247    632.9279    392.7806 300.2507304 +22.6905590      788.722     72.37828      1.917     6.35     5.081953     20.40972     53.44615        15     1.545     0.733 -36.32   0
       248    462.3481    394.1688 300.1971517 +22.6398739     243.4786     72.35986      1.166     2.28     5.349862     20.40972     45.76731         5     0.726     0.430  69.41   0
       249    858.8956    389.3964 300.3222685 +22.7572300     259.8348     72.24924      1.290     3.64     5.055804     20.40972     34.10688         5     0.869     0.489  -0.29   0
       250    812.0253    383.4316 300.3095871 +22.7414872     276.5905     72.34144      1.151     3.50     4.966485     20.40972     49.17793         6     0.772     0.495  -1.98   0
       251    235.0768    379.7099 300.1311178 +22.5676338     372.0515     72.48869      1.358     2.88     4.893773     20.40972     46.43869         5     0.799     0.462 -52.13   0
       252    948.7325    375.3100 300.3548620 +22.7800631     673.9009     72.48869      1.341     3.41      5.10035     20.40972     97.31071        16     1.182     0.940 -48.75   0
       253    485.7848    373.8884 300.2110275 +22.6410675     359.8536     72.28614      1.457     4.75     5.356081     20.40972     36.86468         8     0.977     0.654 -81.31   0
       254    169.7172    372.4402 300.1131496 +22.5459604     2095.851     72.30457      1.557     2.79     4.973062     20.40972     265.1425        21     1.147     1.059 -87.10   0
       255    969.3112    362.6372 300.3653938 +22.7825759     1207.013     72.32301      1.395     2.62     5.113146     20.40972     156.9302        17     1.057     0.988  64.35   0
       256    555.6927    361.9026 300.2366862 +22.6585594     6651.912     72.52547      1.384     2.51     5.092844     20.40972     863.5634        35     1.190     1.090  71.80   0
       257    270.4800    361.2135 300.1481296 +22.5729307     732.9408     72.32301      1.518     3.35     4.794146     20.40972     79.65289        13     1.111     0.819  35.57   0
       258    128.2156    354.3408 300.1061164 +22.5283269     636.0565     72.30457      1.764     3.28     5.017439     20.40972     55.07866         8     0.872     0.770 -58.56   0
       259    815.8316    353.1936 300.3205825 +22.7339332     343.0743     72.34144      1.458     3.36     4.893564     20.40972     49.10982         5     0.934     0.644 -68.27   0
       260    759.9235    350.9745 300.3038710 +22.7165619     1208.154     72.35986      1.529     3.34     4.829396     20.40972     118.0968        15     1.045     0.896  79.69   0
       261    669.6164    352.0907 300.2753614 +22.6898497     388.6354     72.26769      1.211     3.59     4.891693     20.40972     62.53212         9     0.884     0.711 -28.31   0
       262    462.3777    348.1700 300.2120813 +22.6266687     6296.036     72.34144      1.390     2.54     5.376585     20.40972     698.2913        36     1.202     1.115 -88.97   0
       263    854.3997    342.9155 300.3359437 +22.7425203     1402.892     72.21234      1.428     2.67     5.015125     20.40972     167.0626        20     1.109     1.051  47.43   0
       264    951.5990    343.1650 300.3661834 +22.7716764     589.7386     72.30457      1.386     2.78     5.155185     20.40972     72.48009         9     0.893     0.638  16.32   0
       265    447.0790    337.1860 300.2108807 +22.6189313     362.5128     72.34144      1.229     2.53     5.380097     20.40972     69.72878         7     0.820     0.691  88.51   0
       266    529.3361    334.7428 300.2372863 +22.6428631     364.2671      72.3967      1.336     4.57     5.204805     20.40972     39.50839         8     0.971     0.611  80.19   0
       267    826.9489    330.7339 300.3313339 +22.7308028     461.2406     72.37828      1.245     2.75     4.917491     20.40972     67.90827         9     0.811     0.747  69.26   0
       268    350.0276    327.3714 300.1838555 +22.5870428     2541.194     72.30457      1.414     2.64     5.298648     20.40972      295.917        25     1.141     1.051  40.65   0
       269     68.4844    324.8094 300.0971260 +22.5019478     1164.157     72.28614      1.757     4.02     5.317129     20.40972     90.46153        18     1.229     1.051  43.48   0
       270    319.2652    316.7647 300.1777228 +22.5747813     30121.92     72.34144      1.479     2.68     5.196718     20.40972     3575.117        70     1.375     1.248  58.72   0
       271    854.0098    314.5193 300.3450318 +22.7342385     1420.971     72.28614      1.446     2.29     4.983261     20.40972     209.8177        21     1.143     0.989  13.85   0
       272     15.5606    304.4030 300.0872957 +22.4802279     4992.579     72.35986      1.796     3.26     5.470767     20.40972     561.1619        41     1.459     1.319  53.61   0
       273    769.3477    303.6180 300.3221677 +22.7057682     553.7116     72.32301      1.250     2.71      4.76793     20.40972     74.11833        11     0.945     0.749  -5.67   0
       274    193.6955    303.0927 300.1430957 +22.5332350      369.516     72.52547      1.293     3.85     5.404776     20.40972     48.11599         7     0.899     0.664 -82.88   0
       275    417.7232    302.1173 300.2131146 +22.6000647     560.8968     72.43351      1.383     3.74     5.386887     20.40972     66.08334        11     0.988     0.874  -5.55   0
       276    729.8121    296.6198 300.3121124 +22.6919235     1942.824     72.30457      1.439     2.65     4.699758     20.40972     261.8834        21     1.131     0.994 -42.29   0
       277    537.8568    291.3695 300.2540055 +22.6329511      304.733     72.35986      1.184     2.89     5.306759     20.40972     56.56482         8     0.983     0.551  58.32   0
       278    945.0201    289.6673 300.3814808 +22.7543217     699.5712     72.30457      1.616     3.16      5.17888     20.40972     78.99529        11     0.917     0.894 -27.31   0
       279    391.4771    281.2130 300.2117234 +22.5861986     2145.621     72.35986      1.557     3.11     5.383941     20.40972     232.4296        25     1.285     1.018  45.23   0
       280    830.5624    274.1848 300.3507991 +22.7156239     617.6163     72.34144      1.347     2.82     4.985799     20.40972     81.34415        12     0.980     0.752  -3.67   0
       281    712.9269    271.9659 300.3148436 +22.6797821     428.5501     72.34144      1.261     2.57     4.875689     20.40972     70.38692         7     0.899     0.596  -2.92   0
       282    681.3880    270.5374 300.3054772 +22.6699317     457.0672     72.32301      2.578     5.43     4.953178     20.40972     33.07419         8     1.149     0.725  47.47   0
       283    743.9877    267.3531 300.3260212 +22.6877520     164.3474     72.34144      1.228     4.18     4.887529     20.40972     28.08425         5     0.827     0.603 -88.58   0
       284    467.4640    260.2887 300.2421626 +22.6029424     1172.251     72.47031      1.420     3.04     5.351981     20.40972     141.0922        20     1.256     0.983 -53.70   0
       285    552.2759    258.3421 300.2692053 +22.6277766     398.5879     72.37828      1.787     3.46     5.274156     20.40972     37.54728         5     0.752     0.460  11.16   0
       286    850.3157    254.2088 300.3634363 +22.7157897     267.1884     72.28614      1.133     3.82     5.082927     20.40972     50.65408         5     0.865     0.514  41.98   0
       287    712.2573    252.5248 300.3209383 +22.6739925     2226.768     72.37828      1.420     2.46     5.059733     20.40972     300.1296        21     1.076     1.000 -66.95   0
       288    252.2287    252.9007 300.1775744 +22.5363572     2472.312     72.26769      0.537     0.83     5.516784     20.40972      1753.19         5     0.427     0.318 -15.52   0
       289    973.4986    246.9981 300.4042021 +22.7505672     3252.894      72.2308      1.573     2.92     5.302399     20.40972      322.662        32     1.313     1.185  67.06   0
       290    420.4772    236.1191 300.2353701 +22.5819277     669.0981     72.45191      1.312     2.79     5.383849     20.40972     86.03436        14     0.952     0.902 -76.45   0
       291    126.1854    230.1717 300.1457457 +22.4920685     653.3351     72.35986      1.660     3.85     5.533985     20.40972     70.13718        11     1.188     0.778  61.01   0
       292     95.4571    230.3730 300.1361278 +22.4829192     1407.764     72.34144      1.846     4.13     5.508192     20.40972     125.1277        21     1.394     1.058 -36.35   0
       293    989.3819    227.2950 300.4155465 +22.7496498     347.2537     72.26769      1.315     3.83     5.347494     20.40972     56.84337        10     0.980     0.836 -73.82   0
       294    833.1293    224.4296 300.3677311 +22.7020833      353.467     72.34144      1.314     2.96     5.264603     20.40972     58.36744         6     0.906     0.463  40.54   0
       295    179.5388    222.4008 300.1648539 +22.5058217     593.2531     72.30457      1.654     4.50     5.587521     20.40972     55.50208        11     1.002     0.804  10.04   0
       296     35.5559    219.6726 300.1209783 +22.4618974       306.68     72.32301      1.139     3.43     5.477279     20.40972     37.55709         5     0.767     0.442  68.80   0
       297    855.3564    216.2086 300.3773281 +22.7063689     357.0665     72.35986      1.415     3.55     5.215447     20.40972     36.98782         6     0.728     0.639 -44.02   0
       298    784.1354    214.2410 300.3557566 +22.6844940     607.6827     72.30457      1.339     3.83     5.379533     20.40972     67.78381        10     1.091     0.658  50.66   0
       299    374.2637    213.4267 300.2283416 +22.5615687     315.8652     72.34144      1.438     2.52     5.485613     20.40972     52.56051         7     0.810     0.610 -26.17   0
       300    874.5659    207.3666 300.3861857 +22.7095725     277.4893     72.41511      1.038     3.80     5.242005     20.40972     40.99118         6     0.880     0.481  -2.04   0
       301    882.0547    203.1313 300.3898945 +22.7105946       2067.4     72.37828      1.434     2.83     5.270519     20.40972     238.3449        26     1.217     1.066  62.20   0
       302    378.4910    195.2514 300.2355485 +22.5576124     1018.368     72.37828      1.544     3.55     5.530812     20.40972     103.9887        18     1.162     1.004 -86.52   0
       303    129.6372    195.2374 300.1581421 +22.4830710     351.7073     72.41511      1.462     3.54     5.804014     20.40972     46.46054         7     1.003     0.866 -63.03   0
       304    780.3043    194.7245 300.3608885 +22.6777351     602.6306     72.48869      1.574     3.02     5.428071     20.40972     70.45839        10     0.953     0.698  82.62   0
       305    536.9426    195.0757 300.2849387 +22.6050026     347.3494     72.37828      1.467     3.95     5.355304     20.40972      32.4146         6     0.765     0.582 -47.08   0
       306    300.5800    200.1539 300.2097147 +22.5356886     2079.965      72.3967      1.444     2.73     5.704893     20.40972      241.311        21     1.141     0.970 -87.72   0
       307    195.2732    187.2069 300.1811541 +22.5004275     783.3553     72.28614      1.524     4.38     5.831329     20.40972     82.73174        16     1.307     0.992  32.23   0
       308    733.1433    184.4707 300.3495096 +22.6606751      1754.26     72.35986      1.402     2.55     5.449542     20.40972      203.025        22     1.085     0.976  55.13   0
       309    798.0998    184.1814 300.3698544 +22.6800274     611.0388     72.24924      1.479     2.56     5.471718     20.40972     85.03491         9     0.832     0.731  -8.94   0
       310    216.8853    180.8544 300.1899344 +22.5050767     511.5782     72.41511      1.581     2.23     5.873125     20.40972     72.69617         8     0.779     0.649 -32.37   0
       311   1004.6232    177.0783 300.4365811 +22.7397601     730.5347     72.32301      1.464     3.08     5.354856     20.40972     81.82312        13     0.991     0.860 -44.02   0
       312    506.7118    176.9959 300.2813838 +22.5907562     308.6382     72.24924      1.104     2.04     5.342546     20.40972     59.59142         7     0.694     0.636  83.06   0
       313    737.3253    175.8714 300.3536005 +22.6594536     878.3258     72.41511      1.605     3.45     5.464065     20.40972     100.2047        12     1.038     0.837 -72.22   0
       314    657.6389    175.0831 300.3290199 +22.6353811     1160.315     72.30457      1.345     2.91     5.713766     20.40972     155.4592        17     1.051     0.911  64.46   0
       315    479.0204    171.5461 300.2745272 +22.5808999     386.8044     72.32301      1.373     2.23      5.30604     20.40972     46.39511         6     0.749     0.497   2.07   0
       316    853.3455    166.7713 300.3927254 +22.6915475     1450.104     72.34144      1.506     2.77     5.416361     20.40972     184.8041        22     1.166     1.044  81.40   0
       317    584.0930    166.9529 300.3087404 +22.6110322     1043.827     72.35986      1.464     2.94     5.461857     20.40972     130.5885        15     1.038     0.909 -67.97   0
       318    865.3654    165.9833 300.3967297 +22.6949165     898.4964     72.34144      1.594     2.38     5.398571     20.40972     114.7347        14     1.147     0.783 -15.30   0
       319    911.1775    164.8796 300.4113776 +22.7083024     283.8787     72.28614      1.348     2.89     5.385613     20.40972     36.78661         6     0.746     0.559 -40.47   0
       320    981.9862    156.1512 300.4362994 +22.7269689     1136.634     72.37828      1.522     3.18     5.404305     20.40972     109.2941        20     1.166     1.038  57.12   0
       321      5.5895    152.4529 300.1334513 +22.4336185     410.5912     72.34144      1.609     4.00     5.725217     20.40972     55.28751         6     1.026     0.445  35.81  16
       322    215.8313    149.0441 300.1999154 +22.4956236     706.7546      72.3967      1.494     4.14     6.012444     20.40972     70.16686        12     1.135     0.843  36.31   0
       323     77.7278    143.5649 300.1587508 +22.4526802     2169.493     72.34144      1.708     3.25     6.121343     20.40972     212.6849        30     1.358     1.268  65.29   0
       324    901.0948    140.9059 300.4160019 +22.6983897     706.9317     72.50708      1.563     4.54     5.464747     20.40972     78.51815        14     1.236     1.061 -35.00   0
       325     27.4062    140.6753 300.1440472 +22.4367737     373.6631     72.26769      1.421     2.42     5.920571     20.40972     66.90082         5     0.767     0.660  68.44   0
       326    235.2468    136.9482 300.2098739 +22.4979639     5642.601     72.37828      1.517     2.92     6.006121     20.40972     611.1212        40     1.353     1.186  56.10   0
       327    217.0302    138.0215 300.2038601 +22.4928163     242.5212     72.34144      1.364     3.71     6.012444     20.40972      32.1965         5     0.632     0.625  -4.02   0
       328     19.3920    131.4792 300.1445364 +22.4317319     1331.453     72.28614      1.831     3.71      5.97407     20.40972     122.3513        20     1.262     1.056 -47.93   0
       329    218.7268    127.9560 300.2076492 +22.4904329     609.9784     72.32301      1.536     3.18     6.012444     20.40972       74.316         9     0.932     0.629 -20.41   0
       330    879.4654    118.7855 300.4164231 +22.6855565     3502.083     72.32301      1.520     2.96     5.508492     20.40972     383.5035        32     1.289     1.143 -83.72   0
       331    983.1286    117.5976 300.4491499 +22.7162168     2757.121     72.28614      1.609     3.08     5.717219     20.40972     305.3696        34     1.366     1.213  70.07   0
       332    428.7881    113.8613 300.2775806 +22.5492826     612.7633     72.30457      1.418     2.81     5.314736     20.40972     94.14025        11     0.988     0.708  48.24   0
       333    181.9031    114.4292 300.2005799 +22.4755182     338.1944     72.26769      1.186     4.10     6.012444     20.40972     41.11781         7     1.180     0.407 -14.73   0
       334    543.1866    111.7349 300.3138920 +22.5829146     373.2337     72.30457      1.224     2.34     5.503829     20.40972     54.12123         5     0.743     0.412 -14.82   0
       335    352.9367    105.9052 300.2565490 +22.5242871     669.8748     72.43351      1.511     3.13     5.848137     20.40972     62.21205         8     0.827     0.649 -35.88   0
       336    356.9069    104.3352 300.2582932 +22.5250246     492.9824     72.45191      1.683     4.34     5.815463     20.40972     35.07077         7     0.886     0.604  32.93   0
       337    119.0637    102.5560 300.1848878 +22.4532855     668.7308     72.34144      1.578     3.25     6.153956     20.40972     71.02651         9     0.950     0.772 -35.16   0
       338    480.2155    101.1055 300.2977253 +22.5610109     1756.067     72.26769      1.472     2.88     5.278562     20.40972     187.9927        19     1.104     0.942  73.49   0
       339    408.0265    101.4695 300.2751326 +22.5395057      560.017     72.34144      1.664     4.41     5.399762     20.40972       55.911        12     1.114     1.004 -88.28   0
       340     16.6859    101.7926 300.1533138 +22.4223966     369.8481     72.26769      1.654     4.63     6.223878     20.40972      38.8098         5     0.855     0.710 -36.69   0
       341    541.6812    100.1311 300.3171828 +22.5791281     436.2743     72.45191      1.524     4.89     5.519647     20.40972      50.3829         8     1.123     0.604  45.60   0
       342    223.6931     96.6120 300.2193494 +22.4829157     443.3384     72.28614      1.563     3.50     6.012444     20.40972      43.0253         7     0.950     0.474  -7.91   0
       343    768.6950     91.1774 300.3908254 +22.6444805     508.5011     72.24924      1.592     2.78     5.762788     20.40972     51.45234         6     0.727     0.605  17.00   0
       344    914.5153     85.6161 300.4381042 +22.6864958     389.3506     72.30457      1.105     3.21     5.650649     20.40972     42.71693         6     0.846     0.486   1.31   0
       345    254.1727     80.7967 300.2339539 +22.4874994     5981.719     72.30457      1.607     3.06     5.935472     20.40972     645.9495        41     1.396     1.202  74.63   0
       346    760.9174     81.5468 300.3915208 +22.6393837     329.6674     72.37828      1.328     2.35     5.716928     20.40972     42.31894         6     0.747     0.497  -3.25   0
       347    105.4908     79.9329 300.1879973 +22.4427219     738.2036     72.47031      1.679     4.53     6.200809     20.40972     66.44357        14     1.361     0.817 -51.31   0
       348    553.2250     80.1541 300.3272507 +22.5768395      2276.45     72.35986      0.954     3.03     5.580387     20.40972      782.072         8     0.952     0.346  47.32   0
       349    883.7250     78.7437 300.4307259 +22.6753102     249.2762     72.37828      1.265     3.85     5.525538     20.40972     44.93695         6     0.929     0.579  63.98   0
       350    544.6229     74.8621 300.3262858 +22.5727436     3125.337     72.32301      0.794     1.87     5.536716     20.40972     1018.276        10     0.754     0.430  27.48   0
       351    226.2822     74.6719 300.2272625 +22.4773876     332.0037     72.47031      1.254     3.43     5.976116     20.40972     61.60149         6     0.994     0.464 -53.81   0
       352    269.4690     71.2556 300.2418033 +22.4893383     373.7061     72.35986      1.695     6.16     5.860898     20.40972     33.81524         9     1.278     0.834  62.13   0
       353     16.3827     71.5285 300.1630237 +22.4136148     377.3636     72.34144      1.462     3.65     6.268457     20.40972     49.59645         6     0.825     0.583  40.81   0
       354    896.0110     71.0197 300.4370607 +22.6767620     283.3318     72.32301      1.519     3.64      5.56461     20.40972     27.26817         5     1.006     0.380  57.71   0
       355    500.3240     66.2372 300.3152835 +22.5570060     6313.656     72.30457      1.464     2.70     5.353368     20.40972     717.5239        38     1.263     1.185  73.94   0
       356    385.4387     66.3534 300.2794783 +22.5226508     623.6003      72.3967      1.425     3.14     5.461936     20.40972     76.19049        10     0.885     0.824 -71.99   0
       357    752.8956     56.3973 300.3971676 +22.6297498     961.3711     72.24924      1.861     4.07     5.588906     20.40972     72.83189        18     1.243     1.102  82.74   2
       358    253.8805     60.0413 300.2405866 +22.4814482     175.5652     72.30457      1.267     5.45     5.858515     20.40972     34.05761         7     1.235     0.680 -15.88   0
       359    694.2413     58.0233 300.3783576 +22.6126708     380.6749     72.37828      1.494     3.85     5.759298     20.40972     37.61012         8     0.833     0.742  71.12   0
       360    844.8584     55.2017 300.4262302 +22.6569127     452.9771     72.28614      1.566     3.83     5.418116     20.40972     58.25626         8     1.076     0.663  19.28   0
       361    186.7639     50.9754 300.2226479 +22.4587451     1385.931     72.35986      0.536     0.89     5.941161     20.40972     877.1678         7     0.459     0.365   2.60   0
       362    193.1994     50.0171 300.2249597 +22.4603970     394.7149      72.2308      1.433     2.38     5.939611     20.40972     55.21921         7     0.687     0.662   1.99   0
       363    628.7278     46.4311 300.3616969 +22.5897360     6259.656     72.34144      1.494     2.67     5.812564     20.40972     774.8346        37     1.309     1.101  79.63   0
       364    551.6642     48.6390 300.3369739 +22.5673112     464.6691     72.32301      1.469     4.04     5.567596     20.40972     54.00192        12     1.003     0.886 -11.93   0
       365    403.5755     45.4130 300.2919070 +22.5220612     1384.073     72.34144      1.407     2.58       5.3476     20.40972     172.7937        18     1.144     0.876  65.61   0
       366    669.8484     44.0013 300.3752977 +22.6013401     783.6544     72.32301      1.312     3.31     5.808239     20.40972     105.7475        15     1.071     0.958 -69.23   0
       367    740.0157     42.1007 300.3977836 +22.6217845     387.3979     72.24924      1.470     3.80     5.520334     20.40972     41.29667         5     0.813     0.510 -59.17   0
       368    685.9976     39.9036 300.3816579 +22.6049929     708.0332     72.24924      1.542     2.58     5.740892     20.40972     93.89268        11     0.861     0.832  18.62   0
       369    152.7056     37.9870 300.2162640 +22.4448139     514.7347     72.26769      1.465     3.38     5.959824     20.40972     62.06672        12     1.040     0.850 -45.76   0
       370    955.7419     37.7221 300.4664827 +22.6850415     449.9378     72.37828      1.442     2.27     5.959729     20.40972     78.27097         7     0.806     0.727  24.10   0
       371    724.4105     35.8478 300.3949445 +22.6153177     571.9207     72.35986      1.629     3.04     5.552248     20.40972     47.86576         9     0.885     0.674  20.52   0
       372    688.1137     30.2456 300.3854459 +22.6028481      914.109     72.32301      1.945     5.57     5.704046     20.40972     75.15215        17     1.475     0.955  54.44   0
       373    672.9128     31.2507 300.3803828 +22.5985896     2781.593     72.34144      1.430     2.72     5.780127     20.40972     376.2175        27     1.208     1.077  88.11   0
       374    313.8212     31.9885 300.2683219 +22.4913338     387.9454     72.32301      1.388     5.28       5.4709     20.40972     47.60981         9     1.220     0.646 -31.11   0
       375    759.4261     23.1022 300.4099887 +22.6221254     1642.027     72.28614      1.548     2.91     5.428104     20.40972     150.7987        20     1.107     1.001  80.71   0
       376    919.7036     21.8677 300.4603743 +22.6697031     321.5525     72.45191      1.110     4.29     5.733236     20.40972     38.34954         6     0.986     0.531  24.05   0
       377    697.2364     16.3302 300.3927964 +22.6015746      685.681     72.32301      1.361     2.53     5.615552     20.40972     87.01059        12     0.902     0.792  61.90   0
       378    796.1617   1020.9668 300.0975471 +22.9198776     348.3371     69.04158      1.558     4.92     4.045567     20.40972      35.0667         6     1.669     0.411  26.14  16
       379     76.0863     15.3331 300.1997809 +22.4153587     529.6615     72.45191      1.460     2.55     6.241067     20.40972     67.75912         8     0.853     0.683 -47.51   0
       380    255.6987   1013.4782 299.9316879 +22.7556572     1434.887     72.47031      3.423    11.95     49.63318     20.40972     46.74395        36     2.925     1.359 -57.42  16
       381    207.1135    986.1338 299.9254710 +22.7332397     4077.803     72.43351      8.194    30.59     66.50395     20.40972     86.32393       299     6.483     4.489 -84.09  19
       382    740.0106   1015.2308 300.0819093 +22.9014010     397.7277     72.34144      1.945     4.67     4.571442     20.40972     26.92014         5     0.948     0.653  30.77   0
       383    319.8214   1013.7526 299.9515449 +22.7749739      605.309     72.37828      6.560     7.01     6.076667     20.40972     28.19005         8     2.295     0.599  40.03  16
       384    740.3999    987.0506 300.0911960 +22.8934293     614.4553     72.28614      2.296     7.16     4.554216     20.40972     39.38231        13     1.429     1.087  18.50   0
