#   1 NUMBER                 Running object number                                     
#   2 X_IMAGE                Object position along x                                    [pixel]
#   3 Y_IMAGE                Object position along y                                    [pixel]
#   4 ALPHA_J2000            Right ascension of barycenter (J2000)                      [deg]
#   5 DELTA_J2000            Declination of barycenter (J2000)                          [deg]
#   6 FLUX_APER              Flux vector within fixed circular aperture(s)              [count]
#   7 FLUXERR_APER           RMS error vector for aperture flux(es)                     [count]
#   8 FLUX_RADIUS            Fraction-of-light radii                                    [pixel]
#   9 FWHM_IMAGE             FWHM assuming a gaussian core                              [pixel]
#  10 BACKGROUND             Background at centroid position                            [count]
#  11 THRESHOLD              Detection threshold above background                       [count]
#  12 FLUX_MAX               Peak flux above background                                 [count]
#  13 ISOAREA_IMAGE          Isophotal area above Analysis threshold                    [pixel**2]
#  14 A_IMAGE                Profile RMS along major axis                               [pixel]
#  15 B_IMAGE                Profile RMS along minor axis                               [pixel]
#  16 THETA_IMAGE            Position angle (CCW/x)                                     [deg]
#  17 FLAGS                  Extraction flags                                          
         1    521.4436     18.7949 300.3326457 +22.5432307     1091.983     72.44847      1.419     2.53      5.77664     20.43471     155.8726        17     1.094     0.884  83.20   0
         2    764.6663      7.5013 300.4120802 +22.6127604     563.2571     72.52221      1.359     3.72     5.740408     20.43471     78.55846        13     1.103     0.869 -72.23  16
         3    196.5163      6.7699 300.2354348 +22.4424937      3908.64     72.44847      1.602     2.92     5.927126     20.43471     489.3411        34     1.341     1.134  58.36  16
         4    618.8443      4.2093 300.3677063 +22.5681852     393.7072     69.70364      1.298     4.25     5.848892     20.43471     50.55772         6     1.136     0.453 -22.89  16
         5    522.3523      4.4863 300.3375639 +22.5393886     394.7604     70.44731      1.280     3.39     5.816885     20.43471     46.39598         5     0.739     0.450  21.84  16
         6    229.2908   1006.1292 299.9212275 +22.7391459     2599.463     72.59588      8.175    41.80     75.61329     20.43471     70.27799       325    11.387     4.258   3.13  19
         7    269.8208   1020.7220 299.9290836 +22.7554922     2279.523     69.85683      5.017    21.86     38.70744     20.43471     63.07861        94     5.046     2.630   5.36  19
         8    274.2748   1013.3082 299.9328804 +22.7547031     2443.664     72.59588      5.117    13.67     31.64743     20.43471       60.978        54     2.817     1.846  64.32  19
         9    113.6773   1011.8774 299.8834195 +22.7060945     3407.434     72.52221     14.516    78.78     88.43479     20.43471     141.7961      1517    19.447     8.856  45.14  27
        10    103.0334    953.2607 299.8991763 +22.6860984     5250.702     72.44847     21.877    89.70     33.83301     20.43471     1300.187      2709    16.403    13.610 -15.19  19
        11    658.5358    989.7159 300.0601574 +22.8631946     8830.729     72.52221      1.987     4.70     3.445091     20.43471      485.975        43     1.541     1.395  44.02   3
        12    664.1055    987.6733 300.0625569 +22.8642784     9716.983     72.57747      2.016     4.77     3.456771     20.43471     556.2697        52     1.580     1.506   3.43   3
        13    758.6022    990.7767 300.0909917 +22.8934985     617.7172     72.37466      1.851     6.96     3.669266     20.43471     42.02341        13     1.298     1.046  11.73   0
        14    100.8608    920.8414 299.9090433 +22.6761531      4292.26     72.41158     18.301    57.02     11.02985     20.43471     93.15734      1077    12.890     6.998 -33.94   3
        15    189.5211    970.4322 299.9204737 +22.7169772     949.6385     72.41158      2.538     9.60     55.53587     20.43471     44.69534        23     2.108     1.221  76.21   3
        16    192.1243    979.4724 299.9183428 +22.7203502      1712.32     72.50378      3.942    16.09     62.79105     20.43471     53.58665        42     2.942     2.445  34.49   2
        17      6.7591   1008.2583 299.8513778 +22.6729609     2749.772     72.43002     14.522    46.67    -21.91631     20.43471     69.78418       570    12.621     4.789  86.78  26
        18    523.5641    978.6154 300.0217345 +22.8195365     437.9956     72.43002      1.833     4.61     3.496919     20.43471      38.6604         6     1.017     0.593  27.10   0
        19    951.5624    974.0385 300.1565990 +22.9465232     606.9462     72.50378      1.900     7.17     4.239747     20.43471     42.17178        16     1.429     1.007  19.31   0
        20     11.9311    973.1559 299.8644012 +22.6644546     799.1943     72.39312      3.393     4.36    -7.737712     20.43471     37.03209         5     1.547     0.350  -3.67  17
        21    233.5668    971.8857 299.9336951 +22.7306113     687.8174     72.39312      2.481     4.51     44.70176     20.43471     36.22625         5     1.178     0.491  86.38   1
        22    225.4207    989.3037 299.9254970 +22.7331607     4617.586     72.33772      8.521    22.68     64.97205     20.43471     95.51675       323     5.459     4.983 -68.89   3
        23    156.0075    961.3718 299.9130026 +22.7043223     1130.262     72.43002      5.376    13.30      52.7206     20.43471     45.83343        23     3.372     1.459  38.24   3
        24    150.5492    956.6093 299.9128548 +22.7013188     1440.962     72.43002      9.489    11.65     48.22888     20.43471     40.99276        25     2.772     1.363  18.26   3
        25    170.2850    959.1629 299.9181590 +22.7079737     1409.689     72.41158      4.023    11.07     50.30378     20.43471     45.01201        32     2.266     1.558  20.51   0
        26    245.8090    987.7319 299.9323478 +22.7388282     6308.784     72.43002     10.417    41.18     47.16624     20.43471     124.2873       589     8.237     5.715  57.39  19
        27    676.8849    957.0337 300.0765043 +22.8593165     6771.811     72.39312      1.913     4.24     3.667581     20.43471      394.847        46     1.524     1.400  42.27   0
        28    142.4121    954.1128 299.9111376 +22.6981611     1281.936     72.37466      8.488    10.49     43.63491     20.43471     40.62653        19     2.491     1.230  62.72   3
        29     17.3558    995.3383 299.8588718 +22.6724399     1586.727     72.44847     12.354    15.21    -8.126002     20.43471     44.20589        43     3.120     2.061  84.81  19
        30    268.3233    950.8032 299.9513595 +22.7349950     672.5516     72.33772      2.033     5.60      16.3167     20.43471     47.89331        13     1.306     0.973  39.54   0
        31    199.5183    992.0025 299.9165660 +22.7261613     1465.796     72.33772      5.097    10.30     72.32795     20.43471     45.36405        25     2.041     1.447 -36.14   3
        32    585.2261    947.5706 300.0510319 +22.8291197     1466.048     72.43002      1.868     4.33     3.716633     20.43471     132.0038        26     1.356     1.283 -24.53   0
        33    479.1069    944.2794 300.0190623 +22.7963529     1037.297     72.54063      1.899     4.91      3.77531     20.43471     82.69897        23     1.354     1.222  29.10   0
        34    830.5640    951.1439 300.1263140 +22.9036903     327.3318     72.44847      1.602     3.40     4.284913     20.43471      34.1577         5     1.484     0.226 -72.48   0
        35    409.8248    942.0521 299.9982241 +22.7749344     6632.982     72.44847      1.835     4.10     4.333223     20.43471     521.9404        41     1.431     1.370  48.05   0
        36    156.3305    930.7515 299.9230606 +22.6956408     493.9309     72.43002      4.928     4.98     27.48701     20.43471       35.727         5     1.050     0.667  28.18   0
        37    263.4730    977.2821 299.9412395 +22.7411323     9226.685     72.55905     13.244    42.32     28.90271     20.43471     193.0703      1113    14.183     5.604  68.95  19
        38    442.4280    929.2776 300.0125246 +22.7810487      449.195     72.43002      1.580     5.78     4.119437     20.43471      44.3746         8     1.310     0.719 -18.87   0
        39    139.7697    921.7164 299.9208511 +22.6880807     1240.556     72.44847      9.923    10.24     20.19874     20.43471     34.08208        23     2.128     1.373  62.07   3
        40    956.1912    921.0878 300.1752652 +22.9327035     2165.107     72.35619      2.073     4.91     4.081704     20.43471     108.6643        33     1.540     1.335  -3.66   0
        41    148.7470    920.9784 299.9238814 +22.6905631     858.6398     72.43002      3.695     3.83     22.04115     20.43471     36.66891         5     0.819     0.513 -31.85   0
        42    144.1684    919.9919 299.9227790 +22.6889063     1178.762     72.43002      3.710     3.98     20.66005     20.43471     38.51345         5     0.868     0.523  41.17   1
        43    606.4012    918.1477 300.0671951 +22.8270251      393.795     72.39312      1.861     4.76     3.852482     20.43471     49.46977         8     1.384     0.676  13.69   0
        44    572.0438    994.6823 300.0316032 +22.8386847     2338.831     72.39312      1.883     4.69     3.414091     20.43471     154.0686        31     1.499     1.264  -7.06   0
        45    744.4499    909.3895 300.1130517 +22.8658938     703.8988     72.44847      2.122     6.96     4.346785     20.43471     44.65903        17     1.549     1.151  31.87   0
        46    137.4017    906.0491 299.9252093 +22.6828783     752.5411     72.41158      4.092     4.70     16.08876     20.43471     35.02412         5     1.352     0.464 -82.90   0
        47    557.7979    904.9360 300.0563554 +22.8086613     475.9926     72.43002      1.968     3.71      3.99087     20.43471     42.44188         6     0.909     0.459  52.68   0
        48    936.9730    903.0593 300.1751335 +22.9217679     297.8033     72.43002      2.005     5.21      4.04946     20.43471     28.40032         5     1.403     0.546 -14.51   0
        49    802.0582    897.7805 300.1347821 +22.8798261     11447.58     72.41158      1.840     4.24     4.293523     20.43471     743.5352        54     1.476     1.414 -19.87   0
        50    779.6402    904.1106 300.1257359 +22.8749252     1051.774     72.43002      1.878     4.92     4.322949     20.43471     76.28236        23     1.338     1.191 -51.09   0
        51    992.2584    897.9391 300.1940444 +22.9368597     434.5114     72.50378      1.895     6.70     4.018065     20.43471     44.59137         9     1.308     0.961  57.49   0
        52    848.4928    897.5593 300.1493301 +22.8936775     592.3446     72.43003      2.077     7.02     4.255667     20.43471     35.00481        10     1.381     1.001 -38.53   0
        53    197.7747   1001.9713 299.9127815 +22.7284958     2508.172     72.43002      5.884    19.59     81.24379     20.43471     65.29382       115     4.288     2.555  13.64  18
        54    113.0784    889.6566 299.9229795 +22.6708795     1252.027     72.46691      7.783     9.76     9.379606     20.43471     51.64554        25     1.778     1.494 -44.38   0
        55    380.6158   1001.4537 299.9698153 +22.7832100     474.5649     72.39312      1.592     4.94     4.581827     20.43471     39.50235        10     1.126     0.823 -21.03   0
        56    853.7302    885.2957 300.1549508 +22.8917253     613.1924     72.55905      2.533     5.06     4.170465     20.43471     32.59488         8     1.287     0.562  58.90   0
        57    507.3556    885.9534 300.0468223 +22.7880893      492.459     72.46691      1.725     5.05     4.102584     20.43471     38.78217        11     1.170     0.670  14.94   0
        58    810.6292    879.7873 300.1433046 +22.8772282     1486.836     72.43002      1.917     4.91      4.19553     20.43471     82.89916        26     1.382     1.260 -55.33   0
        59    103.3680    880.9958 299.9227775 +22.6654824     817.1978     72.41158      4.305     7.04     6.995103     20.43471     45.08339        13     1.566     0.886  41.36   0
        60    993.1763    879.1570 300.2004382 +22.9317396     474.6642     72.48535      1.921     6.38     3.967908     20.43471     37.39032         9     1.157     0.988  28.51   0
        61    662.1087    876.8489 300.0979763 +22.8318718     677.3773     72.46691      2.152     6.74     4.019839     20.43471     37.00858        13     1.433     0.888  26.25   0
        62    848.8046    873.3049 300.1573138 +22.8868061     931.0778     72.33772      2.073     6.64     4.103809     20.43471      44.3729        20     1.438     1.020  36.46   0
        63    957.5595    870.4979 300.1921428 +22.9185830     355.0029     72.43003      2.063     4.38     3.970857     20.43471     30.02578         6     1.395     0.391  49.37   0
        64    896.9450    864.5320 300.1751773 +22.8987104     663.4932     72.46691      1.842     5.98     4.006069     20.43471     45.76842        15     1.349     1.076  71.23   0
        65    748.3981    863.3464 300.1292533 +22.8538584     793.6407     72.37466      1.753     5.45     4.144974     20.43471     55.21278        18     1.288     1.026  86.27   0
        66    598.8557    864.4562 300.0823031 +22.8093534     2658.049     72.50378      0.734     1.52     4.094665     20.43471     916.0394         8     0.587     0.458  48.31   0
        67    759.5458    860.9439 300.1335086 +22.8565094     605.3491     72.48535      1.646     5.01     4.153637     20.43471     45.68591        14     1.141     0.945 -19.07   0
        68    460.9637    859.8843 300.0408568 +22.7666981     4122.071     72.41158      1.677     3.56     4.251195     20.43471     376.9605        33     1.339     1.233  -3.90   0
        69      7.7980    862.1829 299.8991999 +22.6314076     516.4227     72.33772      2.028     6.05     4.664302     20.43471     51.69339         7     1.515     0.680   0.72  16
        70    239.7545    848.5977 299.9757067 +22.6971136     403.1878     72.41158      1.774     4.30     5.821073     20.43471     35.58531         7     0.967     0.543  61.17   0
        71    505.1453    848.0273 300.0584646 +22.7765434     228.5633     72.43002      1.246     3.60     4.281563     20.43471     38.23215         6     0.912     0.459  56.06   0
        72    186.5805    845.9211 299.9600440 +22.6803936     914.5894     72.43002      1.993     5.26     6.974653     20.43471     93.62248        16     1.621     0.926 -51.35   0
        73    122.3438    848.0818 299.9393745 +22.6617397     317.1145     72.46691      1.283     3.41     5.956406     20.43471     35.56165         5     0.772     0.436  72.77   0
        74    163.3413    842.4427 299.9539505 +22.6724238     1514.846     72.41158      1.793     3.88     7.348364     20.43471     132.7647        25     1.285     1.243  33.31   0
        75     95.2031    843.5884 299.9324005 +22.6523074     404.6593      72.2453      1.598     3.46     4.780032     20.43471     31.90176         5     1.196     0.288  54.31   0
        76    989.3371    830.2305 300.2151478 +22.9165345     2080.939     72.44847      1.922     4.84     3.951464     20.43471     125.6968        29     1.352     1.332  51.37   0
        77    694.9866    830.5985 300.1232559 +22.8284489     518.8026     72.26379      2.387     4.74     4.244424     20.43471     40.38082         8     1.614     0.395 -61.75   0
        78    196.5121    824.5922 299.9700646 +22.6772564     316.5031     72.33772      1.245     4.15     5.912496     20.43471     43.73093         7     1.275     0.385  74.80   0
        79    772.8542    823.9758 300.1496748 +22.8498826     652.3174     72.44847      1.795     6.19     4.315246     20.43471     49.65728        11     1.191     0.904  13.13   0
        80    640.9515    817.9339 300.1105386 +22.8086178      4867.47     72.43002      1.610     3.50     4.281168     20.43471     400.8911        33     1.302     1.200  64.45   0
        81    443.1006    814.9421 300.0499063 +22.7484458     383.8496     72.52221      1.426     4.78     4.574165     20.43471     51.46704        10     1.104     0.956  28.89   0
        82    191.0690    811.5642 299.9726068 +22.6718872     1208.133     72.43002      1.779     4.07     5.427296     20.43471     124.4155        24     1.364     1.209   3.52   0
        83    661.5163    810.5536 300.1193439 +22.8126628     779.4832     72.41158      1.751     5.14     4.323065     20.43471     63.28457        15     1.180     1.032  84.77   0
        84    210.3493    808.9028 299.9794662 +22.6769077     365.5342     72.50378      1.446     4.51     5.302921     20.43471     51.55142         9     1.092     0.874 -70.62   0
        85    578.0740    801.4779 300.0963035 +22.7850469     401.2937     72.54063      1.654     6.25     4.356863     20.43471     34.90869         8     1.280     0.858  27.37   0
        86    817.0748    797.8039 300.1719663 +22.8556165      4142.19     72.33772      1.652     3.68     4.453792     20.43471     303.4687        32     1.291     1.223  38.48   0
        87    225.8992    791.8343 299.9898483 +22.6766766      379.771     72.41158      1.464     3.11     5.136569     20.43471     56.05982         5     0.915     0.568  33.24   0
        88    534.1372    790.1930 300.0862899 +22.7686369     600.0223     72.39312      1.509     3.81     4.442077     20.43471     64.20362        11     1.047     0.769   4.40   0
        89    180.6254    787.9277 299.9770420 +22.6619751     1065.852     72.44847      1.825     3.94     4.894547     20.43471     106.2405        17     1.213     1.027  48.03   0
        90    330.0610    780.1757 300.0260326 +22.7045731     54044.04     72.43002      1.654     3.31     4.925536     20.43471     4998.079        90     1.471     1.401  29.42   0
        91    595.6839    783.4868 300.1076353 +22.7851609     477.9669     72.54063      1.668     5.31      4.41266     20.43471     47.35862        10     1.227     0.649   9.41   0
        92    587.9918    779.3853 300.1065727 +22.7816779     1536.085     72.33772      1.514     3.32     4.430905     20.43471     153.0922        22     1.155     1.094 -23.22   0
        93   1000.7625    778.4904 300.2355308 +22.9050913     902.9671     72.41158      1.970     5.64     4.189339     20.43471      57.2855        15     1.157     1.058 -80.92   0
        94    304.3577    777.9566 300.0187584 +22.6962280     293.3446     72.52221      1.276     2.47     4.906551     20.43471     42.06351         5     0.840     0.479 -88.42   0
        95    259.3199    777.8708 300.0047788 +22.6826957      390.234     72.54063      1.529     3.18     4.997003     20.43471     39.91265         7     0.829     0.604  65.16   0
        96    617.0659    775.4174 300.1169175 +22.7892530     927.6313     72.41158      1.519     3.29      4.43854     20.43471     79.56123        17     1.160     0.908  -8.64   0
        97     16.5153    774.4298 299.9304288 +22.6088666     823.4631     72.43002      1.887     4.56     4.639065     20.43471     73.39847        14     1.264     0.929  50.78   0
        98    627.8402    773.8110 300.1207955 +22.7920211     556.4751     72.43002      1.473     3.98     4.444278     20.43471     57.62719        10     0.921     0.817  47.48   0
        99    733.3015    769.8566 300.1549384 +22.8224899     453.5154     72.52221      1.607     5.78     4.385842     20.43471     46.00987        10     1.103     0.909  -4.53   0
       100    527.7806    767.1414 300.0918024 +22.7601148     314.9399     72.39312      1.283     4.80     4.514975     20.43471      38.8729         6     1.089     0.599  77.03   0
       101    770.7417    760.3154 300.1697078 +22.8309680      936.213     72.54063      1.755     4.29     4.452536     20.43471     72.42847        19     1.291     1.017  55.45   0
       102    379.8160    757.4398 300.0489008 +22.7129696     31757.05     72.44847      1.606     3.30     4.932055     20.43471     2987.739        62     1.345     1.305  18.81   0
       103    394.0347    758.0358 300.0531314 +22.7174040     2013.212     72.50378      1.593     3.12     4.895646     20.43471     224.7095        25     1.293     1.133 -13.19   0
       104    902.9460    753.5919 300.2131109 +22.8686413     2742.651     72.43002      1.649     3.50      4.92498     20.43471     212.7864        26     1.211     1.163  63.61   0
       105    390.9669    752.0239 300.0541304 +22.7147590     672.6419     72.43002      1.752     4.19     4.917826     20.43471     59.19446        10     1.092     0.712 -22.15   0
       106    262.5746    749.3203 300.0150687 +22.6754815     917.3367     72.41158      1.791     3.74     4.960934     20.43471     86.09768        14     1.100     0.985  46.17   0
       107    660.6685    749.5834 300.1388955 +22.7949033     882.8449     72.43002      1.476     3.19     4.522685     20.43471     95.06327        15     0.987     0.951 -56.91   0
       108    497.3212    749.3597 300.0880978 +22.7458800     462.4501     72.41158      1.611     3.18     4.578167     20.43471      56.7755         6     0.895     0.675 -21.13   0
       109    508.0703    744.3741 300.0930643 +22.7476712     779.6269     72.43002      1.412     3.75     4.578992     20.43471     79.26131        16     1.079     1.012  26.78   0
       110     67.1037    744.6359 299.9558271 +22.6155025     602.2458     72.43002      1.901     6.26     4.682737     20.43471     50.83965        14     1.230     1.083  10.36   0
       111    909.0705    741.4103 300.2189796 +22.8669761     401.1043     72.41158      1.365     5.82     5.052652     20.43471     43.23464        11     1.164     1.020 -87.77   0
       112    410.2382    740.7256 300.0637985 +22.7172948      256.836     72.37466      1.442     3.17     4.900148     20.43471     49.67264         7     0.924     0.798  65.93   0
       113    453.8890    739.3334 300.0778361 +22.7299821     414.4289     72.54063      1.435     3.62     4.715497     20.43471     51.09289         7     0.864     0.763  49.70   0
       114    366.0034    739.6595 300.0503807 +22.7037258     287.4142     72.39312      1.459     3.91     5.006752     20.43471     32.42388         5     0.791     0.590 -89.54   0
       115     95.7970    738.5032 299.9667360 +22.6223522     586.6308     72.33772      2.021     5.96     4.708066     20.43471     43.09296        13     1.302     0.910 -66.41   0
       116    662.1553    738.6689 300.1429054 +22.7922149     186.9068     72.39312      1.405     4.66     4.555436     20.43471      42.5725         7     1.137     0.906  83.08   0
       117    886.6348    736.1637 300.2136878 +22.8587488      320.453     72.50378      1.503     3.77     5.093989     20.43471     36.84458         5     0.892     0.529  39.30   0
       118    260.2838    733.3973 300.0195301 +22.6702263     597.4279     72.35619      1.525     3.56     4.961458     20.43471     74.73277         9     0.968     0.737  85.95   0
       119    583.4164    723.9380 300.1231660 +22.7643885     369.5371     72.41158      1.271     3.48     4.647862     20.43471     45.49958         9     0.911     0.682  21.84   0
       120    591.3104    723.2029 300.1258633 +22.7665432     227.4329     72.33772      1.161     3.74     4.642891     20.43471       31.108         5     1.011     0.396  -4.19   0
       121    552.8219    722.5059 300.1141039 +22.7548077     727.7619     72.35619      1.603     5.02     4.689755     20.43471     72.79333        11     1.207     0.711 -32.33   0
       122    462.2856    721.6599 300.0861922 +22.7274266     230.9618     72.54063      1.122     3.51     4.777947     20.43471     46.63589         7     0.912     0.542 -29.78   0
       123    969.4276    718.9014 300.2451203 +22.8785852     4650.636     72.37466      1.723     3.59     4.956685     20.43471     352.5392        36     1.358     1.253 -11.19   0
       124    574.8612    719.7753 300.1218542 +22.7606293     1307.155     72.43002      1.492     3.19      4.67919     20.43471     139.8134        18     1.083     0.981 -16.03   0
       125    494.7870    719.1092 300.0971383 +22.7364372     313.6352     72.37466      1.219     2.85     4.732777     20.43471     48.96394         8     0.824     0.638  44.65   0
       126    656.9982    714.8491 300.1490386 +22.7838298     346.8461     72.41158      1.406     3.13     4.658847     20.43471     44.57523         5     0.636     0.592 -89.71   0
       127    957.9057    710.3234 300.2443134 +22.8726700      1767.06     72.55905      1.727     3.39     5.024353     20.43471     139.8797        29     1.458     1.163 -50.68   0
       128    337.1819    703.6109 300.0531263 +22.6847394     273.2805     72.39312      1.546     5.07      5.01416     20.43471     29.46501         6     1.163     0.626  74.55   0
       129    320.6659    704.0149 300.0478572 +22.6799031      830.282     72.41158      1.459     3.17     4.983761     20.43471     110.2127        13     1.061     0.838  18.37   0
       130    784.4766    701.4704 300.1931103 +22.8181814     2556.317     72.54063      1.661     3.49     4.784668     20.43471     238.6378        31     1.567     1.090   6.83   0
       131    989.0607    700.2332 300.2573111 +22.8790999     1704.246     72.46691      1.769     4.04     4.919687     20.43471     141.2015        23     1.288     1.163  82.39   0
       132      7.1907    691.4180 299.9545025 +22.5822661      814.215     72.37466      1.678     4.04      4.50642     20.43471     75.56193        16     1.190     1.035  -9.77  16
       133    866.6990    687.3973 300.2233166 +22.8387674     653.8522     72.31925      1.692     4.89     5.216086     20.43471     54.60485        14     1.310     0.931  53.48   0
       134    171.5658    686.3760 300.0072213 +22.6301288     2565.613     72.44847      0.849     1.64     5.063827     20.43471     1088.597        17     1.162     0.574 -33.57   0
       135    902.6593    678.4467 300.2374385 +22.8469657     149156.9     72.48535      1.641     3.34      5.22248     20.43471     13380.03       151     1.470     1.457  36.74   0
       136    665.0892    682.5096 300.1620662 +22.7769673     333.6548     72.59588      1.299     3.84     4.808411     20.43471     42.77082         6     0.845     0.499  -1.77   0
       137    754.8682    678.5485 300.1913288 +22.8027276     828.8867     72.41158      1.679     4.05     4.872886     20.43471     75.05133        17     1.214     0.948  17.91   0
       138    935.6887    671.5479 300.2499814 +22.8548747     461.9452     72.44847      2.035     5.51     5.190213     20.43471     35.55608         9     1.158     0.739  21.98   0
       139    588.8762    667.2324 300.1432892 +22.7497432     1708.748     72.43002      1.369     2.94      4.88983     20.43471     169.0386        21     1.051     1.031 -39.78   0
       140    770.1412    664.5498 300.2006368 +22.8032817     9362.941     72.48535      1.475     2.85     4.975853     20.43471     953.7536        42     1.271     1.177  41.29   0
       141    251.8561    665.9615 300.0388171 +22.6483508     305.6745     72.43002      1.343     4.39     5.020975     20.43471     34.09385         6     0.785     0.700  68.85   0
       142    271.5720    659.4847 300.0470525 +22.6524043     5162.663     72.43002      1.641     3.17     4.981504     20.43471     518.3183        38     1.304     1.268 -40.43   0
       143    353.5234    657.7046 300.0731230 +22.6764647     1244.604     72.54063      1.574     3.63     5.023604     20.43471     120.4486        20     1.141     1.094 -16.00   0
       144    229.4300    655.2119 300.0353350 +22.6385415      389.099     72.43002      1.238     3.99     5.058361     20.43471     53.90356         6     0.756     0.664  -7.16   0
       145    561.9158    652.9743 300.1395247 +22.7375699     754.5905     72.41158      1.410     3.35      5.05326     20.43471     78.38794        11     0.899     0.834  56.65   0
       146    553.5178    645.2314 300.1394246 +22.7328300     3256.894     72.43002      1.428     2.78     5.101039     20.43471     365.9719        25     1.126     1.053  40.16   0
       147    543.9258    639.1480 300.1384137 +22.7282088     1543.328     72.44847      1.427     2.57     5.141461     20.43471     200.8664        20     1.066     0.994 -23.53   0
       148    937.7853    637.1856 300.2617979 +22.8456278     524.3401     72.35619      1.508     3.58      5.05334     20.43471     57.98952        11     1.011     0.853 -65.80   0
       149    207.3025    635.2130 300.0349503 +22.6261678     638.9575     72.31925      1.407     2.80     5.070231     20.43471     95.50121        13     0.955     0.857 -43.74   0
       150    221.6116    633.7465 300.0398757 +22.6300379     510.7168     72.43002      1.367     3.20     5.055091     20.43471     75.65634        11     1.002     0.797  81.46   0
       151    107.6994    632.7419 300.0047906 +22.5955876     306.2881     72.52221      1.365     4.31     5.129941     20.43471      33.4557         5     0.739     0.716  19.90   0
       152    990.7477    630.3682 300.2805343 +22.8595262     631.7571     72.46691      1.759     4.84     4.867697     20.43471     51.89576        13     1.088     1.032   0.49   0
       153    278.1565    630.3710 300.0585565 +22.6460241     519.4067     72.46691      1.850     4.38     4.967036     20.43471     47.52838         8     0.983     0.787 -51.61   0
       154    247.2012    630.3621 300.0489323 +22.6367400     556.6959     72.44847      1.473     5.22     5.015346     20.43471     53.56028         9     1.103     0.778 -61.01   0
       155    468.6110    628.7410 300.1183460 +22.7026493     1712.951     72.37466      1.374     2.56     5.108152     20.43471     242.1016        17     0.996     0.946  65.28   0
       156    568.0002    629.4066 300.1490745 +22.7326259     431.1025      72.2453      1.415     3.19     5.094029     20.43471     66.07327         8     0.982     0.577  22.22   0
       157     43.7315    625.3878 299.9873013 +22.5742911     750.9699     72.44847      1.933     3.85      5.39799     20.43471     75.16031        14     1.172     0.955 -43.14   0
       158    122.5207    623.5754 300.0123740 +22.5974033     20118.15     72.41158      1.716     3.44     5.123571     20.43471     2093.656        62     1.459     1.356  38.16   0
       159    553.6357    624.1806 300.1462986 +22.7268208      1039.56     72.44847      1.475     2.88     5.141573     20.43471     108.0488        15     0.994     0.914 -60.65   0
       160    589.7071    623.3650 300.1577970 +22.7373953     319.1866     72.37466      1.567     3.14     5.058084     20.43471     39.75826         5     0.827     0.665  44.16   0
       161    471.7162    621.5450 300.1216497 +22.7015140     213.6516     72.52221      0.985     3.39     5.110113     20.43471     50.67066         5     0.820     0.407  23.81   0
       162    924.5757    620.0538 300.2632424 +22.8367490     235.5696     72.44847      1.406     4.08     5.036189     20.43471     30.05613         5     0.767     0.620  -8.83   0
       163    971.5690    610.3047 300.2810677 +22.8480176     1193.763     72.37466      1.836     4.02     4.864682     20.43471     97.53639        21     1.300     1.095 -72.17   0
       164    637.0989    611.8335 300.1763037 +22.7482832     198.8228     72.41158      1.270     4.41     5.053995     20.43471     37.48618         6     0.957     0.578  21.69   0
       165     68.5283    607.7182 300.0007442 +22.5766605     1563.292     72.55905      2.021     5.49     5.389787     20.43471     112.9859        27     1.643     1.215 -82.55   0
       166    838.3909    608.8284 300.2400121 +22.8077149     481.8938     72.43002      1.453     3.73     5.262313     20.43471     60.71531        10     1.006     0.761  41.01   0
       167    135.0954    607.7300 300.0214282 +22.5966287     408.0459     72.54063      2.237     4.38     5.115018     20.43471     63.19547         8     1.417     0.769 -62.49   0
       168    517.0662    604.6980 300.1412393 +22.7102678     482.6239     72.52221      1.461     3.26      5.16597     20.43471     56.62081         7     0.802     0.705  45.76   0
       169    910.7523    603.3143 300.2643678 +22.8277992     1034.758     72.41158      2.291     7.51     5.059341     20.43471     63.14575        18     2.000     0.795  11.16   0
       170    309.7352    603.5410 300.0770921 +22.6477918     268.4155     72.46691      1.106     2.41     4.939315     20.43471     44.40284         5     0.689     0.467  20.12   0
       171    656.1340    601.3578 300.1856358 +22.7509771     354.9077     72.41158      1.487     4.20     5.081137     20.43471     34.68554         6     0.785     0.640 -42.26   0
       172    473.6343    596.9388 300.1302379 +22.6950242     646.9638     72.44847      1.332     2.72      5.12488     20.43471     93.80695        12     0.968     0.770  31.38   0
       173    621.5681    595.6171 300.1767323 +22.7389726      587.681     72.41158      1.464     3.44     5.113983     20.43471     69.16964        11     0.950     0.808   6.90   0
       174    668.9449    594.2468 300.1919364 +22.7527724     444.0127     72.46691      1.200     3.15     5.098348     20.43471     65.90801         7     0.762     0.629 -11.99   0
       175    639.1987    593.7455 300.1828321 +22.7437171     688.9927     72.35619      1.524     2.95     5.112149     20.43471     74.38625        12     0.943     0.855  40.50   0
       176    517.8019    592.7862 300.1453367 +22.7070679     942.2551     72.26379      1.435     2.75     5.203345     20.43471     121.2342        13     0.931     0.856  79.44   0
       177    951.7048    588.4722 300.2819616 +22.8357952     3309.912     72.54063      1.580     3.12     4.886427     20.43471     323.2976        31     1.277     1.157  64.18   0
       178    483.4744    588.3581 300.1360876 +22.6955094     1528.363     72.41158      1.351     2.64     5.142057     20.43471     177.8335        17     1.038     0.885  65.09   0
       179    848.8766    585.7470 300.2507775 +22.8042226     337.9019     72.46691      1.527     3.46       5.1551     20.43471     39.07949         7     0.871     0.573 -27.52   0
       180     45.3549    581.6942 300.0019942 +22.5622448     5189.315     72.44847      1.773     3.27     5.609631     20.43471     591.6581        38     1.402     1.310  25.74   0
       181    991.1862    578.7982 300.2974202 +22.8448344     385.2556     72.26379      1.465     4.09     4.810016     20.43471     40.67957         8     0.942     0.608   6.16   0
       182    512.1464    578.8678 300.1480956 +22.7013765     433.9913     72.44847      1.634     5.54      5.22956     20.43471     45.82943         8     1.040     0.831  20.19   0
       183    346.7893    574.9396 300.0979070 +22.6506902     9277.117     72.39312      1.473     3.02     4.843989     20.43471     1094.341        38     1.251     1.151  37.76   0
       184    604.6393    575.7170 300.1779217 +22.7281852     321.0934     72.39312      2.010     4.85     5.187169     20.43471     28.42536         6     0.911     0.730  85.77   0
       185    469.2812    572.0446 300.1369667 +22.6865719     9068.698     72.41158      1.387     2.70     5.145062     20.43471     1075.114        37     1.187     1.086  58.53   0
       186    881.0075    566.1913 300.2671472 +22.8082241       1946.6     72.28229      1.550     3.05     4.981433     20.43471     175.9208        21     1.094     1.059  17.02   0
       187    965.6869    563.5365 300.2944211 +22.8328138     12677.03     72.54063      1.593     3.07     4.838659     20.43471     1242.881        50     1.308     1.298 -45.26   0
       188    529.8774    561.6791 300.1591977 +22.7017535     11640.01     72.54063      1.377     2.56     5.338796     20.43471     1550.531        42     1.180     1.111  75.86   0
       189    699.4399    557.4905 300.2133737 +22.7513486     566.6757     72.43003      1.364     3.25     5.164331     20.43471     70.87546        10     0.966     0.779 -19.81   0
       190    257.1706    556.8903 300.0758909 +22.6186441     1504.653     72.39312      1.551     3.31     4.917947     20.43471     179.2673        22     1.314     0.974  37.90   0
       191    415.5871    556.4938 300.1253038 +22.6660154     343.5756     72.35619      1.278     3.44     5.095841     20.43471     44.44146         6     0.905     0.427 -19.07   0
       192    504.3131    554.3708 300.1536112 +22.6919947     371.9656     72.43002      1.173     2.83     5.265494     20.43471     54.24271         6     0.745     0.551  45.53   0
       193    804.4382    549.9138 300.2485588 +22.7806182     935.9374     72.41158      1.406     3.67     5.043382     20.43471     120.4799        15     1.125     0.868  55.68   0
       194    461.6013    549.8509 300.1417823 +22.6778979     4507.101     72.41158      1.406     2.61     5.156089     20.43471     596.3005        30     1.114     1.082  58.55   0
       195    439.9171    548.1461 300.1355864 +22.6709102     1259.601     72.46691      1.397     2.93     5.129905     20.43471     146.5937        21     1.145     0.954  45.27   0
       196    194.0629    547.6485 300.0592678 +22.5970714     701.5983     72.46691      1.396     3.98     5.040311     20.43471     87.02847        16     1.158     1.045 -23.95   0
       197    881.3496    545.5958 300.2739415 +22.8024074     1600.235     72.43002      1.543     3.08     4.850995     20.43471     152.4511        21     1.124     1.059 -81.81   0
       198    128.2695    545.3027 300.0395765 +22.5766703     311.2366     72.55905      1.729     3.79     5.133301     20.43471     36.61906         5     0.961     0.429  45.55   0
       199    578.1912    537.3579 300.1821394 +22.7092440     204826.4     72.44847      1.355     2.52     5.391862     20.43471     24360.99       196     1.419     1.376 -24.06   0
       200    761.7673    542.3033 300.2377288 +22.7656526     919.9662     72.41158      1.386     3.13      5.06419     20.43471     100.9768        14     0.984     0.919  46.00   0
       201    401.9804    543.5541 300.1252706 +22.6582224     420.4457     72.46691      1.398     2.60     5.016853     20.43471     53.07445         6     0.765     0.486 -10.31   0
       202    264.1740    537.1630 300.0844738 +22.6150816     3525.464     72.44847      1.495     2.98     4.886689     20.43471     393.7083        27     1.270     1.037  51.02   0
       203    829.9124    533.4592 300.2618433 +22.7835179     623.7543     72.50378      1.655     3.39     4.932242     20.43471     75.20458        14     1.055     0.947  84.21   0
       204    609.6017    524.1329 300.1962161 +22.7148552     270.1068     72.41158      1.475     4.08      5.37192     20.43471      34.3327         5     0.903     0.526  40.72   0
       205    468.8705    517.5762 300.1545234 +22.6708084     2838.365     72.44847      1.476     2.59     5.182536     20.43471     346.9663        25     1.147     1.048  63.99   2
       206    313.1003    520.1428 300.1052173 +22.6248621     518.4393     72.52221      1.528     4.80     4.825563     20.43471     47.35294        10     0.941     0.757  -3.02   0
       207    625.4806    515.1859 300.2040669 +22.7170417     358.7272     72.41158      2.015     4.56     5.392177     20.43471     25.64295         6     0.999     0.590 -24.96   0
       208    880.4276    514.2709 300.2838244 +22.7931280     471.5043     72.41158      1.554     2.90     4.835447     20.43471      49.5898         5     0.722     0.447  67.96   0
       209    699.2715    513.6144 300.2275667 +22.7386926     300.1942     72.43002      1.345     3.14      5.22022     20.43471     44.12647         5     0.709     0.481  -8.09   0
       210    573.1823    512.8423 300.1885386 +22.7007019     220.1144     72.44847      1.413     3.83     5.484993     20.43471     25.68487         5     0.961     0.439 -44.36   0
       211    786.0468    506.2547 300.2570004 +22.7625648     460.6083     72.46691      1.349     3.46     4.960145     20.43471     59.43446         9     0.811     0.758  36.19   0
       212    865.8406    504.1084 300.2825748 +22.7858398      1742.23     72.43002      1.486     3.00     4.836124     20.43471     171.1501        21     1.054     1.030  65.33   0
       213    737.0601    501.6576 300.2432243 +22.7465743     2577.616     72.50378      1.313     2.39     5.082873     20.43471     361.7338        25     1.072     1.009  51.89   0
       214    981.6082    499.0846 300.3203145 +22.8190516     524.2581     72.37466      1.506     3.78     4.789002     20.43471      58.7668         9     0.924     0.761   4.71   3
       215    979.9619    494.7901 300.3211950 +22.8173242     879.7644     72.43002      1.760     3.51     4.787976     20.43471     87.44814        13     1.143     0.808  81.34   3
       216    642.0356    498.1982 300.2147387 +22.7171205     327.1756     72.39312      1.205     3.21     5.419176     20.43471     73.54243         7     0.896     0.500  48.66   0
       217    524.3786    497.4768 300.1783293 +22.6816675     785.8753     72.43002      1.381     2.81     5.445646     20.43471     99.84677        12     0.982     0.759  39.09   0
       218    994.2925    495.8341 300.3253272 +22.8219137     1322.469     72.37466      1.551     3.01     4.781168     20.43471     135.1033        16     1.062     0.939   6.29   0
       219    866.1215    494.2114 300.2858754 +22.7830793     2213.211     72.41158      1.564     3.73     4.834088     20.43471     258.3008        24     1.328     0.972  70.91   0
       220    619.2540    491.9438 300.2096723 +22.7084999     831.2056     72.48535      1.905     3.26     5.505958     20.43471     73.47198        11     0.993     0.778  87.98   2
       221    405.0504    491.9619 300.1429745 +22.6443290     285.1065     72.43002      1.294     3.49     5.059613     20.43471     40.63639         5     0.970     0.369  31.41   0
       222    904.2972    489.1128 300.2994358 +22.7930426     4389.854     72.61428      1.490     2.89     4.819763     20.43471     438.8609        33     1.215     1.149  52.96   0
       223    458.0509    490.6180 300.1599065 +22.6598247     384.0511     72.43002      1.174     2.77     5.178267     20.43471     64.27442        10     0.985     0.625  63.53   0
       224    564.7413    484.9768 300.1949555 +22.6901691     324.1853     72.43002      1.199     2.68     5.579277     20.43471     49.59361         7     0.745     0.625  73.59   0
       225    995.9813    480.0762 300.3309694 +22.8178885     698.3176     72.43002      1.458     3.13      4.77266     20.43471     88.50764        13     0.997     0.886 -40.93   0
       226    136.2733    479.3506 300.0634729 +22.5601447     1073.074     72.43002      1.547     3.22     4.889891     20.43471     96.17686        16     1.085     0.928 -40.54   0
       227    797.2778    472.9024 300.2713282 +22.7563427     255.6778     72.55905      1.333     3.46     4.852443     20.43471     52.21404         7     1.035     0.645 -51.03   0
       228    402.8575    472.2927 300.1486764 +22.6380239     240.3498     72.48535      1.390     4.40     5.077806     20.43471     31.69718         5     0.777     0.710 -18.32   0
       229    129.1294    469.1321 300.0645689 +22.5550703     496.6739     72.46691      1.540     4.40     4.903215     20.43471     53.09375         9     1.086     0.656  82.07   0
       230    991.9362    468.5852 300.3334374 +22.8133739     379.1646     72.39312      1.417     4.13     4.774757     20.43471     42.90436         6     1.023     0.477  54.04   0
       231    736.7210    463.6729 300.2554486 +22.7355575     301.1382     72.54063      1.272     3.60     5.045667     20.43471     54.64416        10     0.902     0.850 -19.41   0
       232    345.1840    461.5326 300.1342230 +22.6176512     363.3195     72.43002      1.793     4.85     4.980583     20.43471     40.07071         6     0.867     0.808 -85.77   0
       233    625.3189    461.4195 300.2214694 +22.7015471     365.6013     72.41158      1.237     3.34     5.495506     20.43471     58.86935         5     0.791     0.410  23.98   0
       234    677.7161    459.5412 300.2384029 +22.7167003     763.4591     72.54063      1.336     2.51     5.338926     20.43471     114.8927        13     1.010     0.848  88.06   0
       235    992.2476    452.2732 300.3388292 +22.8087769     547.9276     72.43002      1.340     2.84     4.774863     20.43471     73.64921        10     0.977     0.656  22.25   0
       236    738.4377    451.9155 300.2597998 +22.7326928     928.2005     72.41158      1.361     2.96     5.016318     20.43471      117.939        15     1.083     0.817  27.83   0
       237    895.6445    448.0500 300.3100659 +22.7786481     967.4518     72.46691      1.393     3.03     4.825832     20.43471     131.9044        15     1.027     0.888  49.61   0
       238    853.7534    445.9827 300.2976734 +22.7655136     326.2213     72.46691      1.455     3.73     4.829331     20.43471     33.12758         5     0.809     0.494  31.12   0
       239    879.8784    444.4603 300.3063142 +22.7728967     607.3987     72.48535      1.234     2.76     4.829309     20.43471     95.35424        10     0.907     0.719  30.38   0
       240    860.3149    444.5070 300.3001984 +22.7670537     251.8538     72.61428      1.430     3.44     4.830639     20.43471     42.18254         7     0.988     0.665  16.04   0
       241    624.2527    442.3562 300.2273244 +22.6957508     3355.728     72.46691      1.304     2.43     5.460505     20.43471     411.6116        24     1.056     1.013  72.98   0
       242    985.0151    441.4987 300.3400698 +22.8035143     558.7436     72.33772      1.620     4.41     4.780188     20.43471      58.2208        11     1.201     0.731  25.53   0
       243     99.8306    432.9971 300.0671893 +22.5359159     390.5944     72.41158      1.560     5.30     4.951181     20.43471     41.73087         8     1.290     0.615  49.16   0
       244    629.7018    430.3432 300.2329205 +22.6939312     136.3712     72.52221      1.091     3.98     5.427794     20.43471     33.37669         6     0.869     0.521  45.95   0
       245    395.8912    429.9872 300.1602385 +22.6237878     284.4763     72.37466      1.257     2.98     5.179208     20.43471     50.56976         5     0.794     0.495 -35.33   0
       246    464.0833    429.5026 300.1816199 +22.6440799      429.156     72.59588      1.315     3.74     5.206889     20.43471     47.38577         6     0.807     0.499  -3.13   0
       247    907.5506    421.5461 300.3223809 +22.7745923     563.7002     72.46692      1.373     3.99     4.830497     20.43471     69.56797        10     1.148     0.752  11.62   0
       248    994.1328    420.2705 300.3498040 +22.8001388     945.0574     72.46691      1.559     3.52     4.773299     20.43471     93.70507        18     1.127     1.053  17.27   0
       249    643.9002    418.4228 300.2412120 +22.6947583     247.6858     72.37466      1.184     4.08     5.392909     20.43471     40.58059         6     0.766     0.620  37.46   0
       250    735.0646    416.3369 300.2702951 +22.7214579     1123.935     72.46691      1.316     2.62     4.960732     20.43471     142.9743        15     1.036     0.880  24.31   0
       251    530.3555    416.9431 300.2063282 +22.6603253      472.426     72.44847      1.335     2.57     5.377312     20.43471     69.39136         9     0.942     0.574  32.63   0
       252    239.0198    414.4753 300.1164714 +22.5723233     701.9784     72.43002      1.473     2.75     5.047498     20.43471     76.28071        10     0.851     0.798   3.16   0
       253    301.2127    410.1302 300.1372247 +22.5897148      3768.11     72.43002      1.376     2.70     5.271575     20.43471     449.0801        27     1.130     1.036  38.11   0
       254    248.4233    404.7822 300.1225409 +22.5723588     7761.354     72.41158      1.478     2.63     5.114936     20.43471     1077.055        40     1.277     1.145  65.63   0
       255   1014.3515    399.8839 300.3627284 +22.8003266     1994.014     72.41158      1.617     3.40     5.024634     20.43471     182.7544        23     1.185     1.060 -20.27   0
       256    389.1917    399.1467 300.1681612 +22.6129235     4844.216     72.43002      1.331     2.62     5.245937     20.43471     552.5851        29     1.178     1.009  50.30   0
       257    633.3823    395.8578 300.2452577 +22.6851245     18822.27     72.41158      1.357     2.48     5.389956     20.43471     2535.849        58     1.284     1.192  50.57   0
       258    651.1021    395.8413 300.2507833 +22.6904263      835.265     72.41158      1.867     6.17     5.378387     20.43471     66.90929        14     1.701     0.628 -40.73   0
       259    476.2956    395.5492 300.1964392 +22.6379858     460.4648     72.50378      3.265     5.07     5.228159     20.43471     39.92813         6     0.957     0.760 -73.81   0
       260    253.3461    382.9718 300.1311484 +22.5675722     278.5975     72.43002      1.455     2.63     5.195415     20.43471     47.71453         5     0.804     0.489 -28.04   0
       261    967.0630    378.6005 300.3548806 +22.7800551     773.0339     72.41158      1.485     3.62     5.058765     20.43471     101.6794        12     1.114     0.734 -86.15   0
       262    188.1009    376.0177 300.1131161 +22.5460213     2193.918     72.33772      1.529     2.88     5.076783     20.43471     237.8536        25     1.191     1.071  11.39   0
       263    987.8616    365.8878 300.3654942 +22.7826230     1254.733     72.52221      1.428     2.72     5.333657     20.43471     144.8717        15     1.015     0.889  76.87   0
       264    574.0927    365.3120 300.2367011 +22.6585916     6703.343     72.59588      1.306     2.44     5.331683     20.43471     846.0739        33     1.174     1.001  68.57   0
       265    289.0627    364.9624 300.1481001 +22.5731043     654.8769     72.44847      1.454     2.57     5.285906     20.43471     89.78739        10     0.882     0.712   5.60   0
       266    833.9829    357.3966 300.3202550 +22.7341289     368.0165     72.35619      1.668     4.49     4.794575     20.43471     39.60134         7     0.972     0.591  57.59   0
       267    146.7835    357.2802 300.1063498 +22.5282582     550.0856     72.44847      1.632     4.46     5.046017     20.43471     70.97625         9     1.190     0.657  59.66   0
       268    778.2045    354.3310 300.3038604 +22.7165510     1248.133     72.39312      1.516     3.09     4.948959     20.43471     134.7198        19     1.186     0.923  65.13   0
       269    687.7664    355.4337 300.2753171 +22.6897923     516.5855     72.50378      1.280     2.30     5.337353     20.43471     90.48975         8     0.827     0.607   3.47   0
       270    480.6569    351.5526 300.2120712 +22.6266535     6211.932     72.46691      1.333     2.38     5.246619     20.43471     904.6309        31     1.147     1.008  60.57   0
       271    872.7405    346.0276 300.3360288 +22.7424606     1483.938     72.43002      1.407     2.77     4.831603     20.43471      157.514        18     1.133     0.896   7.03   0
       272    970.0925    346.2805 300.3663119 +22.7716670     604.9067     72.55905      1.313     2.65     5.284662     20.43471     90.34274        10     0.867     0.736  10.64   0
       273    465.1945    340.1739 300.2109490 +22.6187531     352.0157     72.41158      1.226     3.24      5.25879     20.43471     65.19535         8     0.866     0.728 -75.14   0
       274    547.8110    338.2879 300.2372835 +22.6429557     382.5692     72.37466      1.371     4.32     5.269522     20.43471     57.23008         9     1.041     0.682  37.72   0
       275    825.6743    337.2650 300.3241957 +22.7258541     243.0719     72.46691      1.176     4.07     4.865461     20.43471     36.62365         6     0.963     0.493  48.86   0
       276    528.8420    336.0214 300.2321119 +22.6366235     336.2338     72.46691      1.055     2.30     5.261404     20.43471     54.87343         5     0.757     0.473  26.34   0
       277    845.5349    333.9181 300.3314739 +22.7308363     565.8321     72.54063      1.354     3.24     4.873786     20.43471     83.71532        10     1.045     0.736  30.99   0
       278    127.6310    332.7995 300.1083374 +22.5154899     342.9803     72.39312      1.591     4.18     5.191558     20.43471     37.23132         5     0.965     0.517 -37.85   0
       279    368.2719    330.6921 300.1838599 +22.5869951     2481.772     72.57747      1.334     2.37     5.289512     20.43471     330.7318        23     1.103     0.987  74.60   0
       280     86.6261    328.0969 300.0971181 +22.5018492     1170.634     72.37466      1.676     3.56     5.336944     20.43471     123.1014        17     1.254     0.971  25.50   0
       281    337.6218    320.1453 300.1777444 +22.5747833     30190.19     72.44847      1.422     2.59     5.290917     20.43471     3571.989        66     1.330     1.177  60.13   0
       282    872.2873    317.8849 300.3450171 +22.7342328     1394.095     72.55905      1.355     2.60     4.927311     20.43471     194.4432        21     1.083     1.039 -33.25   0
       283     33.9237    307.8839 300.0872971 +22.4802491     4914.245     72.54063      1.639     3.23     5.919237     20.43471     496.7038        36     1.338     1.245  38.22   0
       284    787.5673    306.9903 300.3221363 +22.7057439     565.1633     72.43002      1.428     2.58     5.101665     20.43471     76.56396        10     0.938     0.650 -26.46   0
       285    436.0922    305.4333 300.2131591 +22.6000557     471.0883     72.37466      1.354     2.87     5.277575     20.43471     65.16245         9     0.967     0.649 -44.24   0
       286    211.8127    306.2462 300.1431214 +22.5330954     452.2162     72.44847      1.428     2.84      5.32852     20.43471     67.58401         9     0.909     0.691  26.42   0
       287    237.8671    304.7882 300.1516964 +22.5404841     5211.127     72.43002      0.541     2.03     5.326787     20.43471     3900.082         5     0.467     0.273  53.45   0
       288    748.0500    300.0546 300.3120683 +22.6919212     1946.749     72.46691      1.368     2.67     5.303443     20.43471     257.0625        22     1.109     0.992  18.97   0
       289    238.9094    297.9194 300.1542483 +22.5388240     3723.916     72.54063      0.438     1.84     5.333524     20.43471     2978.549         7     0.339     0.317  46.03   0
       290    963.1995    293.1639 300.3813921 +22.7543278     571.2494     72.39312      1.296     2.75     5.340382     20.43471      96.4093        11     0.954     0.841  73.39   0
       291    556.5071    294.5697 300.2541723 +22.6329975     321.4258     72.35619      1.268     3.69     5.284178     20.43471     43.96566         6     0.933     0.420 -18.38   0
       292    409.7874    284.5119 300.2117575 +22.5861661     2099.948     72.37466      1.503     3.24     5.291913     20.43471      271.493        23     1.353     0.877  59.65   0
       293    622.5415    283.8424 300.2782189 +22.6496872     398.5791     72.41158      1.430     3.41     5.382442     20.43471     43.54855         5     0.747     0.459  70.80   0
       294    849.3331    277.4741 300.3509668 +22.7157430     699.1464     72.50378      1.586     3.38     5.110033     20.43471     79.77198        12     1.018     0.883  72.33   0
       295    748.3592    275.1293 300.3202488 +22.6848480     405.7064     72.39312      1.326     4.35     5.354453     20.43471     44.61937         6     0.845     0.638  57.20   0
       296    731.3145    275.1164 300.3149407 +22.6797423     423.8406     72.54063      1.260     2.33     5.388669     20.43471     67.32378         7     0.697     0.652 -50.82   0
       297    699.6924    274.7651 300.3052001 +22.6701755     283.7655     72.37466      1.216     3.18     5.410119     20.43471     38.17272         6     0.757     0.547  41.12   0
       298    200.0236    264.9349 300.1528532 +22.5177001     295.8647     72.41158      1.301     4.82     5.419259     20.43471      35.7414         6     1.234     0.563  21.13   0
       299    485.7360    263.9424 300.2420691 +22.6030033     1086.241     72.48535      1.214     2.24     5.313917     20.43471     175.8685        15     0.915     0.869  24.47   0
       300     58.3215    264.3258 300.1090039 +22.4750590     383.9534     72.54063      1.569     3.26     5.855439     20.43471     45.99862         5     0.748     0.452  12.05   0
       301    997.1990    260.4520 300.4026093 +22.7550905     455.5512     72.39312      1.400     4.06     5.515864     20.43471     45.25967         7     0.981     0.480  -8.94   0
       302    868.8007    257.5102 300.3635120 +22.7158276     367.1337     72.31925      1.296     2.39     5.194327     20.43471     49.43656         5     0.713     0.453 -22.48   0
       303    730.6030    255.9099 300.3209478 +22.6740075     2206.188     72.33772      1.337     2.42     5.408795     20.43471     307.4732        21     1.066     0.948  62.31   0
       304    991.9241    250.2937 300.4042578 +22.7505903     3207.665     72.57747      1.488     2.75     5.490246     20.43471     387.3689        25     1.165     1.094 -37.50   0
       305    813.1578    246.9509 300.3495865 +22.6961397     80.26966     72.44847      0.960     3.83     5.322619     20.43471     30.34301         5     0.812     0.519  35.17   0
       306    438.8886    239.8600 300.2352951 +22.5820536     712.1741     72.50378      1.376     2.99     5.364171     20.43471     83.21983        11     0.933     0.797  87.09   0
       307    113.8916    233.8133 300.1361679 +22.4829534     1379.699     72.37466      1.724     3.62     5.413064     20.43471     133.4174        23     1.333     1.057 -20.15   0
       308    144.4685    233.7649 300.1456882 +22.4921024     667.9014     72.43002      1.427     3.40     5.405885     20.43471      105.581        12     1.143     0.780  -5.56   0
       309    860.9881    231.3450 300.3695607 +22.7059649      303.224     72.43002      1.182     3.99     5.344287     20.43471     31.82756         5     1.057     0.430 -67.87   0
       310   1007.8987    230.9711 300.4155083 +22.7498103     487.6415     72.35619      1.462     2.35     5.482066     20.43471     72.20995         9     0.788     0.724  12.47   0
       311    851.0932    227.5261 300.3677135 +22.7019058     376.6922     72.57747      1.158     3.36     5.372149     20.43471      39.1683         6     0.781     0.498  -3.08   0
       312    197.6631    226.0197 300.1647376 +22.5058175     431.7664     72.41158      1.188     2.79     5.486701     20.43471     74.44756         9     1.036     0.531 -21.77   0
       313     53.8550    223.3961 300.1208871 +22.4619701     368.9293     72.39312      1.465     4.43     5.876686     20.43471     41.69242         8     1.020     0.643 -58.29   0
       314    992.8320    223.5076 300.4132273 +22.7431561     313.4283     72.35619      1.189     2.17     5.464867     20.43471     57.01919         5     0.702     0.450 -23.83   0
       315    873.7722    219.6607 300.3773360 +22.7064297      364.412     72.43002      1.223     2.41     5.395103     20.43471     71.58502         7     0.860     0.529  57.16   0
       316    802.0994    217.1707 300.3557956 +22.6842667     635.7449     72.35619      1.349     3.19      5.44558     20.43471     82.23556        12     0.989     0.806  64.29   0
       317    392.5912    216.8616 300.2283429 +22.5615799     304.7405     72.37466      1.491     1.77     5.421393     20.43471     48.51844         5     0.659     0.454  66.82   0
       318    900.4542    206.4100 300.3899538 +22.7106017     1990.574     72.43002      1.398     2.37      5.44168     20.43471     268.6817        19     1.075     0.934 -81.59   0
       319    396.7225    198.6181 300.2355433 +22.5575755     1067.643     72.43002      1.493     2.81     5.510338     20.43471     130.9776        18     1.118     0.990 -75.54   0
       320    148.7435    199.0223 300.1582811 +22.4834068       347.85     72.44847      1.496     2.52     5.428771     20.43471     46.95214         7     0.747     0.629 -88.54   0
       321    798.7452    197.8982 300.3609987 +22.6777206     545.8452     72.52221      1.468     3.14      5.45966     20.43471     68.00674        12     0.955     0.844  42.17   0
       322    944.3151    194.8567 300.4073807 +22.7204001     106.4643     72.52221      1.101     3.52     5.448705     20.43471     38.98601         6     0.928     0.577  22.04   0
       323    318.8907    203.5491 300.2097269 +22.5356806      2159.69     72.44847      1.389     2.57     5.631967     20.43471     282.8882        21     1.084     0.971  77.35   0
       324    213.5022    190.9587 300.1810296 +22.5004935      763.067     72.41158      1.415     3.07     5.624234     20.43471      106.426        11     1.092     0.640 -16.32   0
       325    751.4533    187.8059 300.3495288 +22.6606661     1601.126     72.39312      1.367     2.65     5.521487     20.43471     213.7909        19     1.096     0.899  67.95   0
       326    816.4979    187.4094 300.3699339 +22.6800164     736.0385     72.33772      1.389     3.02     5.460602     20.43471     100.5089        13     1.098     0.758  46.02   0
       327    235.1102    184.2214 300.1899332 +22.5050317     559.6901     72.35619      1.346     2.61     5.718592     20.43471     79.50849         8     0.798     0.699  30.24   0
       328   1022.6750    180.6272 300.4364425 +22.7397456     743.1727     61.75476      1.357     3.15      5.29438     20.43471     98.99197        14     1.085     0.834  45.13  24
       329    524.7621    180.1099 300.2814016 +22.5905973      375.073     72.41158      1.485     2.96     5.402171     20.43471     63.95067         5     0.916     0.447  26.23   0
       330    755.5247    179.0189 300.3536466 +22.6593577     793.9753     72.43002      1.458     3.13     5.533769     20.43471     87.68105        13     1.004     0.839  53.92   0
       331    676.1717    178.4551 300.3290998 +22.6354466     1055.988     72.43002      1.252     2.42     5.461928     20.43471     183.1045        15     0.979     0.859  60.33   0
       332    497.4672    175.1502 300.2745107 +22.5809996     380.0843     72.41158      1.186     2.68      5.41328     20.43471     60.63651         7     0.843     0.568   6.79   0
       333    871.5649    169.8837 300.3927863 +22.6914520      1463.78     72.39312      1.431     2.80      5.47903     20.43471     168.7165        21     1.222     0.982  87.97   0
       334    602.2987    170.0428 300.3088127 +22.6109159      1000.34     72.43002      1.435     2.71     5.418802     20.43471     133.5461        15     1.011     0.860  79.63   0
       335    883.6233    169.3188 300.3967299 +22.6948971     757.5184     72.39312      1.309     2.63     5.477979     20.43471     90.13663        12     0.931     0.780 -38.56   0
       336    929.5188    168.1360 300.4114281 +22.7082869     410.5577     72.54063      1.240     4.63     5.465159     20.43471      44.9175         7     1.187     0.512  52.07   0
       337   1000.3065    159.4445 300.4363298 +22.7269604     1146.595     72.44847      1.642     3.45     5.277194     20.43471     116.5564        18     1.140     1.005   6.75   0
       338     24.2519    156.2760 300.1334469 +22.4338277       496.34     72.44847      1.720     3.31     6.111577     20.43471     68.20033         8     1.046     0.618  -5.55   0
       339    234.4243    152.2564 300.2000813 +22.4956445     672.8533     72.43002      1.353     3.02     5.827244     20.43471     92.03094        11     0.996     0.688  23.49   0
       340     96.2274    147.0404 300.1588070 +22.4527436     2219.582     72.48535      1.601     2.97     5.801851     20.43471     228.9283        26     1.270     1.119  70.99   0
       341    919.3909    144.3687 300.4159735 +22.6984197     833.5961     72.41158      1.531     2.59      5.49254     20.43471     101.3033        13     0.955     0.828  -5.59   0
       342     45.7660    144.3643 300.1439925 +22.4368546     536.6796     72.50378      1.616     3.59     6.003072     20.43471      62.4946         7     1.104     0.481   0.79   0
       343    253.5394    140.4328 300.2098585 +22.4979738     5547.076     72.46692      1.446     2.59     5.902209     20.43471     725.7128        37     1.222     1.169  65.93   0
       344    235.2301    141.6541 300.2037684 +22.4928403     326.1605     72.44847      1.285     3.42     5.850552     20.43471     35.73714         5     0.771     0.439 -16.89   0
       345     37.6356    134.7005 300.1445982 +22.4316433     1233.772     72.41158      1.694     3.69     6.023912     20.43471     141.6975        19     1.215     1.100  70.73   0
       346    237.1181    131.4924 300.2076490 +22.4904867     596.7351     72.57747      1.478     2.51     5.876806     20.43471     64.18349         8     0.765     0.673  76.94   0
       347    897.7291    122.1150 300.4164303 +22.6855377     3453.792     72.54063      1.431     2.70     5.587359     20.43471     417.6381        29     1.198     1.127  89.60   0
       348   1001.3778    120.9224 300.4491509 +22.7161962     2753.389     72.41158      1.529     3.00     5.272244     20.43471     292.0421        29     1.219     1.119 -80.83   0
       349    447.1989    117.2713 300.2776220 +22.5493139     700.4847     72.33772      1.365     2.85     5.561695     20.43471     80.26891        10     0.901     0.799 -26.27   0
       350    199.9258    117.8868 300.2004927 +22.4754375     211.2302     72.57747      1.393     4.33     5.796253     20.43471     42.79867         5     0.785     0.681 -16.93   0
       351    562.1943    114.9242 300.3141874 +22.5830656     446.7749     72.33772      1.713     4.36     5.535995     20.43471     42.23281         8     1.113     0.486 -33.75   0
       352    371.3629    109.0485 300.2566845 +22.5242435     793.0189     72.44847      1.513     2.49     5.850666     20.43471     72.75609         8     0.757     0.685  14.53   2
       353    905.7778    107.7194 300.4236064 +22.6838037     233.5347     72.39312      1.260     3.59     5.590924     20.43471     32.11927         5     0.840     0.621  50.84   0
       354    137.4003    106.1104 300.1848697 +22.4533243     622.0473     72.33772      1.328     3.76     5.778978     20.43471     78.38942        12     1.049     0.963  61.79   0
       355    498.5197    104.5115 300.2977342 +22.5610111     1742.823     72.55905      1.337     2.51     5.564079     20.43471     236.1036        20     1.081     0.975  48.78   0
       356    426.5225    104.8627 300.2752075 +22.5395569      566.422     72.50378      1.477     3.70     5.581755     20.43471      67.4725         8     0.976     0.633 -54.79   0
       357     35.5483    104.9994 300.1535750 +22.4224892     211.6896     72.39312      1.359     4.88     5.992724     20.43471     36.59961         6     1.045     0.647  34.33   0
       358    560.2377    104.2075 300.3170512 +22.5793990     529.1078     72.44847      1.554     2.16     5.566823     20.43471     88.87636         7     0.886     0.501  19.40   0
       359    242.2153     99.9888 300.2194438 +22.4829631     353.2117     72.37466      1.409     3.64     5.938102     20.43471     68.31714         7     0.985     0.609  83.31   0
       360    714.7941     98.2321 300.3671379 +22.6239367       255.05     72.43002      1.039     3.78     5.606099     20.43471     37.83139         5     0.859     0.477 -45.83   0
       361    787.0177     94.2722 300.3909327 +22.6444077     396.4614     72.43002      1.445     3.64     5.621809     20.43471       45.517         9     0.997     0.613  58.30   0
       362    634.9824     90.8052 300.3446763 +22.5979169     269.2073     72.37466      1.231     3.27     5.605062     20.43471     36.78941         6     0.905     0.447  37.71   0
       363    933.1614     88.3465 300.4384263 +22.6864204     331.0841     72.43002      1.315     3.00      5.53536     20.43471      41.1762         6     0.739     0.606 -84.75   0
       364    272.5687     84.2227 300.2339934 +22.4875243      6130.59     72.43002      1.475     2.70     5.924733     20.43471     770.6174        37     1.344     1.089  55.18   0
       365    779.1172     85.3862 300.3913495 +22.6394880     367.5378     72.41158      1.344     3.09     5.639736     20.43471     40.89383         5     0.743     0.438  20.73   0
       366    123.6943     83.5882 300.1879074 +22.4427493       727.58     72.37466      1.580     3.33     5.857732     20.43471     102.8592        13     1.056     0.904  23.82   0
       367    901.5860     81.8518 300.4306822 +22.6751074     365.8529     72.46691      1.338     2.52     5.681127     20.43471     50.75317         5     0.729     0.429  65.69   0
       368     34.4151     74.7523 300.1630238 +22.4134637     461.7123     72.46691      1.613     2.88      5.98666     20.43471     52.21527         8     0.948     0.562  19.37   0
       369    518.6436     69.6582 300.3152944 +22.5570160     6377.036     72.43002      1.458     2.53     5.649282     20.43471     894.5231        35     1.241     1.102  72.04   0
       370    404.1975     69.4300 300.2797411 +22.5226890     691.7214     72.39312      1.402     4.50     5.502567     20.43471     74.67355        13     1.172     0.867 -46.58   0
       371    575.5981     64.3453 300.3347525 +22.5725358     360.0521     72.35619      1.208     3.29     5.696486     20.43471     46.46336         5     0.722     0.467 -74.27   0
       372    538.8494     64.2396 300.3233421 +22.5615063     234.4234     72.44847      1.335     3.88     5.687453     20.43471     35.79259         6     0.764     0.566 -45.40   0
       373    771.0225     59.6419 300.3971685 +22.6296610     961.5225     72.46691      1.539     4.06     5.677918     20.43471     103.5739        15     1.153     1.073 -51.39   0
       374    712.4282     61.3349 300.3783572 +22.6126170     347.5451     72.43002      1.221     2.76     5.610561     20.43471     52.38414         6     0.837     0.471   1.77   0
       375    863.3886     58.5339 300.4263256 +22.6569732     463.9539     72.39312      1.455     4.31     5.819716     20.43471     50.44167         8     0.914     0.794  12.49   0
       376    212.0344     53.3127 300.2251823 +22.4605136     541.9926     72.41158      1.489     3.09     5.920115     20.43471     70.08539         8     0.982     0.615 -49.22   0
       377    570.0088     52.5545 300.3368321 +22.5674728     492.9398     72.44847      1.228     2.83     5.732174     20.43471     61.44637         6     0.766     0.489   8.80   0
       378    647.0401     49.7976 300.3617207 +22.5897330     6262.703     72.43002      1.436     2.76     5.663285     20.43471     832.2184        34     1.245     1.090  80.09   0
       379    421.8990     48.6970 300.2919681 +22.5220294     1444.841     72.63268      1.349     3.00     5.391837     20.43471     193.3345        17     1.044     0.931  27.15   0
       380    687.8706     46.9916 300.3753519 +22.6011437     773.9715     72.41158      1.404     3.65     5.610634     20.43471     110.9658        13     1.371     0.749  67.31   0
       381    704.1459     43.5871 300.3815267 +22.6050343     612.6589     72.44847      1.260     2.63     5.612319     20.43471     75.45479         9     0.888     0.669  27.41   0
       382    170.6924     41.2250 300.2162437 +22.4446584      669.137     72.37466      1.465     3.21     5.875453     20.43471       74.443        13     1.016     0.899 -32.42   0
       383    973.9063     41.0748 300.4664553 +22.6850027     515.2429     72.57747      1.319     3.48     5.780527     20.43471     73.74077        10     1.023     0.735  15.70   0
       384    742.5664     39.0915 300.3949572 +22.6152363      445.024     72.39312      1.326     2.27     5.631835     20.43471     66.92018         6     0.745     0.496 -89.85   0
       385    691.2252     34.7133 300.3803754 +22.5986161     2780.562     72.37466      1.418     2.76     5.613733     20.43471     344.4072        27     1.198     1.044  84.68   0
       386    706.3558     33.3904 300.3855190 +22.6027627     975.7899     72.44847      2.052     4.83     5.614213     20.43471     93.12355        20     1.485     1.048  57.59   0
       387    332.1636     35.3267 300.2683752 +22.4913198     454.0943     72.37466      1.229     2.72     5.474463     20.43471      47.0386         6     0.755     0.523  45.13   0
       388    777.6585     26.2931 300.4100422 +22.6220530     1630.836     72.48535      1.482     2.78     5.761626     20.43471     200.4219        20     1.237     0.937  57.61   0
       389    715.4948     19.9002 300.3927376 +22.6016167     743.7939     72.61428      1.440     2.50     5.615705     20.43471     89.96873        11     0.926     0.707 -17.58   0
       390    757.8167   1017.2065 300.0821488 +22.9008490     609.1789     72.37466      2.074     7.73     3.348157     20.43471     40.64428        12     1.609     1.039  51.74  16
       391     94.2365     18.9429 300.1996951 +22.4153562     581.5493     72.43002      1.463     2.73     6.011318     20.43471     73.09013        10     0.903     0.705  -8.93   0
       392    425.0889     16.9651 300.3032413 +22.5138630     862.9265     72.41158      1.460     2.92     5.283646     20.43471     98.18397        11     0.886     0.818 -34.96   0
       393    807.2944     16.0118 300.4226121 +22.6279603     533.5563     72.37466      1.434     3.55     5.871713     20.43471     62.31253         8     0.858     0.596 -45.55   0
       394    320.0940   1015.5069 299.9464159 +22.7690820     1365.631     72.59588      2.849     6.01     10.22359     20.43471     71.21182        26     1.502     1.338  11.07  16
       395      5.6840    976.2886 299.8614419 +22.6634769     1963.562     72.55905      9.016    14.50    -12.80702     20.43471     61.56589        56     3.425     1.707  13.41  27
       396    154.8136   1010.9478 299.8965069 +22.7181753     1412.889     72.46691      3.128    11.10     94.60459     20.43471     58.58352        24     2.002     1.714 -22.60   2
