#   1 NUMBER                 Running object number                                     
#   2 X_IMAGE                Object position along x                                    [pixel]
#   3 Y_IMAGE                Object position along y                                    [pixel]
#   4 ALPHA_J2000            Right ascension of barycenter (J2000)                      [deg]
#   5 DELTA_J2000            Declination of barycenter (J2000)                          [deg]
#   6 FLUX_APER              Flux vector within fixed circular aperture(s)              [count]
#   7 FLUXERR_APER           RMS error vector for aperture flux(es)                     [count]
#   8 FLUX_RADIUS            Fraction-of-light radii                                    [pixel]
#   9 FWHM_IMAGE             FWHM assuming a gaussian core                              [pixel]
#  10 BACKGROUND             Background at centroid position                            [count]
#  11 THRESHOLD              Detection threshold above background                       [count]
#  12 FLUX_MAX               Peak flux above background                                 [count]
#  13 ISOAREA_IMAGE          Isophotal area above Analysis threshold                    [pixel**2]
#  14 A_IMAGE                Profile RMS along major axis                               [pixel]
#  15 B_IMAGE                Profile RMS along minor axis                               [pixel]
#  16 THETA_IMAGE            Position angle (CCW/x)                                     [deg]
#  17 FLAGS                  Extraction flags                                          
         1    583.5530     18.1947 300.3947724 +22.5626139     1328.439     72.51065      1.321     2.45     4.380905     20.46267      179.355        18     1.140     0.855  51.28   0
         2    404.0492     12.0369 300.3409034 +22.5070917     2255.766     72.52913      1.372     2.47     4.315026     20.46267     290.9295        23     1.103     0.956  67.38   0
         3     51.2890     10.0573 300.2318856 +22.4008345     1436.562     72.58453      1.530     2.87     5.254182     20.46267     167.3643        19     1.057     0.983 -89.58   0
         4    535.2659      6.9010 300.3834016 +22.5449097      365.755     72.62144      1.322     2.50     4.338859     20.46267     58.07132         7     0.809     0.567  65.50   0
         5    441.5311      1.6869 300.3559203 +22.5153425     319.0359      58.5447      1.788     5.19     4.352273     20.46267     38.92461         6     1.642     0.463   0.56  24
         6     70.6010   1008.6847 299.9134819 +22.6930695     1859.236      72.4182     13.845    15.65     37.92079     20.46267      57.7142        62     3.115     2.186  13.48  27
         7    610.3149   1022.9755 300.0766542 +22.8591720     5147.689     60.30346      1.452     3.46     1.869142     20.46267     496.1776        29     1.363     0.962   6.05  24
         8    174.2701   1022.7505 299.9411079 +22.7282317     1164.394      61.4916      7.018    12.84     15.41512     20.46267     43.05624        25     2.641     1.738   6.90  27
         9    186.5330   1022.2516 299.9450808 +22.7317709     1615.128     63.88549      7.874    20.51     12.85357     20.46267     54.10562        55     4.416     2.648 -60.71  27
        10    193.0675   1021.1981 299.9474543 +22.7334310     1269.969     68.38329      7.276    12.63     11.64767     20.46267     50.61115        36     5.524     0.803  37.10  27
        11    191.9340   1023.2644 299.9464294 +22.7336828     697.3481     58.77312      3.113     6.45     11.98692     20.46267     55.22651        13     1.913     0.611  30.04  27
        12    132.1795   1021.7365 299.9283608 +22.7153019     815.5972      66.2131      6.103     7.20     24.52225     20.46267     36.77663        11     1.915     0.757  51.62  24
        13    120.5421   1018.5173 299.9257935 +22.7108848     1487.114     72.60299      7.509    13.65     26.39708     20.46267     42.70009        34     2.904     1.784  66.13  18
        14     90.0945   1023.7650 299.9146273 +22.7032446     717.3162     55.92265      4.368     6.21     36.15173     20.46267      48.1649        12     2.393     0.453  -0.12  27
        15     82.0823   1015.0131 299.9149877 +22.6983308     939.4688     72.51065     10.242     8.24     36.25396     20.46267     51.74024        15     2.073     1.430  19.88  19
        16     76.6590   1019.3521 299.9118908 +22.6979452     1155.321     72.58453      7.576     8.71     39.62617     20.46267      38.0805        12     1.993     1.062 -15.93  19
        17     84.4648   1021.0721 299.9137553 +22.7007823     1608.248     68.81301     13.621    14.00     37.58787     20.46267     44.22407        36     4.610     1.183 -11.38  27
        18     34.7573   1008.1625 299.9025204 +22.6821548     2728.621     72.62144      6.206    21.85     49.78792     20.46267     59.52946       130     4.338     3.057 -16.60  19
        19     41.5745   1021.4779 299.9003028 +22.6880170     2890.242     67.23724      6.757    17.71     54.35078     20.46267     78.05954       109     4.173     2.470 -11.80  27
        20     37.1992   1015.1459 299.9010054 +22.6848889     2530.106     72.45519      6.752    15.74     53.00473     20.46267     64.70801        74     3.855     1.787 -36.97  19
        21     57.8115   1011.1765 299.9086987 +22.6899424     1298.363     72.52913      8.340     9.01     43.33623     20.46267     36.13438        19     1.954     1.158   4.97   3
        22     58.0135   1005.4229 299.9106343 +22.6883546     866.2915     72.51065      8.654     8.07     40.55903     20.46267     34.89524        14     1.471     1.237  74.74   3
        23    518.7007   1014.2275 300.0509866 +22.8291754     1468.197     72.47369      1.667     3.29     2.394801     20.46267     123.3429        20     1.156     1.067  58.57   0
        24    343.1855   1008.8836 299.9981277 +22.7749686     6483.942     72.49217      1.725     3.27     3.085708     20.46267      565.308        48     1.448     1.368  69.11   0
        25    696.1870   1011.2641 300.1072060 +22.8815725     335.3708     72.49217      1.607     4.77     1.967528     20.46267     35.37938         6     0.951     0.679  78.79   0
        26    412.6161   1010.6371 300.0191500 +22.7963105     1114.817     72.52913      1.749     3.98     2.566856     20.46267     99.53233        20     1.288     1.009 -27.93   0
        27    101.4195   1021.7287 299.9188079 +22.7060623     997.3238     66.27379      7.665    10.06     31.75434     20.46267     45.92134        20     2.811     1.003 -33.52  27
        28     47.7727    975.9412 299.9170501 +22.6768322     1198.482     72.52913      7.277    14.78     29.11122     20.46267     60.41825        26     3.181     1.910  -6.43   3
        29     32.0915    993.0643 299.9066071 +22.6770286     1737.573     72.63988      9.506    14.64     42.12051     20.46267     46.96286        39     3.133     1.903 -77.62   3
        30     37.8856    992.0836 299.9087256 +22.6784878      2235.02     72.63988      8.907    26.09     39.92592     20.46267     54.90312       101     7.144     2.646  45.72  19
        31     37.6116    979.1898 299.9128373 +22.6747113     2135.656      72.4182      5.202    16.52     32.74395     20.46267     77.37005        63     3.214     2.360 -59.51   3
        32    375.9844    995.7305 300.0126093 +22.7810423     398.0977      72.5476      1.470     4.09     2.919227     20.46267     50.24429         7     0.775     0.620   9.53   0
        33     63.0581   1013.8649 299.9094529 +22.6922883     1224.156     72.56606      8.307     9.37     42.88604     20.46267     49.07875        20     1.922     1.275 -50.51  19
        34    889.6195    987.4432 300.1752295 +22.9327441     2086.481      72.5476      1.747     3.80     2.551857     20.46267     145.0696        28     1.291     1.212 -71.45   0
        35    539.9203    985.1447 300.0670581 +22.8272011     357.4556     72.56606      1.707     4.75     2.570035     20.46267      30.5244         7     0.916     0.699  59.07   0
        36    678.5691    975.9674 300.1132100 +22.8661611     908.3835      72.5476      2.233     5.18     2.386995     20.46267     53.10986        19     1.285     1.136  48.48   0
        37   1005.3483    975.1953 300.2152994 +22.9639210     478.8843     72.52913      1.756     7.13      2.57719     20.46267     38.12508        14     1.348     1.056 -31.75   0
        38     44.2965    987.7709 299.9121202 +22.6791776     1741.776     72.45519     11.721    14.46     36.20834     20.46267     44.65347        52     2.853     2.038  36.75   3
        39    713.1807    970.5306 300.1257593 +22.8749822     1020.813     72.52913      1.661     3.46     2.441906     20.46267     84.07249        18     1.122     0.991   1.97   0
        40    491.1971    971.1901 300.0564381 +22.8085798     335.4262     72.34415      1.439     3.56     2.440093     20.46267     44.57088         5     0.771     0.649 -58.31   0
        41    735.3639    964.2036 300.1347285 +22.8798196     11346.58      72.5476      1.632     3.12         2.52     20.46267     909.9569        50     1.352     1.318 -43.93   0
        42    926.2746    963.6976 300.1943861 +22.9369169     515.8307     72.67677      1.732     5.15     2.572752     20.46267     46.27215        10     1.223     0.830  26.51   0
        43    780.9318    963.9132 300.1490187 +22.8934013     361.8972     72.63988      1.463     3.92      2.64086     20.46267     46.90994        10     0.932     0.778  24.22   0
        44    868.3656    958.1151 300.1781521 +22.9179535     371.7551     72.49217      1.590     2.43      2.72731     20.46267     42.17863         5     0.730     0.430  68.43   0
        45     47.6622    955.7722 299.9235801 +22.6710200     269.8629     72.52913      1.149     3.21     18.95794     20.46267     63.84614         8     0.924     0.733  75.33   0
        46    787.1075    952.1520 300.1547711 +22.8918779     462.3374      72.5476      1.748     5.14     2.749115     20.46267     37.62357         9     0.995     0.749  84.31   0
        47    440.6900    952.6696 300.0467522 +22.7881131     464.9789     72.69521      1.629     3.47     2.731688     20.46267     47.33455         7     1.028     0.451  61.07   0
        48    743.8356    946.2053 300.1432259 +22.8771952     1475.622      72.5476      1.695     3.45     2.738238     20.46267     122.6417        21     1.167     1.058  64.58   0
        49    926.6198    945.5213 300.2004103 +22.9318023     536.7468     72.52913      1.784     5.29     2.578598     20.46267     43.46645         8     1.116     0.709 -51.07   0
        50    595.6219    943.2396 300.0980362 +22.8318911     552.9869     72.56606      1.646     4.94     2.689715     20.46267     54.20617        12     1.200     0.812  38.98   0
        51    781.9391    939.5761 300.1572541 +22.8867188     795.7379     72.52913      1.628     3.41     2.836629     20.46267     82.95704        13     1.052     0.875 -78.63   0
        52    890.4644    935.8456 300.1922887 +22.9181861     355.0712      72.5476      1.722     5.70     2.759454     20.46267     36.05354         9     1.162     0.789  74.54   0
        53    830.7094    930.8778 300.1752818 +22.8988453     463.2252     72.67677      1.471     4.08     2.911329     20.46267     45.49664        11     0.933     0.896  88.07   0
        54    682.1801    930.0277 300.1292875 +22.8540627     686.5076     72.52913      1.410     3.33     2.939812     20.46267     79.77557        13     1.049     0.823  76.72   0
        55    394.3327    926.5906 300.0408197 +22.7667235     4159.254     72.52913      1.578     2.95     3.041072     20.46267     409.0294        32     1.254     1.207 -36.74   0
        56    982.6234    925.6934 300.2243258 +22.9428963     316.6123     72.45519      1.568     5.57     2.586722     20.46267     35.03275         8     1.496     0.585 -55.94   0
        57    692.7618    927.2830 300.1334763 +22.8564486      591.683     72.49217      1.579     4.20     2.953019     20.46267     50.62909         9     0.898     0.740  -6.25   0
        58    437.6675    915.4357 300.0579297 +22.7765277     312.6061     72.52913      1.405     5.14     2.926054     20.46267     35.91813         7     1.429     0.524  70.26   0
        59    173.3758    915.1624 299.9758474 +22.6971281     284.5778      72.5476      1.355     4.49      4.77741     20.46267     40.94717         8     0.889     0.844  64.36   0
        60     56.6097    915.2603 299.9395423 +22.6620983     422.9097     72.49217      1.781     4.84     4.970099     20.46267     36.39635         6     0.938     0.708  87.91   0
        61    119.9035    912.3555 299.9601474 +22.6802700     741.4848      72.5476      1.669     3.91     5.110373     20.46267     78.72627        18     1.196     1.091 -22.28   0
        62     96.7788    909.2790 299.9539650 +22.6724453     1694.737     72.52913      1.691     3.45     5.165999     20.46267     142.1315        25     1.279     1.152  11.71   0
        63     28.1741    910.3809 299.9322993 +22.6521613     607.9215      72.5476      2.061     5.57     4.556706     20.46267     42.29948         9     0.977     0.896 -15.29   0
        64    968.6276    898.0018 300.2289738 +22.9307501     2183.387     72.47369      1.725     3.50     2.734264     20.46267     172.3567        31     1.372     1.232  38.48   0
        65    922.6912    896.5580 300.2151213 +22.9165671     2254.207     72.52913      1.747     3.39     2.879149     20.46267     183.1424        27     1.264     1.147 -47.20   0
        66    627.7861    897.1577 300.1230469 +22.8283173     450.9603      72.5476      1.774     5.04       3.0095     20.46267     32.33083         7     1.303     0.551 -44.70   0
        67    706.4487    890.3575 300.1497559 +22.8499565     485.3806      72.5476      1.400     4.31     3.063273     20.46267     57.84637        12     1.139     0.860   6.69   0
        68    129.0581    890.7224 299.9700304 +22.6768181     457.5973     72.56606      1.537     4.57      4.38973     20.46267     41.94598         8     0.991     0.599 -70.71   0
        69    574.3706    884.5555 300.1105185 +22.8086802     4586.145     72.56606      1.467     2.71     3.017712     20.46267     454.9814        36     1.221     1.155 -17.25   0
        70     64.2612    885.0792 299.9517389 +22.6557465     456.5323     72.60298      1.726     5.07     4.149132     20.46267      44.6386        11     1.382     0.861 -84.20   0
        71    376.6873    881.4881 300.0500082 +22.7484941     483.8691     72.69521      1.321     4.08     3.187031     20.46267     60.96446         9     0.947     0.766 -37.68   0
        72    124.5978    878.6553 299.9725709 +22.6720202     1424.073     72.47369      1.779     3.83     4.023093     20.46267     114.6802        25     1.381     1.135  16.41   0
        73    594.8344    877.0071 300.1193449 +22.8126523    -819.2028     72.52913      1.386     3.61     3.075316     20.46267     84.21294        14     1.095     0.897  -0.14   0
        74    750.3911    864.1671 300.1719657 +22.8556156     4070.138     72.52913      1.489     2.79     3.171134     20.46267     398.7624        33     1.212     1.180  -3.52   0
        75   1005.4103    864.6433 300.2512996 +22.9321940     457.5677     72.52913      2.207     4.50     2.695553     20.46267     34.37232         6     1.089     0.698 -43.13   0
        76    967.4279    864.4537 300.2395167 +22.9207569       1122.9     72.56606      1.663     3.84     2.920226     20.46267     85.47032        20     1.244     1.036  22.14   0
        77    481.4776    861.3345 300.0891639 +22.7741534      194.418     72.62144      1.170     3.28     3.014094     20.46267     39.22396         5     1.023     0.305 -21.65   0
        78    158.6758    858.5068 299.9897136 +22.6764747     570.8893     72.69521      1.724     4.46     3.573259     20.46267     52.86515        11     0.938     0.923   4.01   0
        79    467.4876    856.8126 300.0862822 +22.7686593     515.4799     72.47369      1.342     2.74      3.04573     20.46267     78.82614         8     0.879     0.679  15.54   0
        80    113.6023    854.9709 299.9768604 +22.6619305     1014.663     72.47369      1.730     4.62     3.570801     20.46267     79.77435        16     1.223     1.037 -29.98   0
        81    263.4092    846.9745 300.0260150 +22.7046035     53196.37     72.52913      1.550     2.80     3.700763     20.46267     5674.867       105     1.455     1.443  17.44   0
        82    528.8588    850.5134 300.1074291 +22.7852620     498.0074     72.62144      1.773     5.12      3.15646     20.46267     57.25161        11     1.305     0.886 -12.05   0
        83    597.5179    849.4340 300.1291516 +22.8055454     261.6002     72.49217      1.321     3.94     3.186599     20.46267     28.80789         5     1.047     0.424 -15.57   0
        84    521.2822    845.8015 300.1066040 +22.7816375     1609.109      72.4367      1.397     2.78     3.155804     20.46267     181.5961        18     1.094     0.915 -72.96   0
        85    934.1710    845.0564 300.2354586 +22.9052197     865.2105     72.52913      1.408     3.00     3.276425     20.46267     90.27384        13     0.982     0.835 -29.98   0
        86    191.9970    845.0003 300.0044617 +22.6826045     469.1851      72.3071      1.560     3.28     3.694648     20.46267     53.69485         9     0.915     0.777  14.04   0
        87    550.1118    841.9086 300.1168432 +22.7891679     826.3522     72.69521      1.328     2.47     3.216161     20.46267      116.636        11     0.839     0.790  23.41   0
        88    561.2001    840.4171 300.1207797 +22.7920656     637.9318      72.4182      1.285     3.25     3.220338     20.46267     77.50713        14     1.113     0.848  12.02   0
        89    881.0121    837.8959 300.2212166 +22.8872310     333.7665      72.4367      1.447     5.10     3.401662     20.46267     39.53333         7     1.068     0.687  54.10   0
        90    666.6924    836.6057 300.1548635 +22.8226085     474.3992      72.4367      1.664     4.04     3.269918     20.46267     59.16901         9     1.103     0.625  87.58   0
        91    461.2224    833.7968 300.0918206 +22.7601774      231.104     72.49217      1.238     4.11     3.112333     20.46267      37.4567         6     1.269     0.380  -6.22   0
        92    313.1004    824.2152 300.0488673 +22.7129887     31105.68      72.4367      1.503     2.74     3.435935     20.46267     3044.448        77     1.374     1.337  43.69   0
        93    704.0336    826.7756 300.1696909 +22.8309837     805.9017      72.5476      1.450     3.30     3.283363     20.46267     97.51969        15     1.143     0.894  71.60   0
        94    327.3919    824.6071 300.0531836 +22.7173895     2041.069     72.38118      1.483     2.73     3.406718     20.46267     253.8335        19     1.101     0.991   0.12   0
        95    202.3430    823.1268 300.0147922 +22.6794385     173.3755     72.56606      1.188     5.06     3.637103     20.46267     31.57017         5     0.979     0.739  13.36   0
        96    836.2236    819.9672 300.2130900 +22.8686583     2744.638     72.52913      1.503     2.91     3.508307     20.46267     274.2926        26     1.172     1.097  40.52   0
        97    324.0919    818.4148 300.0541718 +22.7146233      537.756     72.45519      1.471     4.30     3.402427     20.46267     56.01076        11     1.096     0.814  41.82   0
        98    594.1315    815.9775 300.1389815 +22.7949291     1061.672      72.5476      1.407     2.64     3.289773     20.46267     131.3288        16     1.068     0.895 -88.20   0
        99    430.7811    815.8467 300.0881892 +22.7458960     551.7048     72.56606      1.602     3.89     3.110387     20.46267     62.08858        10     1.212     0.877  54.52   0
       100    195.6038    815.9643 300.0150277 +22.6753622     741.2354      72.5476      1.429     3.59     3.596875     20.46267     88.82159        16     1.224     0.884 -52.82   0
       101      1.3092    812.0904 299.9559332 +22.6159271     262.8792     56.39981      0.986     3.11     3.236208     20.46267     58.41379         5     0.911     0.448  81.78  24
       102    441.3639    810.8548 300.0931053 +22.7476387     906.2658      72.5476      1.390     2.75     3.132915     20.46267     110.3615        14     0.936     0.925  61.82   0
       103    842.6653    807.7194 300.2190819 +22.8670726     439.5841     72.63988      1.368     3.30     3.555604     20.46267     61.65046        10     1.022     0.692  74.81   0
       104    589.3658    808.1755 300.1400359 +22.7912610     219.7851      72.5476      1.194     3.52      3.31474     20.46267     48.03165         5     1.152     0.310 -11.45   0
       105    343.3286    807.5079 300.0637013 +22.7172671     334.0911     72.67677      1.422     3.44     3.373942     20.46267     45.77026         5     0.760     0.449 -20.97   0
       106    387.0913    805.5334 300.0779538 +22.7298306     461.4479     72.67677      1.512     4.19     3.217913     20.46267     44.65386         9     1.000     0.765  68.49   0
       107    299.3237    806.1260 300.0504679 +22.7036671      363.048     72.62144      1.373     4.80     3.395221     20.46267     46.74046         7     1.027     0.635 -65.74   0
       108     29.0111    805.6398 299.9666332 +22.6223953      685.557     72.52913      2.194     4.95     3.303121     20.46267     46.92354         8     1.048     0.794  36.00   0
       109    820.1319    802.5493 300.2137414 +22.8588340     291.8412     72.51065      1.283     4.70     3.607206     20.46267     37.10167         8     0.907     0.692 -51.89   0
       110    193.2890    800.4662 300.0193493 +22.6702238     536.4903     72.63988      1.547     4.31      3.53636     20.46267     61.54985        10     1.122     0.809 -21.37   0
       111    516.6445    790.5123 300.1231462 +22.7643829     442.6129     72.51065      1.362     2.95     3.322179     20.46267     55.11885         8     0.848     0.700 -42.63   0
       112    523.8970    789.3571 300.1257790 +22.7662265     286.2523     72.52913      1.465     4.28     3.333844     20.46267     37.32581         5     1.186     0.439   9.99   0
       113    486.3004    788.7947 300.1142621 +22.7547889     692.3491      72.4182      1.466     3.16     3.295768     20.46267     70.69859        13     0.970     0.944 -48.85   0
       114    395.4567    788.0670 300.0862369 +22.7273299     420.8337     72.56606      1.574     3.81     3.242023     20.46267     48.36934         7     0.892     0.656 -24.85   0
       115    902.6284    785.1538 300.2451124 +22.8785642     4503.278     72.56606      1.463     2.72     3.626673     20.46267     443.5638        36     1.236     1.141  70.15   0
       116    508.0853    786.3796 300.1218267 +22.7606300     1305.868     72.45519      1.357     2.34     3.325541     20.46267     161.4144        17     1.005     0.884  18.03   0
       117    636.3300    781.8025 300.1632360 +22.7977752     222.7599     72.47369      1.026     2.72     3.395074     20.46267     35.33163         5     0.738     0.436 -72.87   0
       118    589.9587    781.2603 300.1489751 +22.7837147     426.7284     72.51065      1.284     3.34      3.36726     20.46267     42.96262         7     0.725     0.686  -2.67   0
       119    890.9548    776.6755 300.2442311 +22.8726310    -993.4735     72.51065      1.377     2.66     3.595436     20.46267      204.268        24     1.164     1.045 -67.59   0
       120    253.9864    770.7829 300.0478685 +22.6799269     797.7341     72.47369      1.422     3.04     3.416036     20.46267     102.4573        15     1.078     0.900  39.87   0
       121    717.5286    767.9074 300.1930429 +22.8181313     2621.721     72.67677      1.479     2.78      3.35493     20.46267     277.4606        30     1.362     1.063  -0.22   0
       122    922.2052    766.8647 300.2571642 +22.8791784     1765.443     72.51065      1.578     3.01     3.622788     20.46267     163.9397        23     1.159     1.122  80.16   0
       123    227.4574    767.3813 300.0407286 +22.6709907     266.6679     72.51065      1.675     4.13     3.448576     20.46267     31.84006         5     1.156     0.421  52.90   0
       124    102.6584    754.7048 300.0060723 +22.6299019     683.7749     72.60298      1.585     4.63      3.54714     20.46267     64.22176        14     1.155     0.921  -9.23   0
       125    799.8077    753.8500 300.2232482 +22.8387591     509.8156     72.52913      1.519     4.86     3.607509     20.46267     52.62983         9     1.044     0.874  21.95   0
       126    835.8417    744.8334 300.2374095 +22.8469698     146223.5     72.58453      1.407     2.46     3.574816     20.46267     18135.82       171     1.491     1.405  79.29   0
       127    598.1244    748.6920 300.1621094 +22.7768161     339.0824     72.69521      1.154     3.12      3.41675     20.46267     37.89407         7     0.833     0.591  27.60   0
       128    982.8578    746.5024 300.2826986 +22.8915033     1326.076     72.62144      1.497     2.94     3.445989     20.46267      131.285        21     1.206     1.013  82.27   0
       129    688.1653    745.2555 300.1912643 +22.8028256     936.2625      72.5476      1.583     2.53     3.408516     20.46267     99.67897        12     0.887     0.802 -60.31   0
       130    868.7625    737.4840 300.2500601 +22.8547252     373.4146     72.51065      1.288     2.60      3.54804     20.46267     56.47835         8     0.833     0.632  52.35   0
       131    522.0521    733.8018 300.1432726 +22.7497311      1515.76     72.49217      1.308     2.17     3.457421     20.46267     235.2315        19     1.018     0.894  -9.16   0
       132    703.2811    730.9890 300.2006117 +22.8032614     9356.281     72.51065      1.359     2.31     3.405554     20.46267     1237.693        42     1.171     1.140 -75.99   0
       133    204.8363    726.3063 300.0470548 +22.6524233     4870.927     72.49217      1.469     2.69     3.437953     20.46267     508.3631        36     1.237     1.175  63.50   0
       134    286.8594    724.5309 300.0731283 +22.6765246     1233.374      72.5476      1.470     3.07     3.351698     20.46267     139.3448        18     1.120     0.958  36.78   0
       135    162.6142    722.3625 300.0352162 +22.6386223     443.7494     72.52913      1.366     4.79     3.547075     20.46267     66.89043        10     1.238     0.701 -55.24   0
       136    495.0626    719.6705 300.1394685 +22.7375819     908.9233     72.56606      1.514     2.50     3.521661     20.46267     120.7233        13     1.136     0.798  56.09   0
       137    486.7927    711.9536 300.1394043 +22.7328873     3149.927      72.5476      1.289     2.15     3.553994     20.46267     478.4981        24     1.037     0.974   5.86   0
       138    477.0410    705.7747 300.1383789 +22.7281897     1464.201     72.58453      1.318     2.29     3.576191     20.46267     220.4717        16     0.963     0.894  37.79   0
       139    870.5638    703.5853 300.2616450 +22.8455291     452.4126     72.52913      1.030     2.65     3.691441     20.46267      59.0334         6     0.812     0.489   5.09   0
       140    140.3850    701.8885 300.0349660 +22.6260804     787.8723     72.47369      1.538     3.80     3.604207     20.46267     79.34598        16     1.190     0.960 -20.87   0
       141    154.7029    700.8190 300.0397624 +22.6300703     627.3307      72.4367      1.453     5.21     3.581907     20.46267     61.37549        14     1.347     0.811 -37.39   0
       142    924.1925    696.4680 300.2806770 +22.8595537     445.6396     72.51065      1.334     3.04     3.729323     20.46267     55.97601        10     0.905     0.738  87.42   0
       143    180.2912    696.9476 300.0489723 +22.6366384     412.5342     72.58453      1.357     4.53     3.529935     20.46267     63.72484         9     1.185     0.646  32.07   0
       144    500.7164    696.1370 300.1488797 +22.7325238     423.0582     72.62144      1.277     2.20     3.611191     20.46267     80.71799         7     0.797     0.541  46.99   0
       145    401.7525    695.3143 300.1183570 +22.7026081     1950.677     72.51065      1.471     2.35     3.588493     20.46267     239.8223        22     1.083     1.001   1.42   0
       146    435.5908    694.7908 300.1290537 +22.7126067      179.804      72.4182      0.982     2.92     3.595682     20.46267     36.14293         5     0.728     0.448  69.31   0
       147     55.7488    690.5418 300.0123633 +22.5974264     19507.38     72.58453      1.603     2.91     3.845969     20.46267     1938.908        61     1.362     1.349  46.57   0
       148    977.6387    692.5526 300.2986150 +22.8744413     775.9826     72.56606      1.236     2.83     3.673538     20.46267     98.79323        14     1.004     0.852  68.49   0
       149    486.8724    690.4384 300.1464244 +22.7267368     1092.496     72.49217      1.432     4.21     3.635719     20.46267     147.7036        16     1.259     0.832 -59.09   0
       150    522.0437    689.9197 300.1575383 +22.7371347     320.3604     72.51065      1.106     2.28      3.63158     20.46267     59.08125         5     0.616     0.570  86.35   0
       151    904.6385    676.8427 300.2809620 +22.8480576     1041.311     72.62144      1.368     2.50     3.808851     20.46267     122.2064        16     1.005     0.867 -64.40   0
       152    570.3423    678.3019 300.1763487 +22.7482819      343.784     72.62144      1.547     3.13     3.678279     20.46267     44.65059         5     0.727     0.462  78.90   0
       153      2.2572    674.7033 300.0009003 +22.5768303     1226.775     61.60046      1.632     4.33     4.201727     20.46267     132.2955        21     1.493     0.896 -86.63  24
       154    771.5961    674.5997 300.2402280 +22.8075465     521.6438      72.3071      1.373     2.91     3.677568     20.46267      61.7683         8     0.915     0.580 -75.07   0
       155     67.8979    675.4127 300.0210549 +22.5967348     483.5617      72.4182      1.549     3.75      3.89734     20.46267     51.53868         7     0.940     0.487   5.13   0
       156    449.9509    671.3774 300.1411332 +22.7101946     421.2105     72.52913      1.134     2.64     3.698103     20.46267     72.63465        10     0.870     0.787  30.17   0
       157    242.7691    670.1829 300.0770914 +22.6477076     397.0318     72.51065      1.442     4.71     3.439481     20.46267     45.37696         8     1.026     0.614  32.64   0
       158    845.0211    669.2564 300.2648454 +22.8280152     752.4268     72.56606      1.264     3.22     3.881072     20.46267     96.01919        11     1.056     0.661   0.18   0
       159    840.5789    669.1696 300.2634892 +22.8266592     408.0729     72.52913      1.471     3.40     3.885004     20.46267     39.53625         5     0.799     0.420 -67.49   0
       160    589.1497    667.8389 300.1856050 +22.7509171     291.9983      72.5476      1.278     4.01      3.73568     20.46267     31.85841         6     0.796     0.577 -38.25   0
       161    406.5573    663.8552 300.1300790 +22.6950222     731.4552     72.52913      1.343     2.75      3.71643     20.46267     94.87843        10     0.951     0.707  73.49   0
       162    554.7263    662.1592 300.1767357 +22.7389662     470.9378     72.51065      1.230     2.69     3.778474     20.46267     70.86461         8     0.831     0.638 -87.78   0
       163    601.7525    660.4437 300.1919327 +22.7525725     461.5206     72.56606      1.305     2.99     3.795202     20.46267     67.33929        10     0.914     0.753 -37.44   0
       164    572.5302    660.1922 300.1829172 +22.7437394     555.3427     72.51065      1.240     2.43      3.79381     20.46267     76.60343         8     0.815     0.628  30.48   0
       165    451.2395    659.5095 300.1453922 +22.7071752     931.6811     72.52913      1.397     2.68     3.825206     20.46267     112.6653        15     1.000     0.861  44.76   0
       166    637.5887    658.8774 300.2035998 +22.7628657     285.4434     72.52913      1.302     3.98     3.844347     20.46267     38.45822         6     1.126     0.403 -74.40   0
       167    416.4439    655.0308 300.1360231 +22.6954550     1643.185     72.56606      1.319     2.36     3.792493     20.46267     248.6494        19     1.044     0.931  47.44   0
       168    884.8161    654.9377 300.2819043 +22.8358261     3396.679     72.51065      1.337     2.25     3.994632     20.46267     470.0838        27     1.118     1.014   1.93   0
       169    982.9470    652.7889 300.3131986 +22.8646071     603.3663     72.52913      1.333     3.60     4.009841     20.46267     77.90414         9     0.997     0.635 -40.55   0
       170    445.3787    645.4142 300.1481507 +22.7013725     364.3386     72.49217      1.380     3.46     3.975325     20.46267     51.09828         7     0.912     0.577  61.10   0
       171    924.0885    644.8920 300.2974130 +22.8447062      239.537     72.69521      1.330     3.98     4.114787     20.46267     32.70225         6     0.770     0.588 -47.60   0
       172    279.9468    641.7969 300.0978759 +22.6507176     9150.581     72.51065      1.380     2.46      3.54269     20.46267     1190.183        42     1.184     1.129  46.91   0
       173    402.4214    638.7603 300.1369499 +22.6865807     8933.551     72.56606      1.310     2.27     3.889454     20.46267     1150.232        42     1.167     1.136  61.12   0
       174   1006.8759    633.9149 300.3267970 +22.8663516     953.2588     72.63988      1.433     2.62     4.292034     20.46267     131.2163        13     0.949     0.868 -53.46   0
       175    648.7286    634.9457 300.2148481 +22.7593339     271.3664      72.5476      1.209     2.65     4.011112     20.46267     44.97074         5     0.785     0.467  31.32   0
       176    814.0964    632.5806 300.2671308 +22.8082146     1791.682      72.4367      1.273     2.19     4.201667     20.46267     266.4694        21     1.042     0.931  52.66   0
       177    898.7278    629.9067 300.2943780 +22.8328035     12347.64     72.65833      1.357     2.27     4.243615     20.46267     1611.386        50     1.207     1.196  67.88   0
       178    462.9955    628.3081 300.1591921 +22.7017457     11426.88      72.4367      1.332     2.30     4.256986     20.46267     1483.182        47     1.191     1.108  61.91   0
       179    190.4136    623.9641 300.0758421 +22.6187427     1254.394     72.52913      1.352     2.81     3.642327     20.46267     151.5196        16     1.023     0.877  49.98   0
       180    632.6790    623.8552 300.2134554 +22.7513387     562.5363     72.56606      1.349     2.83     4.073506     20.46267     93.11867         9     1.031     0.583  37.81   0
       181    348.4456    622.6298 300.1254050 +22.6657641      207.352     72.56606      1.167     2.96     3.834383     20.46267     63.23705         6     0.897     0.681 -71.76   0
       182    437.1010    621.2425 300.1534322 +22.6919531     419.4997     72.51065      1.365     2.78     4.186671     20.46267     47.59837         7     0.701     0.669 -72.67   0
       183    394.7007    616.5562 300.1417654 +22.6778933      4458.61     72.52913      1.315     2.27     4.019967     20.46267     561.8434        27     1.059     1.022  58.94   0
       184    737.5052    616.3533 300.2485418 +22.7806025     709.0272      72.5476      1.185     2.40     4.319006     20.46267     109.7727        13     0.976     0.727  45.31   0
       185    372.8185    614.9824 300.1354706 +22.6708794     1268.057     72.52913      1.370     2.54     3.954421     20.46267     171.2357        16     1.026     0.891  46.92   0
       186    127.3184    614.2103 300.0594065 +22.5970147     820.1255     72.49217      1.619     3.80     3.740532     20.46267     77.22892        16     1.069     0.991  56.30   0
       187    814.5448    611.9153 300.2739878 +22.8024131     1540.588     72.60298      1.396     2.63     4.370857     20.46267     185.7314        19     1.125     0.863 -51.69   0
       188    511.2839    604.0175 300.1821134 +22.7092518     197766.2     72.49217      1.310     2.18     4.415569     20.46267     27775.84       228     1.493     1.468  63.84   0
       189    335.0516    610.1327 300.1253014 +22.6581611     478.8248      72.5476      1.254     3.86     3.848653     20.46267     56.29249         8     1.056     0.589  68.42   0
       190    694.9150    608.8024 300.2377296 +22.7656701     743.9257     72.45519      1.266     2.24     4.261664     20.46267     145.9587        11     0.913     0.671  66.60   0
       191    788.5991    607.1248 300.2674599 +22.7932628     227.3756      72.4182      1.171     3.36     4.392488     20.46267     35.68134         5     0.754     0.435 -68.43   0
       192    197.3018    604.0913 300.0844414 +22.6151087     3505.713     72.71363      1.409     2.55     3.689361     20.46267     422.5349        29     1.157     1.106  -9.60   0
       193    763.3555    599.7918 300.2619781 +22.7835924     431.7873      72.5476      1.223     3.32     4.394822     20.46267     64.32549        11     1.012     0.741 -47.45   0
       194    401.9287    584.3201 300.1544902 +22.6708094     2813.306     72.63988      1.400     2.22     4.105937     20.46267     352.3742        24     1.037     1.005  69.47   2
       195    246.5444    586.8762 300.1053414 +22.6249416       434.33     72.56606      1.483     2.36      3.73584     20.46267     60.16171         7     0.826     0.551   9.44   0
       196    819.6683    582.7222 300.2850725 +22.7955624     179.8046     72.63988      1.065     3.88     4.256161     20.46267     34.68523         5     0.990     0.436  -6.74   0
       197    813.2158    580.3200 300.2838424 +22.7929391     357.4064      72.5476      1.233     2.84     4.240131     20.46267     47.01212         6     0.749     0.534  43.98   0
       198    718.9866    572.6938 300.2569626 +22.7625140     353.8412     72.45519      1.194     3.37     4.375807     20.46267     57.40026         8     0.858     0.677 -55.22   0
       199    798.7863    570.4502 300.2825535 +22.7857806      1606.06     72.56606      1.230     2.21     4.194226     20.46267     224.0255        18     1.012     0.903  26.73   0
       200    685.4511    570.7493 300.2471491 +22.7519058     418.0605     72.56606      1.489     2.29     4.281186     20.46267     58.27803         5     0.678     0.495 -83.55   0
       201    670.0878    568.0996 300.2432254 +22.7465406     2604.847     72.69521      1.317     2.00     4.257062     20.46267     420.5881        24     1.059     0.964  82.65   0
       202    574.7960    564.7277 300.2146505 +22.7170116     450.5809     72.47369      1.220     3.09     4.298406     20.46267     71.62031        10     0.960     0.759  71.82   0
       203    879.8403    564.9597 300.3095992 +22.8084860      408.311     72.60298      1.410     4.80     4.167231     20.46267     41.39748         9     0.820     0.795 -32.08   0
       204    457.5558    564.2790 300.1783086 +22.6817363     623.3425     72.51065      1.265     2.65     4.467071     20.46267     90.51397        11     0.922     0.758  80.71   0
       205    927.4826    562.0135 300.3254091 +22.8219105      1255.16     72.51065      1.365     2.29     4.169415     20.46267     182.4266        17     1.021     0.930 -87.37   0
       206    913.0258    561.0704 300.3212083 +22.8173092     931.4516     72.52913      1.617     2.13     4.157163     20.46267     115.1464        11     0.906     0.708  78.29   0
       207    799.1169    560.5371 300.2858780 +22.7830320     2167.629     72.62144      1.484     2.78     4.147641     20.46267     298.8216        24     1.436     0.872  76.32   0
       208    552.4703    558.3851 300.2097618 +22.7084984      839.001      72.5476      1.981     3.90     4.280895     20.46267     88.29196        10     1.203     0.639  46.81   2
       209    338.4945    558.5335 300.1431402 +22.6443867     383.7806     72.65833      1.306     3.63     3.924347     20.46267     46.00831         6     0.941     0.402 -69.57   0
       210    837.2723    555.5467 300.2993902 +22.7930295     4188.109     72.52913      1.296     2.20     4.111896     20.46267     580.4836        31     1.113     1.011 -76.87   0
       211    391.0842    557.1697 300.1599396 +22.6597652     444.6256      72.5476      1.305     3.53     4.076876     20.46267     60.64914         9     0.905     0.751  -6.50   0
       212    574.9887    552.2109 300.2187778 +22.7134755     345.6745      72.4182      1.264     2.84     4.337306     20.46267     39.80464         5     0.791     0.481 -53.84   0
       213    498.0638    551.7682 300.1949787 +22.6902893     359.1918     72.52913      1.323     2.27     4.546254     20.46267     50.56335         6     0.705     0.558 -44.72   0
       214     69.2751    546.1829 300.0634806 +22.5600882     1024.571     72.52913      1.418     3.18     4.107587     20.46267     111.0495        16     1.088     0.938  15.09   0
       215    928.9288    546.0045 300.3310623 +22.8177434     729.9107     72.47369      1.270     2.81      4.06001     20.46267     106.1635        10     0.874     0.748  17.21   0
       216    730.4160    539.9772 300.2711543 +22.7565418     228.8829     72.52913      1.547     5.66     4.411216     20.46267     34.26062         7     1.377     0.656 -63.33   0
       217     61.9697    536.2857 300.0644269 +22.5550576     355.7366     72.52913      1.469     4.60     4.143626     20.46267     60.33023        11     1.263     0.711 -79.95   0
       218    925.3797    534.9338 300.3335531 +22.8134992     244.9556     72.51065      1.055     2.63     4.043591     20.46267     65.23042         7     0.878     0.603 -63.93   0
       219    669.7060    530.0530 300.2554694 +22.7354995     369.2756     72.60298      1.157     1.91     4.307487     20.46267     73.21749         7     0.690     0.598  68.87   0
       220    558.7271    527.8354 300.2216358 +22.7016023     312.1872     72.49217      1.159     3.90     4.325908     20.46267     46.79979         6     0.767     0.567  45.49   0
       221    278.3785    528.3717 300.1342476 +22.6177028     273.8398     72.52913      1.217     4.54     3.875898     20.46267     39.48399         7     1.029     0.570 -25.27   0
       222    610.7264    526.1117 300.2383841 +22.7166924     841.6314     72.67677      1.306     2.26     4.401498     20.46267      121.974        11     0.852     0.741  12.43   0
       223   1018.2265    523.5634 300.3662013 +22.8380372     871.6621      72.5476      1.242     2.51     4.576238     20.46267      132.347        15     0.954     0.887  85.87  16
       224    925.3785    518.4203 300.3389183 +22.8087534     585.7426     72.52913      1.300     2.68     4.027392     20.46267     62.06073        11     0.893     0.770 -10.55   0
       225    671.5627    518.0197 300.2599573 +22.7325998     759.3374      72.5476      1.199     2.43     4.308139     20.46267     119.0529        12     0.945     0.766 -70.13   0
       226    828.8236    514.3629 300.3101390 +22.7786662     1011.264      72.5476      1.260     2.18     4.053121     20.46267     141.6983        14     0.959     0.766  86.87   0
       227    813.0172    510.8022 300.3063699 +22.7729082     508.4918      72.4367      1.166     2.25     4.053121     20.46267     97.97003         8     0.759     0.649 -44.44   0
       228    793.4006    511.1191 300.3001541 +22.7671226     263.0997      72.3997      1.030     3.42     4.097768     20.46267     40.39682         5     0.773     0.438  69.86   0
       229    557.2285    508.9051 300.2273196 +22.6957174     3188.148      72.4367      1.287     2.18     4.323886     20.46267     480.4509        22     1.034     0.925  65.66   0
       230    917.7852    507.6179 300.3400607 +22.8033748     579.9584     72.51065      1.258     2.63     4.021977     20.46267     77.32518        10     0.968     0.632  67.85   0
       231     33.2513    500.5550 300.0671149 +22.5361929     190.4865      72.5476      1.284     2.97     4.272453     20.46267     43.51426         5     0.725     0.445 -22.81   0
       232    397.3164    495.9976 300.1817525 +22.6440753     447.9803     72.45519      1.253     2.05     4.355011     20.46267     70.58427         5     0.713     0.412 -68.21   0
       233    328.9842    496.4706 300.1603464 +22.6237230     297.6815      72.5476      1.352     3.18     4.160033     20.46267     42.20077         5     0.721     0.624 -86.30   0
       234    968.7151    487.8240 300.3623716 +22.8129385     1195.721     72.49217      1.333     2.55     4.025377     20.46267     155.0546        16     0.970     0.896 -15.07   0
       235    840.6336    487.5912 300.3225173 +22.7745116     585.3995     72.52913      1.144     2.49     4.053121     20.46267     83.35637        10     0.893     0.705  24.41   0
       236    926.9132    486.3820 300.3498058 +22.8000057     1010.049     72.47369      1.459     2.75     3.995026     20.46267     116.2504        12     0.919     0.830  39.32   0
       237    667.8770    482.9660 300.2701975 +22.7214271     959.0294     72.52913      1.207     2.23     4.321891     20.46267     162.3428        11     0.817     0.770  33.88   0
       238    463.3473    483.6171 300.2063171 +22.6603163     492.0681     72.51065      1.301     4.03     4.585752     20.46267     67.72572         7     1.100     0.461 -25.04   0
       239    171.9131    481.0883 300.1165152 +22.5722042     597.1038     72.69521      1.407     3.28     3.881359     20.46267     69.77272        10     1.029     0.671  44.95   0
       240    234.1890    476.8750 300.1372392 +22.5896727     3657.126      72.5476      1.347     2.33     3.887558     20.46267     497.3758        27     1.141     0.996  64.97   0
       241    967.3513    475.0398 300.3660995 +22.8088556     4391.557     72.56606      1.378     2.40     3.976969     20.46267     575.6116        34     1.215     1.099 -78.36   0
       242    181.4587    471.7733 300.1225073 +22.5723945     7459.874     72.52913      1.391     2.53     3.900932     20.46267     893.5405        38     1.213     1.093  50.19   0
       243    322.2683    465.9031 300.1681871 +22.6129357       4767.4     72.65833      1.321     2.18     4.230722     20.46267      686.095        32     1.130     1.028  56.60   0
       244    947.2464    466.2069 300.3626996 +22.8002963     1790.009      72.5476      1.283     2.12     3.982183     20.46267     237.8843        19     0.994     0.911  -3.45   0
       245    566.4039    462.5141 300.2452458 +22.6851453      18132.4     72.45519      1.244     2.12     4.335718     20.46267     2358.694        50     1.152     1.095  65.18   0
       246    584.3211    462.5650 300.2508071 +22.6905294     804.3226     72.47369      1.698     6.40     4.341868     20.46267     68.41692        19     1.750     0.792 -35.83   0
       247    413.8082    464.0734 300.1972528 +22.6398549     277.3172     72.51065      1.277     3.18     4.434006     20.46267     42.88987         6     0.871     0.484  55.91   0
       248    193.7302    460.7728 300.1298940 +22.5729184     341.5839     72.52913      1.304     2.81     3.925731     20.46267     50.06008         5     0.706     0.677  17.17   0
       249    763.4373    452.9961 300.3096996 +22.7414474     388.8572     72.56606      1.351     2.94     4.249858     20.46267     57.97367         8     0.969     0.547  46.05   0
       250    186.2870    449.5124 300.1312379 +22.5674549      251.888     72.69521      1.091     3.99     3.957021     20.46267     45.44388         6     0.891     0.595  62.85   0
       251    899.7646    444.9564 300.3547984 +22.7799695     838.2037     72.58453      1.485     2.82     3.999681     20.46267     99.30399        13     0.970     0.839 -78.00   0
       252    437.4570    444.5183 300.2109614 +22.6413298     308.9698     72.56606      1.287     3.25     4.443301     20.46267     43.87241         6     0.887     0.449  16.63   0
       253    121.1112    442.7908 300.1131685 +22.5459785     2055.482     72.45519      1.461     2.60     4.096079     20.46267     231.1305        26     1.231     1.045 -51.58   0
       254    920.5115    432.0863 300.3654467 +22.7824834     1319.513     72.69521      1.427     2.75     3.987178     20.46267     156.0779        21     1.252     1.003  72.77   0
       255    507.0098    431.9977 300.2366706 +22.6585816      6457.21     72.34415      1.273     2.01     4.405625     20.46267     1080.219        34     1.099     1.007  78.37   0
       256    221.9215    431.4765 300.1481707 +22.5729655     673.7062     72.63988      1.383     2.54     4.003694     20.46267     88.98373        10     0.857     0.733  83.10   0
       257     79.3285    424.5902 300.1060988 +22.5282240      495.162     72.51065      1.365     3.84     4.363108     20.46267     58.01229        10     1.079     0.751  -7.86   0
       258    767.0474    423.6804 300.3203459 +22.7341057     245.9369      72.5476      1.309     4.39     4.223308     20.46267     32.21959         6     0.858     0.638 -36.86   0
       259    620.7867    421.8505 300.2753842 +22.6897624     475.4795     72.58453      1.330     2.83     4.344706     20.46267     80.10631         7     0.889     0.538  60.52   0
       260    711.3480    420.6766 300.3039693 +22.7165574     979.5701     72.52913      1.231     2.46     4.351068     20.46267     153.7446        15     0.957     0.820  54.51   0
       261    413.6477    418.2861 300.2120735 +22.6266611     6012.792     72.51065      1.283     2.22     4.391022     20.46267     817.9788        32     1.098     1.024  70.13   0
       262    805.6672    412.5178 300.3360050 +22.7424657     1386.735     72.63988      1.270     2.27      4.04427     20.46267      176.882        17     0.955     0.920 -52.83   0
       263    903.2542    412.3279 300.3664835 +22.7716365      674.662     72.52913      1.333     3.27     3.984797     20.46267     99.26492        12     0.987     0.862 -18.78   0
       264    398.1297    407.0044 300.2109098 +22.6187704     520.4982     72.47369      1.351     2.35     4.392941     20.46267     64.63683         7     0.811     0.539  40.01   0
       265    481.0094    405.0280 300.2373377 +22.6430443      1473.31     72.52913      0.430     1.80     4.388807     20.46267     1173.859         8     0.371     0.277 -37.94   0
       266    461.2347    402.8559 300.2318897 +22.6364939       278.96      72.5476      1.238     3.41     4.389192     20.46267     41.35633         8     0.827     0.669  44.17   0
       267    778.3793    400.0827 300.3315403 +22.7307192     515.8087     72.49217      1.212     2.20     4.156224     20.46267     79.47849         7     0.707     0.612 -65.99   0
       268    301.2607    397.4931 300.1838716 +22.5870005     2535.609     72.62144      1.324     2.30     4.382702     20.46267     299.1223        23     1.142     0.944  63.08   0
       269     19.5760    394.9778 300.0971554 +22.5018050       920.25     72.49217      1.409     2.73     4.805452     20.46267     138.7492        14     1.030     0.829  41.63   0
       270    648.4312    392.0015 300.2936858 +22.6894704     312.9113     72.49217      1.265     3.44     4.346781     20.46267     45.54298         5     0.979     0.349  46.97   0
       271    248.9884    390.8817 300.1697667 +22.5694305      269.094     72.51065      2.108     3.95     4.285148     20.46267     31.01512         5     0.847     0.528 -58.31   0
       272    270.5768    386.9781 300.1777457 +22.5747827     29177.89     72.52913      1.378     2.26     4.346065     20.46267     3919.231        74     1.326     1.221  50.84   0
       273    805.2842    384.3234 300.3450416 +22.7342485      1360.03     72.63988      1.220     2.31     4.017475     20.46267     194.9338        15     0.904     0.852 -40.03   0
       274    760.5493    381.9807 300.3318631 +22.7201769     415.0147     72.51065      1.484     3.71     4.238342     20.46267     38.17952         6     0.794     0.498 -89.74   0
       275    763.9589    374.0123 300.3355129 +22.7189084     254.1649     72.52913      1.622     3.66     4.218352     20.46267     29.85474         5     0.630     0.611  88.79   0
       276    720.3457    373.1862 300.3221939 +22.7056077     592.8363     72.52913      1.278     2.27     4.366457     20.46267     88.23449         9     0.824     0.656 -22.72   0
       277    144.9022    373.0324 300.1432123 +22.5330967     416.2136     72.51065      1.335     3.63     4.345012     20.46267     52.90702         9     1.064     0.597 -12.63   0
       278    369.0289    372.1736 300.2131677 +22.6000469     414.1974     72.51065      1.247     3.37     4.423084     20.46267     67.91984         8     0.936     0.658  22.87   0
       279    680.9802    366.6049 300.3120691 +22.6919248     1923.409     72.51065      1.291     2.13     4.360559     20.46267      267.154        22     1.038     0.964  69.58   0
       280    488.9198    361.0882 300.2540667 +22.6327960     388.9179     72.65833      1.390     2.97     4.388752     20.46267     64.93352         6     0.991     0.691  24.25   0
       281    895.9825    359.3254 300.3814280 +22.7542238     522.0008     72.52913      1.353     2.14      3.97784     20.46267     87.40195         9     0.827     0.636  71.32   0
       282    749.9901    352.9564 300.3379974 +22.7086737     326.7664      72.5476      1.369     3.66     4.293073     20.46267     32.13292         5     0.634     0.607 -89.24   0
       283    342.7023    351.3307 300.2117468 +22.5861710     2090.918     72.65833      1.486     3.05     4.441829     20.46267     246.7102        25     1.308     0.975  58.53   0
       284    554.9173    349.8123 300.2782689 +22.6493333     320.6262     72.49217      1.296     3.04     4.385768     20.46267     58.52041         6     0.900     0.528  65.70   0
       285    781.9497    344.2329 300.3507874 +22.7157385     582.0581     72.56606      1.268     3.03     4.136845     20.46267     101.4613        11     1.035     0.702 -82.74   0
       286    681.5186    341.7254 300.3203145 +22.6849375     302.1841     72.63988      1.150     2.46     4.368589     20.46267      49.2265         5     0.691     0.483  74.83   0
       287    664.0971    341.6714 300.3149062 +22.6797034      327.277     72.63988      1.132     2.57     4.370178     20.46267      62.3292         7     0.739     0.620 -16.05   0
       288    632.2971    340.6961 300.3053199 +22.6698972     269.6884     72.71363      1.137     4.36     4.370714     20.46267     46.88632         8     1.161     0.514  24.00   0
       289    873.9788    337.0222 300.3818101 +22.7412242     72.45549     72.52913      1.662     4.90     3.958243     20.46267     25.40131         5     1.512     0.449  72.11   0
       290    418.5527    330.5923 300.2420726 +22.6029502     1218.453      72.5476      1.365     2.86     4.382159     20.46267     141.2411        16     1.007     0.969  41.76   0
       291    930.0421    326.4658 300.4027154 +22.7549748     262.5597     72.51065      1.172     3.10     3.948332     20.46267     52.39197         6     0.784     0.491   8.20   0
       292    801.7942    323.6118 300.3636658 +22.7157546     263.6818      72.3997      1.036     2.63      4.15801     20.46267      50.4602         5     0.710     0.459  17.55   0
       293    663.4390    322.3683 300.3209679 +22.6739600     2148.208     72.56606      1.171     2.16     4.370466     20.46267     276.7033        17     0.954     0.820 -82.36   0
       294    924.6791    316.6462 300.4042311 +22.7505461     3176.786     72.52913      1.343     2.27      3.93904     20.46267     453.3228        26     1.101     1.012  73.16   0
       295    471.3267    315.7656 300.2633057 +22.6145069     235.1804     72.51065      1.226     3.01     4.380802     20.46267      35.0507         5     0.739     0.443 -74.89   0
       296    985.8629    311.4194 300.4250069 +22.7673591     356.2842     72.51065      1.201     2.80     4.026365     20.46267     60.80891         7     0.838     0.694  62.82   0
       297    371.9110    306.4951 300.2353859 +22.5820516     576.0358     72.71363      1.329     2.64     4.388579     20.46267     73.93492         8     0.789     0.665  84.36   0
       298    994.1266    304.5776 300.4298052 +22.7678652     1554.279      72.5476      1.265     2.27     4.049141     20.46267     238.8549        15     0.908     0.843  57.70   0
       299     46.7432    300.5189 300.1362570 +22.4828508     1498.653     72.56606      1.771     3.84     4.711446     20.46267     122.7428        24     1.411     1.124 -33.47   0
       300     77.5254    300.4960 300.1458260 +22.4920753     601.4179     72.67677      1.487     3.67     4.632769     20.46267     65.50655        12     1.148     0.710  70.48   0
       301    940.4642    296.9970 300.4155315 +22.7496222      471.623     72.52913      1.206     3.76     3.946841     20.46267     79.22202         7     0.898     0.639  28.80   0
       302    130.6311    292.7953 300.1648241 +22.5057893     451.1693     72.51065      1.456     2.81     4.521911     20.46267     48.93883         6     0.731     0.585 -47.53   0
       303    925.6083    289.8588 300.4132165 +22.7431225     373.6299     72.49217      1.241     2.83     3.915944     20.46267     50.79383         5     0.717     0.461  73.08   0
       304    735.0540    283.7563 300.3558085 +22.6843131     566.6927      72.5476      1.310     2.47     4.296392     20.46267     101.9375        12     0.924     0.777  57.16   0
       305    325.5139    283.3267 300.2284758 +22.5614929     334.9846     72.65833      1.174     3.63     4.384359     20.46267     44.32195         8     0.988     0.639  52.89   0
       306    825.9761    277.0394 300.3863197 +22.7096085     407.2783     72.56606      1.413     4.15      4.17716     20.46267      53.7732         9     0.954     0.767  73.28   0
       307    833.2170    272.8958 300.3899213 +22.7105853     2038.822      72.4367      1.310     2.06     4.135231     20.46267     319.9313        21     1.023     0.967  74.08   0
       308    251.7847    270.2764 300.2097867 +22.5356464     2093.948     72.52913      1.340     2.46     4.456651     20.46267     266.1772        21     1.077     0.968  44.51   0
       309    329.5184    265.3034 300.2355706 +22.5575175      1097.65     72.67677      1.379     2.65     4.382821     20.46267     110.8527        15     1.003     0.836 -55.10   0
       310     81.6482    266.1945 300.1582390 +22.4834672     378.8167     72.51065      1.338     2.96      4.67663     20.46267     44.41233         5     0.724     0.455 -75.20   0
       311    731.5230    264.4792 300.3609653 +22.6777152     554.2303     72.63988      1.157     2.53     4.252044     20.46267     81.09908         7     0.790     0.583  73.04   0
       312    146.2493    257.6502 300.1810829 +22.5003841     821.7562     72.56606      1.405     2.78     4.507464     20.46267     91.06905        13     0.955     0.837  66.49   0
       313    684.3443    254.1791 300.3496120 +22.6606261     1718.695      72.5476      1.263     2.33      4.27155     20.46267     228.6802        21     1.039     0.979 -68.03   0
       314    749.0181    253.6803 300.3699205 +22.6798503     484.8229     72.52913      1.112     2.19     4.231617     20.46267      91.6993         9     0.811     0.668 -74.85   0
       315    167.5750    251.0244 300.1898601 +22.5048755     442.8358     72.49217      1.253     2.18     4.480145     20.46267     80.10341         8     0.760     0.665  19.87   0
       316    955.8693    246.6660 300.4366713 +22.7397608     825.6874     72.58453      1.364     2.47      4.12677     20.46267     117.9661        14     1.060     0.865 -52.34   0
       317    688.2797    245.6763 300.3535972 +22.6593610      649.418     72.63988      1.174     2.27     4.248041     20.46267     119.3711        10     0.816     0.749  55.39   0
       318    608.8469    244.9790 300.3290866 +22.6353703     1292.422     72.56606      1.239     2.23      4.27738     20.46267     195.7357        15     0.912     0.798  84.28   0
       319    457.5641    246.5262 300.2814958 +22.5904949     236.5696     72.47369      1.014     3.62      4.37427     20.46267     41.00826         6     0.956     0.396 -20.49   0
       320    804.3025    236.5055 300.3927204 +22.6914667     1390.642     72.71363      1.275     2.24     4.208153     20.46267     183.9969        18     1.100     0.837  61.13   0
       321    535.1089    236.7555 300.3087994 +22.6109196     999.9398     72.51065      1.307     2.09     4.387243     20.46267     150.9113        12     0.897     0.788  82.34   0
       322    816.3300    235.5570 300.3967764 +22.6947950     786.0986     72.49217      1.149     2.17     4.184608     20.46267     129.1725        13     0.884     0.867 -16.07   0
       323    977.1578    226.2864 300.4499239 +22.7402717     1585.935     72.51065      1.351     2.26     4.218576     20.46267     210.9911        18     1.022     0.906  78.87   0
       324    933.1059    225.7477 300.4363618 +22.7269319     1083.029     72.60298      1.330     2.23     4.177135     20.46267     167.0019        16     1.069     0.843 -84.61   0
       325    166.9452    219.1990 300.1999912 +22.4955502     799.8552     72.45519      1.397     2.84     4.474244     20.46267     86.47633        11     0.896     0.772  47.91   0
       326     28.9888    213.9647 300.1588300 +22.4526870     2184.149     72.52913      1.466     2.70     5.311134     20.46267     253.2783        28     1.222     1.135  24.77   0
       327    852.1769    210.7724 300.4159916 +22.6984009     629.4974     72.52913      1.231     2.43     4.180814     20.46267     110.0736         9     0.860     0.635  70.88   0
       328    186.3440    207.2649 300.2098921 +22.4979390      5702.39     72.58453      1.426     2.44     4.463861     20.46267     592.5911        40     1.303     1.126  68.94   0
       329    168.2462    208.4474 300.2038839 +22.4928535     226.4136     72.52913      1.186     2.93     4.464089     20.46267     42.42085         5     0.754     0.702  65.03   0
       330    169.6137    198.0135 300.2076941 +22.4902678     606.7347     72.45519      1.434     2.74     4.454433     20.46267     69.05605        10     0.943     0.660  28.30   0
       331    985.2240    194.4809 300.4627601 +22.7335381     18161.39     72.49217      1.368     2.31     4.233064     20.46267     2519.878        58     1.267     1.212  86.58   0
       332    830.5753    188.6170 300.4164475 +22.6855640      3436.55     72.52913      1.267     2.21     4.268146     20.46267     474.1363        27     1.120     0.970  84.56   0
       333    934.0668    187.2408 300.4491563 +22.7161456     2747.353     72.49217      1.327     2.26      4.22014     20.46267     360.3271        25     1.115     0.989  49.01   0
       334    133.1076    184.5280 300.2007249 +22.4754530     373.5157     72.67677      1.351     4.09      4.67412     20.46267     51.51081         9     0.911     0.723  31.32   0
       335    379.8566    184.0173 300.2776026 +22.5492563     731.9689     72.49217      1.314     2.70     4.352484     20.46267     102.0386         9     0.898     0.669  76.57   0
       336    494.1644    181.7429 300.3139058 +22.5828483     167.1967     72.52913      0.988     2.45     4.347836     20.46267      59.1454         5     0.862     0.348  47.44   0
       337    304.0199    175.7416 300.2567017 +22.5241553     766.5477     72.51065      1.642     2.95     4.369882     20.46267     96.77641        11     1.075     0.671  24.39   0
       338    838.4800    173.7921 300.4237211 +22.6836676     101.7081     72.47369      1.103     3.44     4.294641     20.46267       36.201         5     0.798     0.430 -67.72   0
       339     70.0652    172.9434 300.1848969 +22.4532282     627.8869     72.58453      1.206     2.86     5.156675     20.46267     99.23161        12     0.981     0.813  -4.30   0
       340    431.3109    171.1245 300.2977924 +22.5609685     1775.703     72.67677      1.329     2.38     4.345726     20.46267     228.2629        17     1.016     0.872  66.82   0
       341    359.0963    171.7518 300.2751244 +22.5395127     459.4851     72.56606      1.264     2.32     4.346194     20.46267     61.52431         7     0.714     0.636  -5.17   0
       342    492.7981    170.0611 300.3172703 +22.5790825     490.6815     72.49217      1.755     4.16     4.339756     20.46267     46.80122         8     1.007     0.663  54.76   0
       343    174.6267    166.7975 300.2193789 +22.4828078     446.3413     72.47369      1.353     3.77     4.421113     20.46267     65.41372         7     0.897     0.641  13.13   0
       344    719.2856    160.2165 300.3909845 +22.6440809     374.5644     72.49217      1.222     3.86     4.442171     20.46267     53.07231         6     0.783     0.545  53.24   0
       345    567.5538    157.3398 300.3446659 +22.5978179     300.1586     72.56606      1.349     3.38      4.27949     20.46267     38.54896         5     0.907     0.494 -85.68   0
       346    865.4509    155.1309 300.4381820 +22.6863745     352.4406     72.51065      1.347     1.78     4.246795     20.46267     54.01305         5     0.651     0.469  68.32   0
       347    995.6931    151.7024 300.4799043 +22.7243662     3725.243     72.71363      1.432     2.42     4.235683     20.46267     497.3938        33     1.238     1.089  76.90   0
       348    205.3183    151.1029 300.2340089 +22.4875001     6008.488     72.67677      1.440     2.56     4.391418     20.46267     652.7727        38     1.276     1.112  63.47   0
       349    319.4706    151.3812 300.2694087 +22.5217883     238.7644     72.56606      1.879     5.95     4.331095     20.46267     27.59646         5     1.116     0.892  38.39   0
       350    711.8868    151.3832 300.3915452 +22.6393263     404.0704     72.47369      1.147     2.24     4.442171     20.46267     52.61865         6     0.711     0.576  56.13   0
       351     56.3113    150.6690 300.1878499 +22.4427107     608.4692     72.69521      1.360     3.36     5.239195     20.46267     75.05718        12     1.089     0.744  72.95   0
       352    834.8354    148.1929 300.4308900 +22.6752156     346.8399      72.5476      1.353     2.80     4.319633     20.46267     47.65211         6     0.722     0.558 -25.69   0
       353    177.0688    144.9726 300.2272173 +22.4772730     477.9174     72.51065      1.547     3.84     4.404898     20.46267     44.38247         9     0.926     0.726 -14.16   0
       354    220.5504    142.5268 300.2415254 +22.4896024     270.5825     72.52913      1.346     3.73      4.38155     20.46267     38.43366         6     0.942     0.424  71.97   0
       355    451.3651    136.3758 300.3153042 +22.5569926     6109.072      72.5476      1.311     2.30     4.318812     20.46267      694.825        36     1.189     1.066  72.23   0
       356    336.7856    136.3746 300.2796612 +22.5226659     759.5302      72.5476      1.398     3.22     4.285163     20.46267     91.00458        12     1.117     0.649  68.63   0
       357    280.5168    135.2601 300.2625251 +22.5054856     707.3269     72.62144      0.731     0.80     4.314834     20.46267     278.8982         5     0.720     0.376  40.63   0
       358    508.2641    131.2410 300.3346765 +22.5725603     366.1086     72.49217      1.387     2.86     4.314671     20.46267     51.85454         8     0.872     0.627 -82.28   0
       359    703.6140    126.3997 300.3970724 +22.6296671     919.9518     72.38118      1.782     4.90     4.442171     20.46267     108.3061        18     1.684     0.807 -73.62   0
       360    645.2604    127.4229 300.3785657 +22.6124895     283.1419     72.51065      1.098     2.34      4.36693     20.46267     45.99316         5     0.677     0.478  15.25   0
       361    796.2877    124.7654 300.4264761 +22.6569404     451.3993     72.51065      1.238     2.60     4.340997     20.46267     64.14922         8     0.860     0.600  77.57   0
       362    144.0460    120.3976 300.2249258 +22.4603189     521.0491     72.52913      1.546     4.41      4.60234     20.46267     48.93688        10     1.069     0.809  31.16   0
       363    579.7507    116.4274 300.3617339 +22.5897124      6286.16      72.5476      1.292     2.25     4.291802     20.46267     850.2642        33     1.173     1.004  78.36   0
       364    502.4198    118.8250 300.3368847 +22.5672419     502.7329      72.5476      1.517     2.60      4.31184     20.46267     56.85624         7     0.788     0.609  67.54   0
       365    354.6708    115.4880 300.2919982 +22.5220245     1334.527     72.69521      1.229     2.35     4.226608     20.46267     174.8456        15     0.971     0.865  55.93   0
       366    620.6992    113.6678 300.3753787 +22.6011812     905.0038     72.62144      1.208     2.32     4.314078     20.46267     127.8699        12     0.992     0.676  44.34   0
       367    690.7108    110.9655 300.3980593 +22.6213667     382.1637     72.51065      1.918     4.69     4.442171     20.46267     41.77478         7     1.101     0.567  67.99   0
       368    636.6584    110.1147 300.3815008 +22.6049385     641.2153     72.63988      1.745     3.08     4.355971     20.46267     84.68176        10     1.103     0.558 -81.49   0
       369    906.7337    107.2813 300.4665731 +22.6849683     536.0758     72.63988      1.259     2.69     4.246231     20.46267     69.34234         8     0.857     0.621  83.72   0
       370    103.2528    107.9373 300.2162918 +22.4445142     615.1464     72.58453      1.383     3.37     5.101109     20.46267     80.35284        11     1.026     0.720  12.84   0
       371    675.2377    105.2550 300.3950920 +22.6150925     436.5331     72.52913      1.154     3.08     4.442171     20.46267     66.30097         8     0.861     0.679 -59.08   0
       372    623.8128    101.2489 300.3803762 +22.5985436     2633.781      72.5476      1.324     2.38     4.332437     20.46267     348.0861        26     1.169     0.962  65.28   0
       373    264.4702    102.0504 300.2683069 +22.4911388     411.7235     72.52913      1.629     4.89     4.284868     20.46267     50.33678        10     1.173     0.629  22.83   0
       374    639.1674     99.9140 300.3855906 +22.6027574     1071.874     72.49217      1.938     3.96     4.366615     20.46267     89.50255        19     1.389     0.907  34.87   0
       375    710.3384     92.7426 300.4100834 +22.6220037     1500.857     72.58453      1.272     2.27     4.472378     20.46267     216.3517        17     1.027     0.866  80.25   0
       376    648.1661     85.9699 300.3929152 +22.6014432     728.5944      72.5476      1.302     2.14     4.444368     20.46267     107.6335         9     0.752     0.697  69.58   0
       377    453.9956     85.5685 300.3326011 +22.5431815     1041.271     72.51065      1.307     2.73     4.294069     20.46267     138.5971        12     0.966     0.802  34.92   0
       378     27.0748     85.4569 300.1999183 +22.4152253     385.5109     72.56606      1.146     3.28     5.294843     20.46267     66.92223         7     0.898     0.527 -83.52   0
       379    357.7076     83.6917 300.3032546 +22.5137996     912.4341     72.69521      1.436     2.85     4.187075     20.46267     116.8404        12     0.988     0.807  29.31   0
       380   1000.8369     80.1924 300.5047038 +22.7053332      2294.79     72.52913      1.372     2.50     4.312493     20.46267     260.3315        26     1.188     0.998  83.48   0
       381    739.9380     81.9041 300.4228197 +22.6277482     519.1172     72.62144      1.493     3.24     4.550271     20.46267     63.25995        10     0.910     0.856  83.73   0
       382    696.9727     73.7902 300.4120663 +22.6125534     659.6184     72.52913      1.425     4.02     4.615862     20.46267     85.18368        11     1.223     0.618  67.94   0
       383    129.1835     73.6281 300.2354747 +22.4424345     3742.147      72.5476      1.501     2.68     4.917728     20.46267     409.1349        31     1.212     1.129  38.88   0
       384    260.1828     74.4487 300.2759249 +22.4819260      341.991     72.56606      1.366     3.49     4.441412     20.46267     31.88122         5     0.784     0.448  19.56   0
       385    455.2335     70.6531 300.3378231 +22.5392662       293.14      72.5476      0.989     2.81     4.304193     20.46267     61.52785         5     0.919     0.375 -76.48   0
       386    551.7367     70.1800 300.3680114 +22.5680309     399.6523     72.51065      1.515     3.07     4.316782     20.46267     50.26067         7     0.790     0.749  24.19   0
       387    245.1088     65.7709 300.2740524 +22.4749168     1206.264     72.49217      1.445     2.60     4.606972     20.46267     148.1427        18     1.156     0.853  40.60   0
       388    690.4772     65.9211 300.4125949 +22.6083463     829.0587     72.63988      1.318     2.40     4.676276     20.46267     116.7925        10     0.831     0.741 -68.56   0
       389    656.4557     65.1840 300.4022376 +22.5979493     263.2629     72.49217      1.113     2.56     4.594293     20.46267     40.26701         5     0.719     0.439  65.58   0
       390    728.4105     61.0525 300.4259903 +22.6183018     681.1892     72.52913      1.345     3.45     4.714035     20.46267     87.16278        12     1.211     0.660  64.20   0
       391    651.5964     60.7816 300.4021518 +22.5952288     474.7962     72.45519      1.199     2.40     4.595305     20.46267     76.15306         8     0.807     0.635  36.37   0
       392    748.3531     57.2118 300.4334488 +22.6231668     2112.274     72.52913      1.275     2.30     4.749517     20.46267     283.2634        21     1.054     0.895 -82.40   0
       393    453.7642     55.8276 300.3421733 +22.5345657     503.7242      72.5476      1.340     2.89     4.313599     20.46267     70.47871         8     0.968     0.530  37.85   0
       394    131.5356     52.5073 300.2430539 +22.4370742     1002.079     72.63988      1.559     2.48     5.033145     20.46267     119.9665        15     1.099     0.831  50.96   0
       395    923.2881     50.5761 300.4901245 +22.6736105     798.8278     72.47369      1.456     3.19     4.429264     20.46267     78.04614        16     1.027     0.976  59.97   0
       396    696.6595     49.6724 300.4197896 +22.6055251     951.5013     72.56606      1.382     2.69     4.797104     20.46267       118.43        15     1.018     0.843 -85.74   0
       397    454.5146     42.2184 300.3468196 +22.5308794     310.1703     72.47369      1.397     3.42     4.322799     20.46267     38.31214         5     0.769     0.440 -67.88   0
       398    281.6732     39.4358 300.2939595 +22.4783068     432.4268     72.49217      1.361     3.05     4.417597     20.46267     55.74254         8     0.916     0.605  64.80   0
       399    549.1273     34.6684 300.3787139 +22.5570421     780.7916     72.60298      1.238     2.44     4.331516     20.46267     135.2448        12     0.980     0.712  41.62   0
       400    283.7395     32.7887 300.2967571 +22.4770163     406.7592     72.47369      2.187     5.57     4.411692     20.46267     27.84012         8     1.103     0.794 -47.13   0
       401    684.3206     32.4551 300.4215289 +22.5968809      221.384     72.56606      1.196     4.01     4.933036     20.46267     40.27667         6     0.898     0.702 -14.24   0
       402    158.5876     32.1073 300.2580744 +22.4393223     386.8324     72.47369      1.405     2.96     5.170138     20.46267     52.30024         7     0.857     0.575 -13.10   0
       403    712.3306     29.2934 300.4312790 +22.6043562     690.9667     72.65833      1.317     3.60     4.955691     20.46267     81.88394        10     1.170     0.599  87.31   0
       404    343.3600     29.9662 300.3162128 +22.4940657     258.6692     72.56606      1.186     3.34     4.206826     20.46267      38.6099         5     0.752     0.431 -69.95   0
       405    521.0050     27.5668 300.3722627 +22.5465799     1811.417     72.51065      1.345     2.40     4.330551     20.46267     266.5956        18     1.059     0.890  69.33   0
       406    243.8850     25.1434 300.2868446 +22.4628798     643.1967     72.62144      1.336     2.93     4.990986     20.46267     84.65765        10     0.970     0.680  61.37   0
       407    478.2569     21.7979 300.3608286 +22.5321208      1295.96     72.49217      1.277     2.49     4.333237     20.46267     170.1698        15     0.977     0.828 -77.05   0
       408    105.5216   1023.4442 299.9195236 +22.7077857     787.0607      57.7381      7.342     8.79      30.8544     20.46267     50.22193        15     3.663     0.589 -15.38  27
       409    178.8382     17.3696 300.2691458 +22.4411575     234.5945     72.52913      1.228     3.90     5.352345     20.46267      45.6384        10     1.032     0.729   9.07   0
       410    227.6707     15.1227 300.2850527 +22.4551434     351.0554     72.63988      1.241     3.10      5.33027     20.46267     42.61654         7     0.730     0.661 -66.96   0
       411     50.8251    996.3568 299.9113530 +22.6835982     1302.391     72.56606     11.944    16.92     38.40311     20.46267     41.73387        43     4.490     1.771 -17.58  19
       412    201.4796   1017.9609 299.9511223 +22.7350291     690.3288     72.51065      2.326     6.03     9.975709     20.46267     46.24874        12     1.178     0.867  52.40  16
       413    490.4341   1017.6644 300.0410717 +22.8216789      414.261     72.52913      2.063     4.55       2.1929     20.46267     44.88974         8     1.192     0.772  54.30  16
