#   1 NUMBER                 Running object number                                     
#   2 X_IMAGE                Object position along x                                    [pixel]
#   3 Y_IMAGE                Object position along y                                    [pixel]
#   4 ALPHA_J2000            Right ascension of barycenter (J2000)                      [deg]
#   5 DELTA_J2000            Declination of barycenter (J2000)                          [deg]
#   6 FLUX_APER              Flux vector within fixed circular aperture(s)              [count]
#   7 FLUXERR_APER           RMS error vector for aperture flux(es)                     [count]
#   8 FLUX_RADIUS            Fraction-of-light radii                                    [pixel]
#   9 FWHM_IMAGE             FWHM assuming a gaussian core                              [pixel]
#  10 BACKGROUND             Background at centroid position                            [count]
#  11 THRESHOLD              Detection threshold above background                       [count]
#  12 FLUX_MAX               Peak flux above background                                 [count]
#  13 ISOAREA_IMAGE          Isophotal area above Analysis threshold                    [pixel**2]
#  14 A_IMAGE                Profile RMS along major axis                               [pixel]
#  15 B_IMAGE                Profile RMS along minor axis                               [pixel]
#  16 THETA_IMAGE            Position angle (CCW/x)                                     [deg]
#  17 FLAGS                  Extraction flags                                          
         1    240.9240     16.4806 300.2868108 +22.4628718     677.3721     72.62183      1.406     3.12     4.949365     20.45758     89.15855        12     0.980     0.878  63.39   0
         2    475.2891     13.0370 300.3608344 +22.5320799     1266.013     72.49263      1.321     2.43     5.040432     20.45758      168.547        15     1.058     0.779  76.33   0
         3    580.7170      9.5372 300.3947900 +22.5626410     1229.594     72.60339      1.268     2.46     5.027967     20.45758     152.8082        15     0.961     0.849  68.41   0
         4    176.0251      8.7369 300.2691450 +22.4412030     434.2755     72.49263      1.274     3.62     4.945453     20.45758     69.71588         9     1.024     0.616 -39.04   0
         5    112.8400      7.6386 300.2498634 +22.4219545     1701.192     72.58495      0.673     1.05     4.877806     20.45758     814.8831         8     0.603     0.403  58.84   0
         6    224.6277      6.4863 300.2849837 +22.4551184     454.3471      72.5111      1.388     3.76     4.945827     20.45758     51.39268         8     1.066     0.537  51.39  16
         7    920.6521      5.8034 300.5019291 +22.6633036     335.0868      72.5111      1.814     5.11     4.973762     20.45758     37.92558         6     0.960     0.770 -89.02  16
         8    401.1890      3.4282 300.3408897 +22.5071274     1999.468     66.86095      1.350     2.39       5.1329     20.45758     259.0472        24     1.169     0.946  60.28  24
         9     48.2405      1.8051 300.2316826 +22.4009202     1092.496     59.14471      1.320     2.85     4.741701     20.45758     136.5711        16     1.204     0.742   0.03  24
        10     65.5278   1000.1161 299.9127942 +22.6924708     1526.275     72.62183     13.114    17.22     43.83763     20.45758     42.27343        45     3.508     2.349 -24.07  11
        11    184.0101   1009.5722 299.9465291 +22.7307588     1554.354      72.5111      7.219    13.81     13.72383     20.45758     43.25013        38     3.704     1.432  88.69  19
        12    188.5087   1021.4263 299.9440685 +22.7355068     3792.024     67.41946     10.898    31.67     13.79133     20.45758     117.0293       262     9.313     2.989  13.35  27
        13    188.6663   1013.6583 299.9466461 +22.7333279      2043.67     72.54803      6.056    11.04      13.1079     20.45758     57.23196        42     1.903     1.786  25.62  19
        14    147.0847   1023.0134 299.9306789 +22.7235233     782.1119     60.06592      6.253     7.76     24.48299     20.45758     40.07153        17     1.886     0.893 -15.29  27
        15    154.6264   1023.0417 299.9330132 +22.7257960     927.2648     59.90965     11.270    12.70     22.18485     20.45758     37.14743        19     4.554     0.986  -1.25  27
        16    121.0764   1020.5600 299.9233964 +22.7150103     1179.439     70.43116      7.118     8.57     31.41336     20.45758     31.67673        12     1.554     1.321 -83.92  19
        17     86.3349   1017.6285 299.9135575 +22.7037372     1688.555      72.5111     11.202    15.40     42.87819     20.45758     47.90186        41     3.735     1.766   7.75  27
        18     80.4488   1012.3119 299.9134595 +22.7004462     1369.331      72.5111     14.240    14.51     43.36428     20.45758     40.51191        35     3.478     1.683  26.14  19
        19    103.2760   1017.8428 299.9187506 +22.7088862     1903.472     72.49263     10.311    16.20      35.5352     20.45758      53.2827        56     3.587     2.033  45.57  19
        20     98.8870   1016.1501 299.9179381 +22.7070832     1745.442      72.5111      7.727    11.70     35.97424     20.45758     67.33903        40     2.701     1.681  80.60  19
        21    100.2227   1021.8400 299.9165009 +22.7091146     654.5099     65.72968      1.779     3.68       37.659     20.45758     50.99912         5     1.262     0.308  52.87  19
        22     47.4845   1022.6124 299.8998674 +22.6934974      1597.74     62.12642     15.166    26.05     66.27727     20.45758     61.69301       104     5.581     3.375 -28.65  27
        23     34.0990   1005.0128 299.9014387 +22.6844349     2240.978     72.41869      4.433    15.03     60.49667     20.45758     67.66901        64     3.176     1.978 -51.89  19
        24     39.5811   1020.2591 299.8981787 +22.6904494     1282.393     71.18769      2.263     7.76     68.07514     20.45758      62.0685        21     1.824     0.923  67.16  19
        25     36.3098   1015.8682 299.8985919 +22.6882089     2957.005     72.65871      5.515    21.76     67.37577     20.45758     68.78531       137     4.746     2.772 -56.26  19
        26     52.5235   1002.1397 299.9080963 +22.6891452     1272.775     72.56649     10.104    11.84     50.35146     20.45758     36.19443        25     2.412     1.618 -66.29   1
        27    409.4196   1002.2811 300.0189909 +22.7963327     935.9716     72.49263      1.633     4.18     3.712472     20.45758     80.60929        18     1.157     1.085   1.75   0
        28    340.2809   1000.2575 299.9981442 +22.7750017     6286.813     72.54803      1.678     3.21     3.702436     20.45758     574.1008        39     1.317     1.287 -56.48   0
        29     47.3329    987.9532 299.9111014 +22.6835216     1037.336     72.49263      7.661     9.48     43.94114     20.45758     45.92197        21     1.907     1.315  18.28   1
        30    372.6162    987.2603 300.0124317 +22.7809803     451.1588     72.47415      1.380     4.92      3.69458     20.45758     42.97525        11     1.118     0.741 -36.18   0
        31     28.9393    985.4423 299.9062058 +22.6772782     1234.455     72.49263      4.773     9.38     47.73493     20.45758     44.23992        21     1.979     1.240 -30.55   3
        32     27.0089    981.1921 299.9069895 +22.6754807     1289.222      72.3632      3.759     8.79     45.32914     20.45758     40.93746        15     2.134     1.011  15.67   3
        33     35.3109    982.3123 299.9092034 +22.6782949     1945.618     72.67714     10.438    12.04     43.69833     20.45758     52.35662        49     2.310     2.160  40.78   3
        34     41.5303    979.7816 299.9119587 +22.6794376     1401.447     72.52957     10.361    11.10     40.26909     20.45758     41.83997        24     2.795     1.228  76.36   3
        35    886.5577    978.7399 300.1752450 +22.9327015     2027.761     72.49263      1.709     3.70      3.17091     20.45758     149.8788        28     1.303     1.228  13.92   0
        36     39.6271    971.2315 299.9141501 +22.6764163     1473.719      72.5111      8.238    14.26     34.71507     20.45758     52.24718        30     4.216     1.342 -35.61   3
        37     34.8664    970.7255 299.9128362 +22.6748416     1463.452     72.58495      5.745     6.09     35.87428     20.45758     66.53674        15     1.528     0.907  10.17   3
        38     28.4891    974.0051 299.9097883 +22.6738660     1796.284     72.41869      3.096     8.17     39.75894     20.45758     47.11284        21     2.122     0.880  26.10   3
        39     31.9136    972.7725 299.9112529 +22.6745413     1116.897      72.5111      3.179     7.06     38.02891     20.45758     46.00387        12     2.411     0.579  24.26   3
        40    384.4070    975.1147 300.0200524 +22.7810364     260.0311     72.43719      1.228     3.40      3.68043     20.45758     36.23663         5     0.763     0.438  69.18   0
        41    273.7099    971.6826 299.9867443 +22.7468274     8035.003     72.62183      0.726     0.96     4.041473     20.45758       3663.6        11     0.531     0.497  44.40   0
        42   1002.7160    966.4322 300.2154728 +22.9639884     442.2206     72.49263      1.986     7.52     3.063315     20.45758     36.08326        14     1.511     1.047 -44.21   0
        43    675.5798    967.4154 300.1131892 +22.8661858     716.0071     72.49263      1.743     3.95     3.087036     20.45758     65.98531        12     1.036     0.819  38.73   0
        44     34.0378    968.0000 299.9134658 +22.6738118     1507.649     72.49263      3.608     9.67     33.95401     20.45758     56.49641        16     3.263     0.799  10.04   3
        45    710.2238    961.8953 300.1257770 +22.8749922      1126.89      72.4002      1.693     3.56     3.044019     20.45758     95.56217        21     1.233     1.055 -23.37   0
        46    487.9580    962.5625 300.0563559 +22.8085098        346.7     72.60339      1.445     2.97     3.333558     20.45758     44.01116         8     0.801     0.688  87.20   0
        47    732.3734    955.5928 300.1347284 +22.8798262     11433.12      72.5111      1.621     3.09     3.056764     20.45758     915.4813        50     1.335     1.304 -35.11   0
        48    923.4692    954.9544 300.1944951 +22.9369389     452.8622     72.49263      1.920     5.39     3.342833     20.45758     36.92251        10     1.198     0.685 -67.62   0
        49    777.8310    955.3391 300.1489743 +22.8933849     530.4523     72.54803      1.771     4.38     3.170309     20.45758     49.31499        10     1.123     0.937  -8.31   0
        50     44.1046    947.2001 299.9233612 +22.6708750     349.5705      72.3817      1.330     4.43     18.03288     20.45758     57.79307         9     1.176     0.562  44.28   0
        51    437.6971    943.7847 300.0468274 +22.7880435      407.959     72.41869      1.493     5.01     3.565086     20.45758     50.00546         9     1.117     0.636 -21.66   0
        52    784.2556    942.6367 300.1551104 +22.8916657     371.7975      72.5111      1.431     5.26     3.254679     20.45758     42.35304         8     0.996     0.785 -18.00   0
        53    740.9683    937.6958 300.1432308 +22.8772675     1388.381     72.47415      1.567     3.50     3.242333     20.45758     119.0852        21     1.187     1.077  55.43   0
        54    923.8876    936.8839 300.2005070 +22.9318763     487.0858     72.62183      1.514     5.70     3.465657     20.45758     47.89133        11     1.283     0.712  31.86   0
        55     34.7718    938.4156 299.9233210 +22.6655552     151.6536     72.52957      1.027     2.92     12.40213     20.45758     47.23342         5     0.705     0.484 -10.62   0
        56    456.4400    935.7266 300.0552815 +22.7913562     239.5866     72.49263      1.328     3.35     3.509571     20.45758     39.23798         5     0.770     0.422 -66.06   0
        57    592.8543    934.8455 300.0980281 +22.8320279     501.5415     72.54803      1.565     4.14     3.269301     20.45758     51.36364         8     1.146     0.491  27.69   0
        58    779.1963    931.0548 300.1573031 +22.8868245     929.8198     72.45567      1.729     3.81     3.321605     20.45758     69.52908        15     1.122     0.974 -39.11   0
        59    118.6496    930.3931 299.9519874 +22.6884419     505.0419      72.5111      1.911     3.33     6.984342     20.45758      38.8446         5     1.025     0.313  68.35   0
        60    888.5338    927.5820 300.1925116 +22.9186079     491.9517     72.49263      2.153     6.33       3.4785     20.45758     55.27019         9     1.616     0.697  12.84   0
        61    827.7089    922.3058 300.1752688 +22.8988585     716.3896     72.67714      1.723     4.88     3.392087     20.45758     56.75825        14     1.292     0.856  15.09   0
        62    678.7048    921.5349 300.1290944 +22.8539579     670.2094     72.64027      1.518     3.16     3.344368     20.45758     68.50783        13     1.081     0.761 -49.56   0
        63    690.3092    918.2100 300.1337908 +22.8564838     615.3792     72.45567      1.581     4.02     3.350471     20.45758     56.57178        11     1.033     0.823  57.78   0
        64    391.3887    917.8266 300.0408676 +22.7667034      4163.42      72.5111      1.595     3.00     3.624897     20.45758     420.5797        33     1.268     1.195  -3.50   0
        65     53.2868    906.1935 299.9395560 +22.6618811     602.9671     72.41869      2.305     5.71     5.634291     20.45758     46.73838        11     1.199     1.062 -86.72   0
        66    434.9131    905.7869 300.0583259 +22.7763101     395.1993     72.45567      1.502     4.75     3.576086     20.45758     42.97326         7     1.074     0.596 -18.61   0
        67    116.8171    903.7185 299.9600973 +22.6802464     807.9286      72.5111      1.715     4.56     5.773786     20.45758     72.49988        14     1.279     0.790 -30.76   0
        68     25.5098    902.3691 299.9321729 +22.6524446      698.853     72.45567      2.818     4.94     5.120549     20.45758     42.22798         7     1.002     0.689 -45.03   0
        69     93.8188    900.6936 299.9539362 +22.6724746     1588.349     72.43719      1.870     4.10     6.014519     20.45758     120.5281        21     1.257     1.134  -7.87   0
        70    965.5793    889.3270 300.2289840 +22.9307174     2186.234     72.52957      1.778     3.46      3.63426     20.45758     161.1859        26     1.247     1.192  39.32   0
        71    919.8035    887.9293 300.2151644 +22.9165963     2125.951     72.45567      1.590     3.08     3.556997     20.45758      173.153        26     1.266     1.116  50.51   0
        72    626.3596    887.8633 300.1237489 +22.8285969      307.844     72.49263      1.655     3.38      3.40405     20.45758     37.32499         5     0.759     0.437 -71.31   0
        73    395.8167    887.5525 300.0520955 +22.7593495     333.2886     72.54803      1.506     2.41     3.622489     20.45758     44.34278         5     0.696     0.478  15.54   0
        74    125.8655    882.7397 299.9697340 +22.6769497     467.9564     72.54803      1.544     5.86     4.835914     20.45758     44.87132        11     1.529     0.750 -40.75   0
        75    703.5502    881.6944 300.1497972 +22.8499749     664.9832     72.56649      1.536     3.45     3.405348     20.45758     74.34623        15     1.085     0.951 -87.58   0
        76    571.3723    875.8892 300.1105238 +22.8086691     4872.202     72.49263      1.470     2.72     3.452284     20.45758     531.4119        35     1.207     1.156   9.82   0
        77     61.1622    876.5253 299.9516543 +22.6557430     413.8824     72.45567      1.530     3.46     4.663369     20.45758     43.85527         7     0.859     0.751  89.55   0
        78    373.3650    873.1036 300.0498124 +22.7484689      640.688      72.5111      1.454     4.03     3.622136     20.45758      72.3194        13     1.145     0.815 -36.97   0
        79    121.5626    869.8043 299.9726051 +22.6719501      1294.96     72.54803      1.647     3.64     4.388955     20.45758     127.9532        22     1.205     1.144  45.27   0
        80    592.1731    868.1548 300.1195163 +22.8126886     793.3752     72.52957      1.553     3.80     3.458917     20.45758     70.92307        18     1.129     1.091  -7.07   0
        81    390.0976    867.9026 300.0567093 +22.7519977     368.8969     72.71398      1.360     3.32     3.621407     20.45758     44.58613         7     0.810     0.704 -48.89   0
        82    140.6645    867.3301 299.9793453 +22.6769751     447.6776     72.54803      1.486     3.21       4.2484     20.45758     62.85564        10     0.865     0.852  74.72   0
        83    508.2245    859.3397 300.0962512 +22.7849797      303.483     72.49263      1.456     4.13     3.541288     20.45758     38.53748         6     0.729     0.667 -53.28   0
        84    747.3403    855.5489 300.1719458 +22.8556003     4142.617     72.56649      1.461     2.62     3.466833     20.45758      439.913        34     1.233     1.124  21.28   0
        85   1001.0095    855.3912 300.2510759 +22.9315893     343.2858      72.4002      1.946     4.66     3.834392     20.45758     23.34979         5     1.055     0.585 -74.60   0
        86    964.3153    855.6815 300.2395370 +22.9206765     1201.002     72.64027      1.706     4.07     3.715881     20.45758     84.25986        16     1.060     1.030  28.76   0
        87    155.4702    849.9734 299.9895922 +22.6764438     608.9058      72.5111      1.937     5.56     4.123113     20.45758     49.41661        10     1.085     1.024  33.31   0
        88    464.4401    848.2412 300.0862356 +22.7686615     645.9974     72.60339      1.504     2.96     3.649607     20.45758     78.71511        12     0.940     0.830   0.39   0
        89    110.7421    846.3166 299.9768836 +22.6619690     945.9513     72.60339      1.615     3.92     4.155362     20.45758     98.94276        17     1.212     0.983 -45.45   0
        90    260.4426    838.3334 300.0260070 +22.7046121     53070.97     72.49263      1.579     2.77     3.972758     20.45758     5445.997       106     1.475     1.431  24.10   0
        91    525.8044    841.2207 300.1076173 +22.7850544     515.4941     72.47415      1.616     2.90       3.7045     20.45758     69.45833        10     1.004     0.816 -10.96   0
        92    518.2271    837.1881 300.1065705 +22.7816246      1705.43      72.5111      1.509     2.85     3.734629     20.45758      169.832        22     1.095     1.024  22.19   0
        93    931.2961    836.1047 300.2356092 +22.9051590      741.303     72.67714      1.386     3.31      3.66704     20.45758     87.10378        14     1.017     0.902  31.95   0
        94    189.1147    836.4617 300.0044434 +22.6826686     569.3704     72.64027      1.708     3.48     4.046599     20.45758     56.10143         9     0.914     0.712  19.09   0
        95    547.1750    833.2006 300.1168784 +22.7891629     796.8447     72.45567      1.303     2.81     3.777205     20.45758     98.26155        11     0.927     0.778  61.25   0
        96    558.1807    831.6262 300.1208166 +22.7920120     594.2791     72.52957      1.473     3.75      3.74493     20.45758     57.51538        10     0.913     0.888 -27.76   0
        97    878.5583    829.2791 300.2213869 +22.8873932     328.2849     72.49263      1.319     4.21      3.65266     20.45758     38.23944         6     1.102     0.460 -79.17   0
        98    663.5706    828.1146 300.1547754 +22.8226089     423.0359      72.5111      1.372     2.31     3.559687     20.45758     65.79413         8     0.785     0.638   9.81   0
        99    457.7466    825.5800 300.0915242 +22.7601525      68.8537     72.49263      1.168     3.85     3.826484     20.45758       33.972         5     1.012     0.419 -82.74   0
       100    701.3234    817.9598 300.1698378 +22.8310138       750.17     72.47415      1.396     2.94     3.594082     20.45758     96.68797        13     1.031     0.788 -55.46   0
       101    513.7562    818.8011 300.1111599 +22.7750079     3043.523      72.5111      0.665     1.22     3.886684     20.45758     1443.865         7     0.563     0.434 -68.90   0
       102    310.1582    815.5843 300.0488648 +22.7130067     31090.92     72.52957      1.492     2.64     3.904756     20.45758     3160.072        78     1.366     1.332 -23.68   0
       103    324.3900    815.9839 300.0531607 +22.7173916     1949.296     72.43719      1.537     3.08     3.908689     20.45758      198.764        23     1.221     1.094  66.34   0
       104    833.2238    811.3144 300.2130991 +22.8686468     2686.959     72.47415      1.486     2.75     3.699496     20.45758     263.0953        27     1.161     1.118  71.61   0
       105    321.0474    809.9777 300.0540746 +22.7146659     730.2868     72.52957      1.562     4.15     3.924309     20.45758     57.00933        13     1.221     0.740 -11.50   0
       106    591.1740    807.2015 300.1390332 +22.7948976     933.9125     72.45567      1.389     2.79      3.74037     20.45758     105.9861        15     1.045     0.865  62.60   0
       107    192.6427    807.3245 300.0150168 +22.6753731     780.8657     72.49263      1.618     3.58     3.917249     20.45758     76.55187        13     1.066     0.873 -34.45   0
       108    427.4639    807.5057 300.0879805 +22.7458832     349.9801     72.60339      1.206     3.77     3.970726     20.45758     58.68587         7     1.101     0.662   8.04   0
       109    438.4643    802.1177 300.0931556 +22.7476373     867.7236     72.62183      1.368     2.86     4.009472     20.45758     102.7889        14     0.997     0.880  54.08   0
       110    839.1192    798.6949 300.2190414 +22.8667903     545.0748     72.65871      1.529     4.33     3.751509     20.45758     55.32206        11     1.134     0.823  21.84   0
       111    586.9062    799.2372 300.1402948 +22.7913321     216.4889     72.49263      1.312     3.72     3.806083     20.45758     37.48524         5     0.836     0.476 -53.85   0
       112    340.3065    798.3989 300.0638301 +22.7171233     296.2303      72.4002      1.175     2.99     3.988386     20.45758     38.91383         8     0.925     0.579 -69.90   0
       113    296.0201    798.2826 300.0500956 +22.7038023     263.2065     72.47415      1.307     4.10     3.907642     20.45758     51.29471         8     0.930     0.760 -69.47   0
       114    384.6492    797.2344 300.0780013 +22.7300927     321.6619     72.54803      1.178     2.37      4.02283     20.45758     55.40063         6     0.725     0.535 -39.97   0
       115     26.3153    796.4220 299.9668851 +22.6223218     425.2858     72.45567      1.688     4.81     4.089234     20.45758     35.95062         8     0.934     0.701 -79.78   0
       116    817.0129    793.2733 300.2139147 +22.8586077     362.3414     72.52957      1.275     4.17     3.783709     20.45758      56.0432         8     0.960     0.657  59.88   0
       117    190.6059    791.5901 300.0195009 +22.6702501     479.5018      72.3632      1.396     2.78     3.886748     20.45758     75.34467         9     0.866     0.769  -3.98   0
       118    513.5115    781.9840 300.1230583 +22.7643702     421.7766     72.43719      1.431     3.78     4.114448     20.45758     60.79914         9     0.920     0.802  56.35   0
       119    482.9900    780.1998 300.1141393 +22.7547042     601.2358     72.32617      1.268     2.84     4.079647     20.45758     78.87875        10     0.878     0.732 -13.58   0
       120    392.7973    779.7711 300.0862155 +22.7275273     269.5801     72.45567      1.058     3.22     4.076414     20.45758     50.81607         6     0.755     0.547  37.49   0
       121    899.6806    776.5718 300.2451161 +22.8785874     4681.046     72.52957      1.468     2.58      3.85724     20.45758     497.1276        32     1.181     1.137 -87.02   0
       122    505.1170    777.6145 300.1218666 +22.7605988     1382.822     72.47415      1.366     2.53     4.117034     20.45758     165.3826        16     0.978     0.881  -5.90   0
       123    425.1836    777.0019 300.0971917 +22.7364479     393.0924      72.4002      1.550     4.23      4.10592     20.45758     43.67476         6     0.907     0.563  -0.04   0
       124    888.1776    768.0514 300.2443009 +22.8726932     1832.705      72.5111      1.433     2.54     3.913398     20.45758     214.0023        20     1.044     0.970  23.40   0
       125    251.1539    761.9345 300.0479660 +22.6799152     871.0744      72.5111      1.444     2.87     3.902423     20.45758     101.8545        14     1.030     0.845  61.84   0
       126    116.8586    761.9982 300.0062061 +22.6396319     372.6261     72.45567      1.822     5.51     4.013957     20.45758     29.28465         6     1.063     0.805  18.91   0
       127    919.1945    758.0588 300.2572213 +22.8791178     1575.406     72.47415      1.426     2.79     3.923632     20.45758     173.0722        21     1.093     1.003 -73.23   0
       128    714.7286    759.3141 300.1930877 +22.8181973       2561.2     72.62183      1.490     3.01     3.767045     20.45758     267.5461        26     1.522     0.976  -1.02   0
       129    100.1066    746.3058 300.0061037 +22.6301048     698.5342     72.67714      1.761     3.51     4.067821     20.45758     75.47063        11     1.165     0.743 -74.48   0
       130    796.8703    745.1929 300.2232739 +22.8387644     609.5047     72.47415      1.570     4.06     4.015121     20.45758     66.52465        12     1.060     0.816  21.44   0
       131    832.8877    736.2252 300.2374154 +22.8469837       145985     72.45567      1.396     2.44      4.10025     20.45758     17329.84       170     1.440     1.420  56.72   0
       132    594.9594    739.6831 300.1621696 +22.7766544     410.0132     72.47415      1.554     2.70     4.112961     20.45758     58.77623         7     0.802     0.628  70.12   0
       133    979.8328    737.7367 300.2827399 +22.8914490     1211.703      72.5111      1.449     2.87     3.873787     20.45758     128.3568        19     1.172     0.957  10.24   0
       134    685.1520    736.5703 300.1912703 +22.8028013      835.811     72.52957      1.442     2.81     3.971597     20.45758     95.94691         9     0.966     0.596 -30.94   0
       135    865.6975    729.0186 300.2499860 +22.8547463     358.1012     72.43719      1.085     2.22     4.130544     20.45758     62.58011         7     0.676     0.668 -45.12   0
       136    519.1893    725.1148 300.1433183 +22.7497530     1607.992     72.45567      1.246     2.28     4.338048     20.45758     234.5818        18     0.954     0.903 -75.76   0
       137    700.3510    722.3882 300.2006162 +22.8032858     9204.943     72.52957      1.303     2.27      3.91263     20.45758     1049.286        44     1.190     1.146 -49.59   0
       138    201.8243    717.7079 300.0470113 +22.6524293     4861.655     72.45567      1.481     2.67     3.875072     20.45758     588.1219        36     1.238     1.179 -43.48   0
       139    283.8068    715.6400 300.0731708 +22.6764336      1076.38     72.54803      1.379     2.83     3.952705     20.45758     157.1195        16     0.996     0.911  58.90   0
       140    159.6190    712.9072 300.0354546 +22.6383880     633.1057     72.43719      1.926     5.22      3.88141     20.45758     49.79878        11     1.147     0.970  45.29   0
       141    492.1682    711.0279 300.1394882 +22.7376072     753.8102      72.5111      1.319     2.78     4.252789     20.45758     106.8965        13     1.172     0.760  36.01   0
       142    483.7602    703.2549 300.1393986 +22.7328551     3324.256      72.5111      1.330     2.39     4.216913     20.45758     436.3941        27     1.108     1.015  27.25   0
       143    474.0617    697.0642 300.1383929 +22.7281700     1537.702     72.54803      1.375     2.36      4.19759     20.45758     206.4248        21     1.117     0.980  81.31   0
       144    402.7901    696.7720 300.1163115 +22.7067115     247.5144      72.5111      1.162     3.21     4.151447     20.45758     32.07777         6     0.746     0.564  44.95   0
       145    868.0104    694.8455 300.2618182 +22.8456242     573.2108     72.52957      1.551     5.19      4.17143     20.45758     46.26001        11     1.058     0.873  74.89   0
       146    384.8217    694.2763 300.1115330 +22.7006062      245.754     72.49263      0.992     2.18     4.121537     20.45758     60.46953         5     0.705     0.434 -11.06   0
       147    137.1494    693.0161 300.0349384 +22.6259411     687.2057     72.52957      1.538     3.85     3.961131     20.45758      73.3298        14     1.172     0.930  -1.98   0
       148    151.5052    691.6664 300.0398382 +22.6298618     704.7132     72.64027      1.681     3.32     3.917967     20.45758     76.87401        12     1.018     0.846 -50.79   0
       149    921.2803    688.1714 300.2805964 +22.8596679     603.5367     72.52957      1.613     3.14     4.141909     20.45758     63.88853        12     0.963     0.823  24.12   0
       150    177.3285    688.3687 300.0489356 +22.6366647       622.47      72.5111      1.746     4.13     3.894405     20.45758     58.04252         9     0.939     0.788 -30.92   0
       151    398.8775    686.7936 300.1183381 +22.7026749     1683.585     72.43719      1.253     2.21     4.127165     20.45758     259.1284        17     0.944     0.878 -35.63   0
       152    208.3263    688.3508 300.0585760 +22.6459603     374.9896      72.5111      1.374     3.25     3.894405     20.45758     44.36684         6     0.705     0.663 -35.67   0
       153    497.6983    687.0956 300.1489898 +22.7323971     438.2465     72.69556      1.330     3.31     4.313535     20.45758     62.13064         8     0.815     0.703   8.08   0
       154    974.5980    684.0385 300.2985671 +22.8744538     866.2852     72.52957      1.374     3.45     4.009292     20.45758     95.97725        14     1.064     0.904 -82.88   0
       155     52.7714    681.8646 300.0123483 +22.5974214     19554.55      72.5111      1.584     2.93     4.192607     20.45758     2026.713        67     1.439     1.329  36.58   0
       156    483.6983    682.2071 300.1462218 +22.7267959     1001.656      72.4002      1.221     2.12     4.221918     20.45758     152.1998        11     0.864     0.719  67.46   0
       157    518.8791    681.0138 300.1575595 +22.7370027     417.5883      72.5111      1.383     2.54     4.470858     20.45758     66.28891         6     0.869     0.449  52.39   0
       158    854.9799    677.4871 300.2633995 +22.8367338     393.3807     72.43719      1.435     2.38     4.170726     20.45758     44.84948         6     0.748     0.500   1.35   0
       159    901.8909    668.0122 300.2811045 +22.8480676     990.1797     72.45567      1.367     2.68     4.162893     20.45758     137.5156        13     0.941     0.878  29.65   0
       160    567.0156    669.5513 300.1762705 +22.7481451     195.1875     72.54803      1.243     3.77      4.53609     20.45758     32.17767         6     0.825     0.493  -5.37   0
       161    768.5138    666.3475 300.2400724 +22.8076238     532.1135     72.54803      1.321     2.74     3.929838     20.45758     62.04302        11     0.891     0.785 -14.06   0
       162     65.4650    666.3337 300.0213396 +22.5967776     330.7731     72.56649      1.257     2.77     4.190977     20.45758     44.33019         5     0.720     0.468 -71.59   0
       163    447.2236    662.6603 300.1412252 +22.7102484     386.3838     72.49263      1.248     2.02     4.229955     20.45758     64.06464         5     0.672     0.461 -12.59   0
       164    239.8211    661.4467 300.0771119 +22.6476921     407.6073     72.54803      1.463     3.57     3.940153     20.45758     48.39667         8     0.966     0.589  66.44   0
       165    842.0170    660.6987 300.2648164 +22.8280274     621.2416     72.41869      1.291     3.85     4.073366     20.45758     77.88456        11     1.029     0.769  75.15   0
       166    404.0079    655.0814 300.1302426 +22.6951135     707.0582     72.43719      1.353     2.94     4.207936     20.45758     100.5836        16     1.052     0.957 -20.19   0
       167    569.4160    651.5671 300.1828637 +22.7437021      397.967     72.49263      1.178     2.97     4.580103     20.45758     73.08108        12     1.018     0.761 -25.28   0
       168    448.1720    650.6126 300.1454363 +22.7070751     967.4628      72.5111      1.486     3.67     4.320719     20.45758     138.0728        13     1.243     0.719  43.79   0
       169    978.8881    650.4203 300.3108341 +22.8660799     2483.075     72.43719      0.975     3.44     3.980685     20.45758     711.1503         7     0.956     0.357  35.51   0
       170    881.8315    646.1794 300.2819477 +22.8357858     3313.397      72.5111      1.360     2.33     4.036344     20.45758     442.4565        28     1.121     1.050 -67.75   0
       171    413.6109    646.3179 300.1360787 +22.6954785     1706.827     72.47415      1.322     2.43     4.290263     20.45758     221.2934        18     1.043     0.884 -31.16   0
       172    979.7482    644.2553 300.3131064 +22.8645661     816.1213     72.54803      1.510     3.51     3.967906     20.45758     80.33402        13     0.981     0.939 -66.67   0
       173    779.0637    642.9916 300.2509520 +22.8040775     207.4285     72.49263      1.168     5.00     3.895406     20.45758     41.34365         8     1.023     0.691 -57.99   0
       174    763.4770    641.8993 300.2464500 +22.7990929     352.0067     72.65871      1.397     4.69     3.879119     20.45758     34.91987         6     0.945     0.662   8.24   0
       175    442.7721    636.9872 300.1481847 +22.7015454     365.2111      72.5111      1.451     3.98     4.414484     20.45758     46.32066         6     1.066     0.425  62.54   0
       176    921.5348    636.2480 300.2975549 +22.8448273     209.1223     72.54803      1.134     2.52      4.01457     20.45758     51.12092         7     0.794     0.626  14.37   0
       177    277.0043    633.1039 300.0978846 +22.6507152     9072.148     72.41869      1.351     2.37     4.029283     20.45758     1188.997        39     1.134     1.124  79.58   0
       178    399.4605    630.0924 300.1369498 +22.6865786     8900.913     72.58495      1.315     2.21     4.328413     20.45758     1206.171        41     1.155     1.104 -67.44   0
       179    165.1943    627.4839 300.0649536 +22.6155610     290.4816     72.43719      1.447     4.56     4.026983     20.45758     30.35269         6     0.966     0.611  66.63   0
       180   1003.9915    625.2817 300.3268354 +22.8663755       984.32     72.45567      1.503     3.08     3.914975     20.45758     103.0956        19     1.160     0.961  76.57   0
       181    804.4006    627.4882 300.2638871 +22.8072168     238.0128     72.41869      1.167     3.97     3.857218     20.45758     35.23677         5     0.941     0.495   4.83   0
       182    811.1238    623.8940 300.2671507 +22.8081989     1899.528     72.64027      1.354     2.16     3.849856     20.45758     281.1982        22     1.110     1.036  61.94   0
       183    895.7655    621.2712 300.2943881 +22.8328045     12167.51      72.5111      1.327     2.33     3.909067     20.45758     1473.823        48     1.199     1.157 -69.62   0
       184    460.0676    619.6702 300.1591948 +22.7017613     11576.19     72.54803      1.291     2.15     4.580263     20.45758     1718.659        48     1.168     1.131 -89.41   0
       185    187.6523    615.2114 300.0759219 +22.6187783     1251.219      72.5111      1.333     2.35     4.059047     20.45758     164.3539        16     1.000     0.867  29.25   0
       186    629.6479    615.2436 300.2134245 +22.7513290     531.7116     72.52957      1.327     3.02     4.293768     20.45758     68.81967         9     0.919     0.642  16.10   0
       187    345.4803    614.1743 300.1253315 +22.6658220     313.6509     72.49263      1.240     3.42     4.139806     20.45758     43.91975         5     0.944     0.365   6.92   0
       188    434.6169    612.4525 300.1536209 +22.6920583     287.0565     72.49263      1.320     4.91      4.57713     20.45758     44.70686         8     1.048     0.664  51.60   0
       189    391.6623    607.8549 300.1417508 +22.6778582     4331.162     72.58495      1.291     2.20      4.39466     20.45758     646.1236        30     1.121     1.028  68.04   0
       190    734.5363    607.7274 300.2485391 +22.7806059     817.9396     72.54803      1.310     2.26     3.870899     20.45758      114.461        11     0.852     0.759  17.81   0
       191    370.0031    606.3126 300.1355142 +22.6709203     1189.668     72.43719      1.328     2.69     4.257886     20.45758     153.0251        17     1.011     0.921 -82.48   0
       192    124.3228    605.6141 300.0593594 +22.5970255     778.3983     72.52957      1.517     3.50     4.127646     20.45758     70.10123        13     1.008     0.849 -51.61   0
       193    811.5278    603.1879 300.2740062 +22.8023721     1603.113     72.52957      1.364     2.59     3.786637     20.45758     181.4445        19     1.079     0.934 -66.46   0
       194    508.3394    595.3892 300.1821089 +22.7092643     197751.8     72.45567      1.267     2.15     4.787885     20.45758     24649.16       207     1.448     1.420  -9.02   0
       195     58.5248    603.2665 300.0396798 +22.5766094     241.9312     72.58495      1.012     2.40     4.429324     20.45758      46.6654         5     0.689     0.488 -77.37   0
       196    691.9297    600.4133 300.2376427 +22.7657371      713.064      72.5111      1.186     2.49     4.146806     20.45758     133.9427        10     0.873     0.722  88.57   0
       197    332.2256    601.5086 300.1253250 +22.6582123     342.7205     72.45567      1.304     2.41     4.137285     20.45758     50.29136         5     0.708     0.459  21.51   0
       198    785.3323    598.7876 300.2672724 +22.7932593     279.3181      72.5111      1.362     2.89     3.809016     20.45758     38.37994         6     0.711     0.633  36.39   0
       199    194.4065    595.4282 300.0844499 +22.6151294     3223.907      72.5111      1.302     2.51     4.075367     20.45758     405.2696        27     1.134     1.084  66.59   0
       200    760.1425    591.2772 300.2618636 +22.7835542     495.6306     72.54803      1.506     4.22     3.853954     20.45758     55.23159         7     0.766     0.662  49.18   0
       201    539.6210    581.8120 300.1962581 +22.7147442     229.5679     72.49263      1.226     2.73     4.842047     20.45758     38.75689         5     0.719     0.455  72.28   0
       202    398.9899    576.0811 300.1543554 +22.6709363     2804.386     72.45567      1.469     2.58     4.384526     20.45758     392.0289        30     1.569     0.939 -85.10   0
       203    243.6361    578.5130 300.1052498 +22.6250437     317.2069     72.49263      1.382     3.16     4.083157     20.45758     49.90729         5     0.724     0.480  14.85   0
       204    848.8255    575.4149 300.2946573 +22.8055679     116.7641     72.52957      1.068     4.15     3.786637     20.45758     35.92773         6     0.735     0.668  62.01   0
       205    810.1924    571.8541 300.2837727 +22.7929708     301.8366      72.5111      1.130     2.65     3.786637     20.45758     44.02917         6     0.723     0.567 -33.36   0
       206    629.6292    570.8443 300.2278471 +22.7385741      180.642     72.54803      1.044     3.44     4.367127     20.45758     31.20717         5     0.760     0.451  73.47   0
       207    796.0738    561.9897 300.2825778 +22.7859071     1778.151      72.5111      1.345     2.37     3.799254     20.45758     260.0793        21     1.275     0.951  48.56   0
       208    716.2457    564.1215 300.2570110 +22.7626007     414.1854     72.49263      1.221     2.49     4.064908     20.45758     69.09338         6     0.785     0.572  -5.94   0
       209    667.1796    559.4401 300.2432476 +22.7465527     2421.338     72.54803      1.241     2.15     4.328211     20.45758     363.8651        20     1.006     0.884 -73.14   0
       210    910.3660    552.3168 300.3213489 +22.8173658     1009.028     72.47415      2.295     2.76     3.869926     20.45758     73.08405        12     0.939     0.802   6.68   2
       211    571.7703    556.1661 300.2146001 +22.7170176     420.5625     72.52957      1.211     2.54       4.6179     20.45758     71.50952         8     0.880     0.575  79.06   0
       212    454.4206    555.5320 300.1782793 +22.6816575     666.3679      72.5111      1.280     2.79     4.562263     20.45758     94.78372        15     1.035     0.835  79.50   0
       213    876.8544    556.5287 300.3095320 +22.8085381     336.1858      72.5111      1.326     3.09     3.808847     20.45758      47.4966         6     0.778     0.486 -10.85   0
       214    924.4137    553.2746 300.3254179 +22.8218486     1458.058     72.52957      1.432     2.55     3.895838     20.45758     157.6394        19     1.044     0.960 -89.48   0
       215    796.1886    551.7130 300.2859528 +22.7829892      2153.55     72.45567      1.533     3.31     3.800774     20.45758      256.715        26     1.541     0.946  80.11   0
       216    549.5150    550.0323 300.2096643 +22.7085856     667.1961     72.47415      1.483     2.77      4.71461     20.45758     66.24951         8     0.782     0.680 -19.62   0
       217    335.7159    549.9631 300.1431591 +22.6444667     355.0577     72.49263      1.397     2.26     4.140541     20.45758     47.46581         7     0.688     0.657 -60.11   0
       218    387.7856    548.6829 300.1597717 +22.6597128     263.8889     72.47415      1.254     2.95     4.295297     20.45758     70.34489         9     0.879     0.764  35.02   0
       219    834.2966    546.8899 300.2993972 +22.7930200     4299.169     72.69556      1.297     2.17     3.786637     20.45758     637.3188        29     1.065     1.010  42.89   0
       220    475.6048    546.2767 300.1878788 +22.6853515     189.1209     72.41869      1.277     4.74     4.629637     20.45758     32.59794         5     1.029     0.619 -28.05   0
       221    494.7704    542.8524 300.1949563 +22.6901139     309.9923     72.52957      1.203     3.45     4.662959     20.45758     56.77286         6     0.892     0.579  29.09   0
       222    926.3118    537.2546 300.3312150 +22.8178135     830.1785     72.54803      1.468     3.09     3.890623     20.45758     93.59819        15     1.040     0.894   6.19   0
       223     66.3832    537.6330 300.0634454 +22.5601430      1035.75     72.49263      1.463     2.70     4.193401     20.45758       109.15        17     1.126     0.895  -6.06   0
       224    727.2606    531.2622 300.2711191 +22.7564628     243.8109     72.54803      1.125     2.36     4.090363     20.45758     50.62485         6     0.684     0.625 -60.48   0
       225     58.6982    527.4062 300.0643802 +22.5549039     566.5865      72.4002      1.709     4.90      4.26832     20.45758     45.86234        12     1.128     0.810  42.87   0
       226    922.8536    526.3246 300.3336878 +22.8136367     451.4503     72.52957      1.323     3.48     3.874457     20.45758     50.23182         7     0.754     0.648 -13.63   0
       227    666.5894    521.2626 300.2554677 +22.7354110     379.0208     72.43719      1.140     1.95     4.328391     20.45758     73.26812         5     0.682     0.441 -65.31   0
       228    555.3499    519.1599 300.2215108 +22.7014698     405.9754     72.52957      1.515     4.27     4.651608     20.45758     51.71835         9     0.925     0.886  45.85   0
       229    607.7369    517.4110 300.2383902 +22.7166683     781.0786     72.45567      1.164     2.48     4.444028     20.45758     106.6658        11     0.942     0.664  55.40   0
       230    795.9459    517.4994 300.2969930 +22.7730871     2096.377     72.60339      0.886     3.23     3.862822     20.45758     564.0808         6     0.833     0.363  36.95   3
       231    790.9475    514.6390 300.2963646 +22.7707679     2978.588     72.49263      1.111     4.46     3.888745     20.45758     930.0125        13     1.332     0.425  32.78   2
       232   1015.1631    515.1730 300.3661009 +22.8380756     926.5867     72.52957      1.286     2.11     3.965188     20.45758     150.6705        16     0.958     0.898 -66.70   0
       233    396.1733    515.3655 300.1732050 +22.6526642     201.1765     72.52957      1.233     2.84      4.36207     20.45758     45.18134         5     0.843     0.524 -52.84   0
       234    922.3776    509.7229 300.3389330 +22.8087231     542.2266     72.49263      1.274     2.67     3.857172     20.45758     75.57854         8     0.870     0.598 -73.94   0
       235    668.5784    509.7253 300.2598353 +22.7326931     879.9691      72.5111      1.341     2.37     4.315265     20.45758     117.4428        12     0.884     0.790  -4.58   0
       236    825.9017    505.6859 300.3101673 +22.7786666     972.5328     72.67714      1.250     2.50     3.843249     20.45758     131.6952        11     0.846     0.764  67.98   0
       237    810.0078    501.9388 300.3064307 +22.7728289     633.2607     72.49263      1.278     2.35     3.863206     20.45758     102.4973        10     0.839     0.723  73.55   0
       238    554.3089    500.2985 300.2273138 +22.6957416      3083.07     72.69556      1.190     2.06     4.636944     20.45758     465.9153        21     0.982     0.892 -69.43   0
       239    914.7399    498.9368 300.3400554 +22.8033359     500.2816     72.54803      1.375     3.18     3.842539     20.45758     60.73877         8     0.881     0.715 -51.25   0
       240     30.2214    491.9958 300.0670365 +22.5362033     195.0035     72.47415      1.341     2.21      4.58813     20.45758     45.12153         5     0.757     0.466 -32.70   0
       241    559.9046    488.0020 300.2330502 +22.6938874     202.1185     72.41869      1.020     2.31     4.605021     20.45758     49.07776         5     0.602     0.588   0.62   0
       242    326.1489    487.9886 300.1603160 +22.6238106     185.3462     72.52957      1.173     3.83      4.40093     20.45758     36.50557         5     0.829     0.506 -34.25   0
       243    394.5418    487.1158 300.1818738 +22.6440656     350.0651     72.62183      1.340     1.90     4.399657     20.45758     58.91046         5     0.674     0.450 -64.80   0
       244    941.1763    485.3055 300.3527272 +22.8073353     336.6732      72.4002      1.686     2.50     3.847306     20.45758      39.3266         5     0.807     0.634  40.91   0
       245    965.7067    479.1533 300.3623759 +22.8129128     1357.529     72.52957      1.324     3.17     3.874972     20.45758     162.6004        18     1.085     0.962  11.46   0
       246    837.6069    478.9454 300.3225022 +22.7744890      543.272      72.5111      1.173     2.91     3.868195     20.45758     78.25581        11     0.942     0.751  41.88   0
       247    924.1469    477.8916 300.3498251 +22.8001047     843.6575     72.56649      1.336     2.49      3.83215     20.45758     153.2609        16     1.027     0.846   8.32   0
       248    573.6627    476.1255 300.2411913 +22.6945999     406.4526     72.54803      1.382     2.26     4.543117     20.45758     46.31234         5     0.716     0.438 -71.60   0
       249    664.9688    474.1497 300.2702671 +22.7213928     1011.483     72.54803      1.265     2.03     4.300675     20.45758     189.8761        17     1.018     0.906 -12.10   0
       250    460.6433    474.9525 300.2063922 +22.6603891      374.811     72.54803      1.325     2.51     4.558119     20.45758     64.06055         8     0.783     0.674   8.76   0
       251    169.0353    472.6440 300.1164519 +22.5722915     650.2988     72.56649      1.413     4.13     4.286722     20.45758     68.26164        11     1.122     0.738  45.15   0
       252    231.2174    468.2558 300.1372060 +22.5896809     3733.674     72.49263      1.341     2.48     4.338745     20.45758      421.455        31     1.178     1.111 -81.45   0
       253    964.3430    466.4569 300.3660747 +22.8088550     4360.277     72.58495      1.319     2.24     3.887764     20.45758     542.0499        33     1.157     1.051  80.91   0
       254    178.4624    463.0494 300.1224980 +22.5723657     7469.895     72.56649      1.384     2.42      4.29473     20.45758     955.5455        37     1.180     1.098  50.13   0
       255    683.2344    463.3019 300.2794800 +22.7237494     270.4418     72.49263      1.011     2.61     4.280949     20.45758     42.88342         5     0.717     0.447  10.76   0
       256    556.8194    462.5583 300.2403539 +22.6856558     286.5923     72.52957      1.258     2.77     4.554089     20.45758     46.97224         5     0.716     0.469  17.59   0
       257    319.2746    457.2544 300.1681600 +22.6129276     4948.508     72.54803      1.302     2.22     4.391884     20.45758     666.3876        31     1.112     1.040 -76.00   0
       258    944.3173    457.5595 300.3627192 +22.8003010     1768.074     72.47415      1.314     2.37     3.875031     20.45758      233.646        17     0.955     0.910  10.55   0
       259    563.4313    453.8304 300.2452470 +22.6851307     18212.52      72.5111      1.258     2.10     4.516352     20.45758     2547.697        62     1.272     1.145  37.20   0
       260    580.9871    453.8285 300.2507137 +22.6903911     1000.616      72.5111      2.296     7.33     4.484971     20.45758     66.05341        19     1.709     0.881 -30.45   0
       261    410.7415    455.3715 300.1972241 +22.6398086     306.2033      72.5111      1.308     2.12     4.404366     20.45758     47.30411         5     0.687     0.455 -18.31   0
       262    807.3053    450.1930 300.3223964 +22.7571507     311.2817      72.4002      1.339     3.57     4.005958     20.45758      36.1795         5     0.947     0.389  -4.55   0
       263    420.7855    450.2699 300.2020060 +22.6413547     186.9224     72.52957      1.618     3.89     4.414886     20.45758     29.03109         5     0.932     0.466 -46.25   0
       264     83.4998    444.3074 300.0990748 +22.5385056     3090.919     72.67714      0.763     0.96     4.350187     20.45758     1008.733         9     0.530     0.510 -19.04   0
       265    760.2414    444.1235 300.3097007 +22.7413092     526.1504     72.47415      1.275     2.28     4.194761     20.45758      64.7689         6     0.733     0.531  37.07   0
       266    183.2249    441.0898 300.1311096 +22.5674924     394.6948     72.45567      1.435     3.81     4.300888     20.45758     50.68891         5     0.801     0.520 -33.02   0
       267    897.0460    436.2363 300.3549042 +22.7800165     774.7104     72.54803      1.295     2.75     3.887436     20.45758     114.8835        11     0.996     0.735 -54.13   0
       268    433.7646    435.0465 300.2109883 +22.6408742     436.4598     72.54803      1.598     5.46     4.424331     20.45758     55.93956         9     1.470     0.573  75.48   0
       269    118.0629    434.1262 300.1131200 +22.5459514     1922.485     72.54803      1.405     2.71     4.282094     20.45758     233.4499        23     1.103     1.022  36.11   0
       270    131.3234    429.6155 300.1187053 +22.5486342     325.5739      72.5111      1.751     4.13     4.284177     20.45758     27.17083         5     1.014     0.480  -5.04   0
       271    504.1049    423.3150 300.2366887 +22.6585877     6407.267     72.69556      1.232     2.06     4.433156     20.45758     964.0586        34     1.087     1.025  82.56   0
       272    917.8283    423.5279 300.3655115 +22.7825870     1232.359      72.5111      1.280     2.21     3.903232     20.45758     170.3154        13     0.859     0.795  75.04   0
       273    219.0065    422.6544 300.1482187 +22.5729318     648.8773      72.5111      1.281     2.33     4.324765     20.45758     106.8042        12     0.879     0.818  85.12   0
       274     76.3256    416.0405 300.1060245 +22.5282437     409.3738     72.49263      1.483     5.56     4.380991     20.45758     45.01919        10     1.006     0.866  24.02   0
       275    763.8812    414.9901 300.3202960 +22.7340283     333.5964     72.45567      1.574     3.79     4.221139     20.45758     42.00491         6     0.940     0.439  52.54   0
       276    618.0612    413.5503 300.2753385 +22.6899307     501.0689     72.56649      1.308     3.79     4.405132     20.45758     72.98653        11     1.120     0.696  57.53   0
       277    708.2633    412.3251 300.3038322 +22.7166024     1161.193     72.54803      1.224     2.06     4.281161     20.45758     151.0243        15     0.919     0.846 -83.93   0
       278    410.7256    409.5583 300.2120964 +22.6266500     6067.803     72.49263      1.261     2.20      4.37925     20.45758      910.103        32     1.072     1.031  39.70   0
       279    899.9161    404.0332 300.3662570 +22.7716197     640.1701     72.47415      1.265     2.44     3.959658     20.45758     106.9706        11     0.835     0.790  -4.35   0
       280    802.7485    403.7753 300.3360504 +22.7424469     1387.704     72.52957      1.243     2.19     4.156218     20.45758     210.2935        17     0.942     0.910  54.60   0
       281    395.4484    398.1635 300.2110432 +22.6187990     510.2025      72.5111      1.207     2.39     4.336937     20.45758     68.63605         8     0.770     0.658  -5.44   0
       282    477.8097    396.1436 300.2373274 +22.6429041      462.546     72.49263      1.276     3.37     4.383059     20.45758      56.1578         8     0.874     0.725  64.89   0
       283    775.6005    391.5305 300.3315658 +22.7307971     546.9423     72.45567      1.204     2.39     4.223453     20.45758     75.61922         9     0.878     0.643  83.51   0
       284    298.2274    388.8601 300.1838234 +22.5869842     2385.438     72.52957      1.292     2.42     4.284125     20.45758     314.0091        21     1.022     0.960 -65.97   0
       285     16.8139    386.4108 300.0971578 +22.5018921     924.7898     72.41869      1.435     2.83     4.645472     20.45758     129.0545        17     1.065     0.993 -74.90   0
       286    645.8440    383.4317 300.2937707 +22.6896020     267.6544     72.56649      1.175     1.97     4.319061     20.45758     43.90441         5     0.675     0.458 -22.27   0
       287    267.6038    378.3054 300.1777273 +22.5747733     29511.85     72.41869      1.324     2.29     4.326035     20.45758     3547.444        77     1.351     1.209  59.65   0
       288    802.2878    375.5194 300.3450815 +22.7341884     1289.567     72.64027      1.180     2.20     4.218486     20.45758     217.7958        15     1.019     0.842 -72.35   0
       289    757.4803    372.9278 300.3319592 +22.7200240      230.291     72.64027      1.099     3.31     4.263848     20.45758     53.25356         8     0.887     0.631  39.55   0
       290    717.4734    364.3397 300.3222822 +22.7055733     549.8829     72.54803      1.220     2.66     4.281161     20.45758     83.61005         9     0.875     0.683 -65.01   0
       291    141.6612    364.7860 300.1429663 +22.5331305     512.9289     72.47415      1.545     3.16     4.480416     20.45758     57.60019        10     0.961     0.732  55.15   0
       292    841.5557    364.3195 300.3609574 +22.7427287     396.8568     72.49263      1.947     3.92     4.229419     20.45758     39.46052         5     1.416     0.310 -30.33   0
       293    366.1101    363.5168 300.2131647 +22.6000570     399.2498     72.62183      1.190     2.67     4.254875     20.45758     69.20341         9     0.868     0.655  75.71   0
       294    678.0273    357.8994 300.3120845 +22.6919071     1969.111     72.45567      1.280     2.06     4.281161     20.45758     321.7871        19     0.972     0.900  87.67   0
       295    486.2544    352.4577 300.2541388 +22.6328881     288.7543     72.56649      1.015     2.21      4.33026     20.45758     54.68651         5     0.683     0.458  22.76   0
       296    893.3074    350.6805 300.3815194 +22.7543042     606.0899     72.65871      1.258     2.27      4.17803     20.45758     98.39713        10     0.788     0.768 -52.43   0
       297    339.7388    342.5823 300.2117576 +22.5861415     2072.826     72.45567      1.501     2.83     4.242387     20.45758     266.1715        23     1.362     0.852  50.31   0
       298    551.9103    341.1599 300.2782441 +22.6493158     357.9387      72.5111      1.103     3.34     4.363316     20.45758     54.65063         8     0.918     0.641  30.87   0
       299    778.8849    335.4369 300.3508008 +22.7156598     635.6204     72.49263      1.276     3.03     4.287654     20.45758     106.4063        11     0.940     0.842 -76.14   0
       300    661.0030    333.0493 300.3148488 +22.6796673     281.2364      72.5111      1.279     3.16      4.35966     20.45758     51.61108         8     0.835     0.643  50.58   0
       301    739.4832    326.2497 300.3415051 +22.7012193      301.226      72.5111      1.171     2.38     4.300576     20.45758     50.70019         5     0.695     0.484  75.65   0
       302    415.6618    321.9604 300.2420706 +22.6029746     1154.899      72.5111      1.276     2.01      4.25543     20.45758     173.9088        12     0.964     0.671  72.96   0
       303    222.8857    322.5011 300.1819388 +22.5453472     320.6119     72.67714      1.324     4.35     4.583802     20.45758     41.43185         7     0.911     0.592  80.52   0
       304    927.1734    317.8039 300.4027521 +22.7549914     355.6071     72.47415      1.161     2.60     4.206614     20.45758     52.39302         6     0.726     0.610  73.42   0
       305    660.5549    313.8369 300.3209456 +22.6740124     2106.037     72.54803      1.202     2.14     4.427612     20.45758      308.085        20     1.025     0.883  87.46   0
       306    821.5829    314.5841 300.3708774 +22.7224520     203.3737     72.47415      1.281     4.16     4.305534     20.45758     34.27163         5     0.970     0.509 -44.72   0
       307    798.5388    314.8210 300.3636181 +22.7156197     206.7662     72.47415      1.014     1.83      4.30332     20.45758     52.24866         5     0.680     0.473 -71.09   0
       308    921.8115    308.0462 300.4042473 +22.7505808     3073.805      72.5111      1.276     2.13      4.25999     20.45758     476.2061        23     1.007     0.967 -67.17   0
       309    982.9122    302.4377 300.4251236 +22.7672583     373.0062     72.49263      1.294     2.56     4.478884     20.45758     76.72936         8     0.835     0.608  88.10   0
       310    368.8724    297.6950 300.2353895 +22.5819837     745.4139     72.62183      1.439     2.97     4.241618     20.45758     82.47388        13     1.008     0.828  47.70   0
       311    991.1703    295.9943 300.4297909 +22.7678772     1640.387      72.5111      1.334     2.15     4.564253     20.45758     254.9675        19     1.066     0.913  61.73   0
       312     43.6325    292.1736 300.1360765 +22.4828953     1351.973      72.5111      1.739     3.49      5.01122     20.45758     124.2594        21     1.301     0.994 -35.91   0
       313     74.5827    291.9862 300.1457523 +22.4921226     526.9067     72.47415      1.207     2.72     4.985902     20.45758     83.43409         8     0.837     0.647   2.33   0
       314    937.8387    288.2108 300.4156835 +22.7496753     521.2182      72.5111      1.387     3.31     4.393011     20.45758     60.01491         9     0.895     0.750  85.14   0
       315    781.2495    285.2007 300.3678439 +22.7019285     379.6739     72.49263      1.260     3.21     4.368527     20.45758     42.43389         6     0.732     0.635  -8.46   0
       316    127.7625    284.0926 300.1648380 +22.5058028     513.8324      72.5111      1.406     3.88     4.986091     20.45758     55.16254        12     0.981     0.935 -43.22   0
       317    923.0047    280.6611 300.4135080 +22.7430639     317.7485     72.49263      1.282     3.09      4.38151     20.45758     61.36433         7     0.897     0.640 -25.80   0
       318    803.7111    277.2522 300.3774239 +22.7063693     360.8065     72.52957      1.351     4.09     4.446095     20.45758      44.0671         6     0.743     0.643  10.50   0
       319    731.8449    275.0635 300.3557389 +22.6842205     627.4951     72.52957      1.179     2.03      4.47999     20.45758     100.6889         7     0.679     0.634  70.76   0
       320    322.4320    274.7690 300.2283844 +22.5614817     450.5298      72.5111      1.295     2.66     4.336802     20.45758     56.19799         8     0.861     0.615 -72.02   0
       321    822.5997    267.9014 300.3863460 +22.7093366     275.1389      72.3817      1.211     3.62     4.491397     20.45758     48.96776         7     0.844     0.634  10.64   0
       322    830.2814    264.2988 300.3899096 +22.7106008     2116.813     72.64027      1.287     2.18     4.503512     20.45758     323.4428        20     0.975     0.944  62.61   0
       323    248.8444    261.8039 300.2097080 +22.5357028     2090.911     72.52957      1.343     2.42     4.731345     20.45758     276.0098        24     1.090     1.049 -74.61   0
       324    326.6120    256.7148 300.2355432 +22.5575498      1066.32     72.45567      1.455     2.87     4.413111     20.45758     116.6945        20     1.111     0.989 -14.08   0
       325    728.6635    255.8120 300.3609953 +22.6777344     488.3979     72.47415      1.179     2.46     4.667787     20.45758     83.27431        10     0.870     0.698   3.39   0
       326    835.9623    252.5822 300.3954827 +22.7089331     375.5351      72.5111      1.203     2.78     4.557321     20.45758     58.13415         8     0.844     0.645 -48.56   0
       327    143.5069    249.0325 300.1811078 +22.5004591     647.1406     72.45567      1.339     3.37     5.008487     20.45758     77.01274        11     0.895     0.865  17.19   0
       328    681.3242    245.6237 300.3495533 +22.6606297     1651.287     72.54803      1.232     2.28     4.750491     20.45758     231.8165        17     0.992     0.853  63.88   0
       329    746.1595    245.0625 300.3699351 +22.6798836      518.968     72.49263      1.266     3.36     4.775963     20.45758     82.48211         9     1.084     0.551  49.00   0
       330    164.8192    242.0400 300.1900004 +22.5048409      466.755     72.52957      1.288     2.59     5.015916     20.45758     88.53019        12     0.948     0.802  83.52   0
       331    952.7484    237.9596 300.4366415 +22.7396877     871.2723     72.52957      1.359     2.44     4.622566     20.45758     131.0548        11     0.923     0.731  41.94   0
       332    454.6763    237.6866 300.2815604 +22.5904589      389.178     72.64027      1.427     3.82     4.434078     20.45758     43.78658         6     0.894     0.467  88.19   0
       333    685.3811    237.0098 300.3536122 +22.6593689     735.9376     72.47415      1.289     2.19     4.807852     20.45758     117.1893        11     0.868     0.715 -18.55   0
       334    605.9219    236.3594 300.3290747 +22.6353847     1215.764     72.49263      1.222     1.99     4.712911     20.45758     188.5516        15     0.913     0.840  44.86   0
       335    427.0974    232.5350 300.2746498 +22.5807160     414.4501     72.62183      1.414     2.88     4.624408     20.45758     43.88322         6     0.768     0.491   8.32   0
       336    801.4424    227.7955 300.3927662 +22.6914722     1531.103     72.52957      1.376     2.28     4.949124     20.45758     189.0636        18     1.018     0.957  80.44   0
       337    532.0363    228.3344 300.3086737 +22.6109475     1010.488      72.5111      1.305     2.39     4.644643     20.45758      144.071        14     1.015     0.829 -13.33   0
       338    813.3054    226.9241 300.3967464 +22.6947733     762.7658     72.65871      1.192     2.56     4.878323     20.45758     116.6842        11     0.926     0.717  83.14   0
       339    859.7574    225.9662 300.4115373 +22.7084041     347.1829     72.56649      1.396     2.49     4.564887     20.45758     50.63808         7     0.691     0.680  38.97   0
       340    985.0287    223.9708 300.4512490 +22.7453256     308.1644     72.47415      1.681     3.67     4.704832     20.45758     27.91833         5     1.009     0.384  31.65   0
       341    974.2992    217.7406 300.4499238 +22.7403226     1593.106     72.60339      1.288     2.12     4.730206     20.45758      257.485        19     1.021     0.899  39.95   0
       342    930.0788    217.0843 300.4363454 +22.7268992     1096.641     72.62183      1.289     2.02     4.695287     20.45758     178.4838        12     0.888     0.760  66.63   0
       343    164.2586    210.4004 300.2000913 +22.4955892     809.2708     72.47415      1.441     2.85      5.02248     20.45758     94.24237        14     1.048     0.782  60.59   0
       344     25.9780    205.3232 300.1587723 +22.4526754     2157.738     72.49263      1.474     2.78     5.044932     20.45758     223.1855        24     1.194     1.012  25.67   0
       345    849.2756    202.1700 300.4159906 +22.6984240     646.0131      72.5111      1.247     2.47     4.765458     20.45758     100.8432        11     0.854     0.783  12.64   0
       346    183.4569    198.6102 300.2098835 +22.4979588     5581.473     72.47415      1.414     2.54      4.99964     20.45758     625.5768        35     1.214     1.085  50.53   0
       347    165.5330    199.2311 300.2041109 +22.4927644     419.8137      72.5111      1.321     3.31     5.012014     20.45758     47.32447         5     0.762     0.417 -64.63   0
       348    166.7848    189.3201 300.2077151 +22.4902940     717.8989     72.52957      1.548     3.67     5.003215     20.45758     71.42801        12     1.124     0.752  38.59   0
       349    982.3311    185.7898 300.4627956 +22.7335365     18061.86     72.49263      1.362     2.31     4.930471     20.45758     2612.623        57     1.294     1.144  84.52   0
       350    827.4914    179.9401 300.4164119 +22.6855110     3627.877     72.58495      1.319     2.18     4.925908     20.45758      473.076        29     1.071     1.061  77.15   0
       351    931.2055    178.6392 300.4491700 +22.7161797     2636.586     72.52957      1.266     2.13     4.957315     20.45758     425.6882        19     0.988     0.901  86.62   0
       352    377.1365    175.2191 300.2777000 +22.5492824     542.3505     72.49263      1.294     3.53     4.751132     20.45758     93.70812        13     1.158     0.755 -84.78   0
       353    129.6931    175.9497 300.2005245 +22.4753369     357.5621     72.58495      1.480     5.54     4.990352     20.45758     33.46715        10     1.253     0.692 -48.31   0
       354    301.1862    167.1532 300.2566920 +22.5242083      684.049      72.5111      1.272     3.02     4.999272     20.45758     65.98769         8     0.761     0.705 -46.35   0
       355    304.6787    165.6385 300.2582695 +22.5248198     451.8649     72.49263      1.424     2.24     4.977516     20.45758     52.65316         5     0.707     0.438  73.02   0
       356     67.0763    164.0809 300.1849178 +22.4531586     743.8806     72.62183      1.662     3.46     5.009576     20.45758     83.20419        11     1.008     0.784 -56.02   0
       357    490.0527    162.0733 300.3171013 +22.5793324     517.4745     72.52957      1.533     4.09     4.918207     20.45758     62.99514        12     1.164     0.837 -86.50   0
       358    428.3193    162.5765 300.2977258 +22.5609844     1519.736     72.47415      1.253     2.48     4.989533     20.45758      216.069        18     0.990     0.926  75.31   0
       359    356.4746    163.1245 300.2751955 +22.5396175     649.5438     72.60339      1.661     2.47     4.726151     20.45758     67.41827        10     0.885     0.715 -23.79   0
       360    171.8762    158.1572 300.2194060 +22.4828722     419.6784     72.49263      1.242     3.81     4.976284     20.45758     62.17428         9     1.042     0.671  17.70   0
       361    716.7352    151.9229 300.3909848 +22.6442986     377.4466     72.60339      1.481     2.28     4.969238     20.45758     59.35549         7     0.738     0.624 -88.70   0
       362    301.4912    147.5587 300.2631425 +22.5186717     251.1684      72.5111      1.499     4.16     5.023414     20.45758     32.41728         5     0.997     0.496   0.97   0
       363    862.8709    146.1867 300.4383903 +22.6863945     305.9418      72.5111      1.185     2.77     4.984472     20.45758     43.50789         8     0.819     0.637  43.57   0
       364    988.3674    144.8780 300.4779502 +22.7235744     369.7479     72.49263      1.351     4.31     4.994889     20.45758     43.60582         5     1.108     0.477 -85.87   2
       365    992.8615    143.1593 300.4799096 +22.7244247     3512.753     72.49263      1.339     2.39     4.975918     20.45758     426.3922        27     1.113     1.047  85.58   2
       366    202.4082    142.5167 300.2339696 +22.4875316     5917.814     72.45567      1.421     2.47     4.956439     20.45758     632.3494        38     1.255     1.106  72.24   0
       367    708.8849    142.9584 300.3914468 +22.6393710     167.8307     72.47415      1.314     2.33      4.96827     20.45758     53.08698         5     0.633     0.548  -2.73   0
       368     53.3227    141.8562 300.1878532 +22.4426553      754.114     72.54803      1.402     3.55     4.954853     20.45758     85.27581        12     1.059     0.801  11.42   0
       369    831.6918    139.9729 300.4306861 +22.6752754     359.7441     72.45567      1.205     4.83      4.97341     20.45758     45.44865         9     1.108     0.596 -78.35   0
       370    173.9468    136.1768 300.2271786 +22.4771811     289.1906     72.52957      1.459     3.54     4.964969     20.45758     33.29073         6     0.897     0.471  35.91   0
       371    218.3845    133.5413 300.2418472 +22.4897419     525.6784     72.49263      1.643     4.59     4.948977     20.45758     44.61688         6     0.970     0.626  69.96   0
       372    448.4241    127.7492 300.3152783 +22.5570003     6108.307     72.52957      1.300     2.29     5.021897     20.45758     780.2151        36     1.166     1.047  62.06   0
       373    333.8248    127.5385 300.2796922 +22.5226088     576.1872      72.5111      1.202     2.16     4.940045     20.45758     98.53654        10     0.848     0.681 -89.30   0
       374    505.4182    122.2152 300.3348120 +22.5724810     288.3021     72.49263      1.079     2.62     4.991433     20.45758     50.91067         5     0.708     0.461  70.86   0
       375    699.9443    120.8922 300.3958183 +22.6303504     221.0574     72.56649      1.122     3.33     4.976095     20.45758     39.77493         5     0.643     0.585 -85.18   0
       376    642.4500    118.6567 300.3786337 +22.6124938     392.5991     72.56649      1.469     3.68     5.002545     20.45758     42.19977         6     0.944     0.413 -70.92   0
       377    701.0998    117.2963 300.3973445 +22.6296625     658.8455     72.71398      1.290     2.43     4.976197     20.45758      106.548        10     0.866     0.737  38.28   0
       378    793.7292    116.1629 300.4265760 +22.6570654     480.4222     72.49263      1.509     3.43     4.938433     20.45758     66.15078         8     0.957     0.585  57.10   0
       379     12.6465    114.6966 300.1840255 +22.4226644     306.4348     72.52957      1.708     4.02      4.83131     20.45758     37.67234         5     0.986     0.468  83.59   0
       380    141.5276    111.8686 300.2249858 +22.4604845     466.1235     72.58495      1.346     4.74     4.934889     20.45758     56.62533         8     0.966     0.659  -8.70   0
       381    576.7855    107.7716 300.3617147 +22.5897027     6142.529     72.52957      1.290     2.18     5.015256     20.45758     926.1938        35     1.154     1.043  78.46   0
       382    499.6230    110.0601 300.3369501 +22.5672522     492.1281     72.49263      1.278     3.48     5.008446     20.45758     66.08085         8     0.926     0.769 -35.43   0
       383    351.6655    106.6917 300.2920024 +22.5219649     1481.912     72.64027      1.364     2.63     4.982304     20.45758     181.9269        17     1.053     0.897  80.45   0
       384    617.9902    105.1447 300.3753979 +22.6012858      1008.55      72.5111      1.382     2.14     5.018723     20.45758     139.2774        15     1.019     0.789  45.05   0
       385    633.8485    101.3341 300.3815726 +22.6049387     647.1311     72.52957      1.280     3.18     5.023345     20.45758     84.40572        10     0.999     0.663  78.38   0
       386    100.6065     99.3618 300.2163248 +22.4446283     603.2552     72.54803      1.232     2.64     4.864874     20.45758     79.21661        11     0.932     0.736  74.12   0
       387    903.8112     98.7505 300.4665403 +22.6850035     579.4295     72.52957      1.381     2.57     5.050117     20.45758     70.53588         8     0.765     0.670 -21.43   0
       388    943.0537     97.8316 300.4790759 +22.6964818     268.0632     72.52957      1.055     2.49     5.000544     20.45758     49.03554         6     0.732     0.553 -49.74   0
       389    672.4270     96.3980 300.3951897 +22.6150700     369.2081     72.45567      1.053     2.26     5.027967     20.45758     66.40459         5     0.656     0.479  73.95   0
       390    620.9978     92.5927 300.3804051 +22.5985781     2710.719     72.32617      1.383     2.31     5.027967     20.45758     401.5976        25     1.141     0.959  84.49   0
       391    261.8099     93.5523 300.2683172 +22.4912691     370.0514     72.52957      1.323     3.42      5.01961     20.45758     45.76608         7     0.838     0.618  71.13   0
       392    635.9593     91.1761 300.3855242 +22.6026505     925.4919     72.54803      1.763     4.45     5.027967     20.45758     84.67945        18     1.449     0.880  40.59   0
       393    707.4199     84.1783 300.4100537 +22.6220325     1478.784      72.5111      1.307     2.31     4.961385     20.45758     186.3548        19     1.031     0.899  71.05   0
       394    867.5944     82.4308 300.4605405 +22.6694714     346.1078      72.5111      1.428     3.97     5.005483     20.45758     49.78975         6     0.992     0.455  35.04   0
       395    645.4440     77.2669 300.3929887 +22.6014915     754.2496     72.49263      1.294     2.60     5.027967     20.45758     97.79599        14     0.981     0.802  84.78   0
       396    451.1427     76.7369 300.3326671 +22.5431559     1001.245     72.56649      1.323     2.71     5.071905     20.45758     139.2523        16     1.128     0.817  72.20   0
       397     23.9944     76.7192 300.1998648 +22.4151633     519.2034     72.43719      1.560     3.14     4.742838     20.45758     49.66399         8     0.905     0.624 -59.87   0
       398    354.9931     74.8119 300.3033751 +22.5138027     776.9109      72.3817      1.279     2.81     5.030863     20.45758      105.917        15     0.987     0.932  54.04   0
       399    997.9027     71.6216 300.5046833 +22.7053519      2465.65     72.43719      1.406     2.40     4.529183     20.45758      308.274        25     1.206     0.985  63.77   0
       400    737.1337     73.4628 300.4227865 +22.6278460     287.4829     72.56649      1.089     1.69     4.887082     20.45758     72.30664         5     0.663     0.450 -26.24   0
       401    126.3313     64.9970 300.2354614 +22.4424703     3834.875     72.49263      1.502     2.68     4.896616     20.45758     396.5104        34     1.382     1.110  60.18   0
       402    694.4995     65.1642 300.4121940 +22.6126976     568.3276     72.49263      1.222     2.81     4.978028     20.45758     79.86975        10     0.886     0.708 -64.52   0
       403    548.7918     61.7190 300.3679322 +22.5680829     257.3429     72.45567      1.246     2.53     5.027967     20.45758     49.47533         6     0.703     0.634 -85.88   0
       404    451.9473     62.4162 300.3375609 +22.5392815     420.5327      72.5111      1.480     2.29     5.074673     20.45758     48.98018         6     0.752     0.489   6.51   0
       405    687.5571     57.4396 300.4125359 +22.6083983     1020.007     72.60339      1.407     2.78     4.989645     20.45758     111.8502        13     0.942     0.839 -82.82   0
       406    242.2695     57.3630 300.2739755 +22.4750190     1147.301     72.49263      1.391     2.58     4.965429     20.45758     134.9904        14     0.912     0.863 -71.20   0
       407    653.5855     56.7114 300.4021897 +22.5980191     336.7302     72.45567      1.299     4.17     5.027967     20.45758     41.91563         6     0.718     0.691 -32.69   0
       408    725.6060     51.9287 300.4261770 +22.6182031     720.0076     72.47415      1.538     4.00     4.886708     20.45758     73.03448        13     1.113     0.870  73.60   0
       409    648.8004     51.8443 300.4022773 +22.5951872     608.4031      72.5111      1.576     2.94     5.027967     20.45758     76.18616        11     0.895     0.838 -78.55   0
       410    745.4660     48.6374 300.4334324 +22.6232011     2262.658     72.49263      1.332     2.27     4.853148     20.45758     282.4355        21     1.067     0.946  64.37   0
       411    451.1720     46.8780 300.3423575 +22.5345838     496.3429     72.52957      1.446     3.69     5.080668     20.45758     62.41409        10     1.113     0.612  45.41   0
       412    128.6592     43.7846 300.2430620 +22.4370761     1073.184     72.47415      1.511     2.84     4.900676     20.45758     143.6202        17     1.256     0.931  44.70   0
       413    920.4510     41.9121 300.4901599 +22.6736319     758.8448     72.54803      1.355     2.73     5.012137     20.45758     108.3161        12     1.037     0.674  58.56   0
       414    693.8109     40.8587 300.4198601 +22.6055026     884.6442     72.45567      1.338     2.55     4.966893     20.45758     129.0837        12     0.936     0.797  89.14   0
       415    400.6318     39.1188 300.3291463 +22.5172172     309.3724      72.5111      1.201     4.22     5.116075     20.45758      35.7857         6     0.765     0.664  38.81   0
       416    307.3818     33.7788 300.3018695 +22.4877508     319.4792      72.5111      1.362     3.96       4.9979     20.45758     38.00026         6     1.077     0.418  75.51   0
       417    451.7702     33.2594 300.3469589 +22.5308490     396.1505     72.52957      1.401     3.92     5.082862     20.45758     44.47687         6     0.771     0.571 -56.44   0
       418    278.4940     30.6193 300.2939098 +22.4781891     495.2285     72.43719      1.564     5.49     4.975617     20.45758     55.31888        12     1.257     0.861   5.84   0
       419    546.1509     26.0978 300.3786589 +22.5570527     795.6465     72.56649      1.314     2.86     5.027967     20.45758     118.2533        13     1.097     0.707 -89.79   0
       420    778.6390     25.2322 300.4513583 +22.6263984      261.555     72.54803      1.220     2.40     4.819213     20.45758     40.01233         5     0.699     0.459 -74.61   0
       421    681.7501     23.7502 300.4216495 +22.5969728      421.614     72.54803      1.543     3.11     4.998413     20.45758     47.83071         5     0.806     0.481  44.99   0
       422    155.8625     23.3974 300.2581257 +22.4393726     442.4204      72.5111      1.316     2.33     4.938567     20.45758     69.54877         9     0.850     0.643  76.41   0
       423    340.5397     21.7454 300.3160839 +22.4942258     265.0311     72.56649      1.217     2.33     5.016793     20.45758     45.78086         5     0.680     0.484  75.49   0
       424    709.3577     20.7662 300.4312178 +22.6043784     641.9544     72.56649      1.238     2.41     4.907362     20.45758     94.86026        10     0.858     0.716  46.27   0
       425    518.0748     19.0502 300.3722030 +22.5466201     1882.316      72.5111      1.366     2.15     5.027935     20.45758     272.6465        21     1.025     0.947  64.44   0
       426     33.8655    996.8550 299.9040213 +22.6820275     2103.826     72.56649      5.522    22.12     54.75771     20.45758     51.40998       112     5.473     2.484 -28.89  19
       427    607.3581   1014.9067 300.0764852 +22.8593465     6729.162     72.52957      1.698     3.38     2.569499     20.45758     497.4435        45     1.424     1.307   5.14  16
       428    117.9026   1016.0974 299.9238630 +22.7127784     1032.279     72.71398      5.619     5.02     30.87246     20.45758     35.87877         5     1.528     0.466 -63.45  19
       429    121.1280   1011.8583 299.9262449 +22.7125323     1398.624     72.54803      9.962    12.46     28.98976     20.45758      41.7075        20     2.277     1.898  -1.92  27
       430    198.4724   1008.8997 299.9512427 +22.7349083     816.3582     72.67714      3.527     4.65     10.82885     20.45758     58.65634        16     1.206     1.036  47.35   0
       431    759.6086   1007.8976 300.1261883 +22.9030035     550.6826      72.3817      2.391     5.97     2.687222     20.45758     35.58746         8     1.377     0.728  36.31   0
       432    487.2227   1009.1245 300.0409714 +22.8216431     400.2993     72.54803      1.639     4.86     3.206105     20.45758     40.53237         8     1.020     0.656  79.34   0
       433    515.8667   1005.5455 300.0510511 +22.8292117     1508.432     72.56649      1.630     3.43     3.036879     20.45758     115.4826        21     1.190     1.034 -29.84   0
