#   1 NUMBER                 Running object number                                     
#   2 X_IMAGE                Object position along x                                    [pixel]
#   3 Y_IMAGE                Object position along y                                    [pixel]
#   4 ALPHA_J2000            Right ascension of barycenter (J2000)                      [deg]
#   5 DELTA_J2000            Declination of barycenter (J2000)                          [deg]
#   6 FLUX_APER              Flux vector within fixed circular aperture(s)              [count]
#   7 FLUXERR_APER           RMS error vector for aperture flux(es)                     [count]
#   8 FLUX_RADIUS            Fraction-of-light radii                                    [pixel]
#   9 FWHM_IMAGE             FWHM assuming a gaussian core                              [pixel]
#  10 BACKGROUND             Background at centroid position                            [count]
#  11 THRESHOLD              Detection threshold above background                       [count]
#  12 FLUX_MAX               Peak flux above background                                 [count]
#  13 ISOAREA_IMAGE          Isophotal area above Analysis threshold                    [pixel**2]
#  14 A_IMAGE                Profile RMS along major axis                               [pixel]
#  15 B_IMAGE                Profile RMS along minor axis                               [pixel]
#  16 THETA_IMAGE            Position angle (CCW/x)                                     [deg]
#  17 FLAGS                  Extraction flags                                          
         1    516.4634     16.1311 300.3326552 +22.5430683     1084.443     72.40922      1.532     3.52     5.578503     20.41325     125.4075        19     1.253     0.941 -74.76   8
         2    420.3449     14.3415 300.3033045 +22.5137916     776.9626     72.40922      1.461     3.07     5.426486     20.41325      86.8181        13     1.013     0.872 -77.13   0
         3    802.3724     12.8251 300.4228301 +22.6276380     393.4143     72.33552      1.405     3.52     5.960061     20.41325     52.01308         8     0.903     0.647  80.33   0
         4    716.1728     11.2422 300.3964672 +22.6014038     325.5951     72.37238      1.578     4.38     5.851152     20.41325     31.47737         5     0.763     0.716 -47.31   0
         5    760.0385      5.4064 300.4120334 +22.6128432     670.6581      72.3908      1.495     2.74     5.925514     20.41325      67.4149         9     0.836     0.696 -63.60  16
         6    191.7191      4.1542 300.2354627 +22.4424287      3940.09     69.38103      1.708     3.23     5.077973     20.41325     399.9278        38     1.388     1.337  83.96  24
         7     89.0910     16.3267 300.1996069 +22.4151976     671.7814     72.51963      1.671     3.95     5.300601     20.41325     77.40639         9     0.942     0.810  78.22   0
         8    614.0774      1.4297 300.3678275 +22.5680426     318.0557     56.92332      1.438     3.93     5.839292     20.41325     41.20286         6     1.052     0.420 -15.74  24
         9    191.7642    998.0579 299.9128117 +22.7278082     2673.518     72.35395      5.705    25.91     79.05908     20.41325     62.04578       117     4.990     3.736  73.45  19
        10    269.4812   1015.3416 299.9313595 +22.7560803     2876.056     72.40922      7.572    33.59     33.95384     20.41325     63.59743       240     7.382     4.242  84.67  27
        11    220.5711    986.4605 299.9255427 +22.7331242     4245.774     72.37238      8.939    39.60     64.83049     20.41325     86.64143       435     8.892     4.895 -88.51  19
        12    239.8717    985.0315 299.9320103 +22.7385043     6080.679     72.35395     10.531    41.84     50.13661     20.41325     105.9018       591     9.339     6.146 -82.83  19
        13    258.9416    974.9271 299.9412286 +22.7413264     9186.207      72.3908     14.953    43.80     28.84328     20.41325     182.8248      1185    14.155     6.434  72.08  19
        14    168.9734   1007.7014 299.9025879 +22.7237359     792.4571     72.29865      2.159     6.44     89.49289     20.41325      37.0321         9     1.506     0.773 -32.87   2
        15    946.6182    971.2355 300.1566558 +22.9464008     593.5923     72.35395      1.795     7.38     3.613562     20.41325     41.57486        14     1.449     1.051  28.09   0
        16    164.6824    955.2833 299.9183049 +22.7074157     1384.551     72.48284      6.189    11.93     47.74163     20.41325      41.7644        29     3.083     1.285  27.16   2
        17     95.6815    918.5082 299.9088145 +22.6761676     4591.896     72.50124     18.337    53.67     9.622277     20.41325     428.7335       954    12.134     6.587 -36.72   3
        18    672.1033    954.5225 300.0764975 +22.8593501     6813.537     72.48284      1.975     4.25     3.869813     20.41325     412.8678        50     1.551     1.485 -32.35   0
        19    108.3899   1011.6528 299.8824680 +22.7066905     4002.611     72.35395     14.673    89.87      89.5966     20.41325     145.1414      1817    20.099    11.150  47.69  27
        20    653.6921    987.5922 300.0600025 +22.8633263       8332.9     72.26175      1.950     4.88     3.777669     20.41325     492.8145        45     1.509     1.469  55.21   3
        21    551.2928    949.2879 300.0405634 +22.8216360      321.185     72.51963      1.699     5.87      3.66759     20.41325     32.34294         6     1.375     0.706 -10.91   0
        22    824.8837    947.2447 300.1264901 +22.9030412     360.5142     72.31709      2.014     4.61     3.928357     20.41325     32.28276         5     1.404     0.429   0.91   0
        23    580.5801    945.1859 300.0510199 +22.8292377     1662.177     72.31709      1.954     4.42     3.729289     20.41325       117.07        31     1.472     1.342   2.41   0
        24    474.1045    941.4656 300.0190713 +22.7962504     1116.669     72.48284      1.896     5.38     3.828999     20.41325      71.4437        21     1.361     1.116  -7.25   0
        25    404.9334    939.5802 299.9981515 +22.7749695     6751.525     72.31709      1.912     4.20     4.147856     20.41325     506.3282        46     1.519     1.426  16.00   0
        26    659.1831    985.1965 300.0624929 +22.8642844     9589.583      72.2802      2.038     4.62     3.785103     20.41325     557.0196        50     1.540     1.522   7.04   3
        27      7.5517   1008.0297 299.8523091 +22.6753898     2844.165     72.37238     14.099    49.21    -23.49146     20.41325     71.34754       671    12.379     5.428  87.73  26
        28    753.8454    988.6473 300.0908730 +22.8936455     669.0154     72.37238      2.048     6.84     3.631241     20.41325     39.53666        13     1.332     0.984 -58.81   0
        29     98.2092    950.5840 299.8991683 +22.6861245     5657.457      72.2802     23.733    99.84     31.47745     20.41325     1305.236      3282    18.663    14.819 -19.02  19
        30    437.7947    926.9374 300.0124925 +22.7811944     507.6393     72.33552      1.620     5.48     4.056919     20.41325     48.83087         8     1.377     0.614 -15.43   0
        31    183.8182    968.1450 299.9200714 +22.7168453     966.0128     72.33552      4.441    10.35     54.65361     20.41325      50.1402        24     2.549     1.171  49.14   3
        32    951.3392    918.6412 300.1752374 +22.9327047     2269.939     72.33552      2.121     5.25     4.058713     20.41325     101.2114        36     1.585     1.425   3.74   0
        33    187.8862    977.7448 299.9182137 +22.7208190     1783.868     72.40922      4.444    14.16     62.44957     20.41325      52.4198        51     3.030     1.841  82.17   3
        34    449.8879    914.8379 300.0201923 +22.7813476      413.534     72.33552      1.769     5.28     4.085959     20.41325     32.79994         6     1.183     0.665   0.39   0
        35    740.4302    907.7288 300.1130128 +22.8663883     814.5326     72.35395      2.207     7.32     4.157935     20.41325     49.86823        16     1.368     1.098  54.13   0
        36    552.5212    902.3032 300.0562274 +22.8085167     479.2309     72.46445      1.754     5.31     3.900783     20.41325     45.43952        10     1.143     0.883  21.86   0
        37    775.0389    901.5939 300.1257969 +22.8749957     1103.399      72.3908      1.829     5.26     4.202576     20.41325     67.68301        17     1.198     1.028  22.58   0
        38    797.2493    895.3344 300.1347574 +22.8798519     11589.66     72.35395      1.866     4.20     4.267751     20.41325     772.5966        52     1.488     1.421  15.43   0
        39    142.1198    898.6570 299.9297058 +22.6844059     679.2494      72.3908      3.113     3.37     15.59474     20.41325     32.53262         5     0.767     0.428 -18.77   0
        40    988.1311    895.4738 300.1942526 +22.9370665     487.3028     72.42764      1.836     5.06     4.232952     20.41325     41.11621         5     1.263     0.573 -51.08   0
        41    193.3876    991.9333 299.9153089 +22.7265387     1616.958     72.33552      5.319    10.09     73.77191     20.41325     67.32907        30     2.387     1.308 -27.38   3
        42    108.4378    887.0074 299.9230231 +22.6709603     1089.438     72.37238      3.889     4.36     8.487325     20.41325     67.47554        15     1.274     0.894  -0.78   0
        43    849.5991    883.3111 300.1549917 +22.8920805     361.0085      72.2802      1.839     6.81     4.416403     20.41325     33.82174        10     1.230     1.057 -17.70   0
        44    502.2514    883.4850 300.0466919 +22.7880462      567.628     72.35395      1.702     5.12     4.035189     20.41325     39.57648         8     1.342     0.552 -28.32   0
        45     79.5718    880.1212 299.9162897 +22.6603255     609.4602     72.37238      3.798     4.71     6.104298     20.41325     35.53741         6     1.077     0.584 -28.32   0
        46    805.8796    877.4429 300.1432667 +22.8772982     1399.776     72.33552      1.842     4.57      4.42728     20.41325      97.4147        25     1.354     1.231  87.23   0
        47     98.5683    878.1062 299.9228495 +22.6654465     671.8365      72.2802      4.951     7.25      6.60097     20.41325     50.36578         8     1.386     1.063  75.13   0
        48    989.0539    877.5427 300.2003720 +22.9321902     325.3334     72.40922      1.619     4.24      4.37684     20.41325     37.92659         6     1.436     0.357 -14.48   0
        49      2.8702    974.8514 299.8616472 +22.6644733     1700.557      64.3351     10.035    16.49    -15.97916     20.41325     53.61777        70     4.520     1.672  87.54  27
        50    658.2733    874.4092 300.0982436 +22.8322018     627.3221     72.35395      2.181     7.59     4.021533     20.41325     41.44848        16     1.518     1.062  26.33   0
        51    843.9769    871.0749 300.1572175 +22.8868812     828.2496      72.3908      1.889     6.71     4.488385     20.41325     57.47326        13     1.474     0.858 -21.28   0
        52    952.5771    867.9869 300.1920976 +22.9185207     444.2348     72.33552      1.847     5.51     4.531441     20.41325      31.8646         7     1.170     0.731  16.19   0
        53    892.1199    862.4920 300.1750239 +22.8988354     437.0467     72.46445      1.738     6.50     4.565888     20.41325     44.57946        14     1.272     1.075  60.67   0
        54    743.9609    861.5128 300.1291428 +22.8541725     580.8191     72.33552      1.721     6.37     4.418722     20.41325     53.37248        13     1.270     0.897  10.15   0
        55      3.4096    859.3468 299.8993760 +22.6315172     429.6324     66.67606      1.687     2.78     4.240517     20.41325     46.48087         7     0.935     0.677 -81.95  16
        56    754.9880    858.3008 300.1336247 +22.8565536     523.4805     72.26175      1.466     3.96     4.449572     20.41325     54.49741        12     1.023     0.941  39.51   0
        57    456.0771    857.2644 300.0408411 +22.7666779     4183.235     72.44604      1.731     3.63     4.352268     20.41325     345.8495        38     1.395     1.320  31.18   0
        58    235.2268    846.3774 299.9756570 +22.6973350     345.2847     72.33552      1.567     3.44     5.471595     20.41325     32.51382         5     0.733     0.467  13.35   0
        59    181.4665    843.3578 299.9599197 +22.6803453     801.2086     72.33552      1.751     4.19     6.618304     20.41325     66.33758        13     1.313     0.803 -26.40   0
        60    185.8474    973.4045 299.9189916 +22.7189626      652.988     72.33552      1.619     3.55     58.52655     20.41325     50.57883         5     1.066     0.341 -20.75   3
        61    158.4371    839.9300 299.9538735 +22.6724547     1653.952     72.31709      1.932     4.58     6.923109     20.41325     128.4446        30     1.501     1.377 -21.64   0
        62     33.5429    829.1723 299.9185489 +22.6319043     496.0867     72.35395      1.751     5.17     4.611374     20.41325     31.27007         9     1.379     0.548  63.21   0
        63    984.7123    827.8854 300.2151643 +22.9166195     2188.062     72.48284      1.913     4.43     4.500409     20.41325     137.8003        32     1.432     1.332   0.32   0
        64    689.7468    827.8422 300.1231928 +22.8282588     517.2194     72.35395      2.016     3.33     4.325624     20.41325     36.90296         5     0.925     0.348 -43.90   0
        65    768.1890    821.7953 300.1496095 +22.8500220     737.2479     72.20637      1.931     5.63       4.5462     20.41325     49.52788        11     1.209     0.740  -7.97   0
        66    190.7701    821.2104 299.9700128 +22.6767816     430.1255     72.35395      1.607     6.44     5.835053     20.41325     38.41347         9     1.235     0.943 -81.51   0
        67    636.2419    815.4455 300.1105502 +22.8086671     4741.314     72.42764      1.638     3.35     4.274298     20.41325     460.3039        36     1.309     1.250  46.53   0
        68    126.3171    816.4807 299.9515103 +22.6560937     465.9934     72.50124      1.699     3.21     5.588844     20.41325     50.14844         7     0.848     0.631 -77.50   0
        69    438.2015    812.6226 300.0497897 +22.7485047      611.517     72.29865      1.639     4.49      4.55665     20.41325     55.58012        12     1.082     0.871 -34.90   0
        70    186.4614    809.3076 299.9725421 +22.6720744     1323.168     72.42764      1.833     4.37     5.573028     20.41325     106.2246        22     1.310     1.140 -15.39   0
        71    656.9044    808.0756 300.1193844 +22.8127415     755.2458     72.50124      1.618     5.31     4.350465     20.41325     56.40451        13     1.158     0.916 -48.29   0
        72    567.2589    992.1412 300.0315959 +22.8387228      2297.65     72.42764      1.957     4.58      3.53882     20.41325     141.9978        35     1.536     1.350  -3.95   0
        73    573.6122    798.3197 300.0966062 +22.7849820     343.1954     72.33552      1.565     3.48     4.282023     20.41325      39.9537         6     1.050     0.692  73.34   0
        74    812.2583    795.3069 300.1719612 +22.8556126      4306.93     72.40922      1.710     3.58     4.621221     20.41325     335.8317        38     1.361     1.293 -52.41   0
        75    220.6136    788.8397 299.9898161 +22.6764433     384.0267     72.37238      1.595     4.58     5.281517     20.41325     48.91774         7     1.096     0.730  56.78   0
        76    529.3642    787.7609 300.0862569 +22.7686900     488.4431     72.42764      1.412     4.26     4.317473     20.41325     61.33254        13     1.180     0.883  -5.68   0
        77    175.5476    785.5242 299.9768791 +22.6619776      963.421     72.35395      1.743     3.92     5.315645     20.41325     82.04995        18     1.171     1.099 -53.04   0
        78    325.2577    777.6751 300.0259979 +22.7046152      53600.7     72.40922      1.719     3.42     4.968926     20.41325     5477.026        92     1.467     1.448  -3.86   0
        79    591.1492    780.9850 300.1077039 +22.7852589     572.1266     72.35395      1.651     5.58     4.317515     20.41325     42.05427        10     0.994     0.883 -16.12   0
        80    583.0933    776.8318 300.1065443 +22.7816523     1705.099      72.2802      1.637     3.37     4.322605     20.41325     177.3599        23     1.217     1.080 -12.52   0
        81    995.9147    776.0392 300.2355153 +22.9050720     928.3839     72.33552      1.883     5.46     4.551348     20.41325     58.10166        19     1.319     1.121  55.86   0
        82    253.6428    775.9218 300.0042880 +22.6826404     427.5246     72.33552      1.585     4.86      5.14922     20.41325     47.40727         8     1.126     0.632 -12.20   0
        83    612.1833    772.8488 300.1169013 +22.7892248     1028.508      72.3908      1.666     3.54     4.349124     20.41325     90.97034        15     1.059     0.963  30.07   0
        84     12.3600    772.2425 299.9304709 +22.6092213     838.9251     72.44604      2.512     4.86     4.875179     20.41325     87.25947        14     1.459     0.834  56.23   2
        85    623.6359    769.7722 300.1214695 +22.7917726     1418.617     72.37238      1.085     0.54      4.38517     20.41325     830.0316        12     1.282     0.569 -63.02   0
        86    728.5081    767.9490 300.1547439 +22.8226668     473.8961     72.40922      1.544     3.49     4.601249     20.41325     54.33437         5     1.002     0.425  28.47   0
        87    765.8611    757.9836 300.1696272 +22.8309923     634.8134     72.29865      1.562     4.80     4.629786     20.41325     59.97092        11     0.947     0.921  36.62   0
        88    375.0210    754.9341 300.0488749 +22.7130055     31672.37     72.33552      1.621     3.32     4.764639     20.41325     3030.399        71     1.399     1.366 -34.69   0
        89    389.3206    755.4921 300.0531441 +22.7174521     1998.123     72.46445      1.745     3.19     4.693163     20.41325     200.4622        25     1.211     1.149 -67.72   0
        90    898.1807    751.0173 300.2131551 +22.8686174     2797.854     72.33552      1.724     3.65     4.692224     20.41325     202.5866        33     1.364     1.272 -43.93   0
        91    655.8801    747.1686 300.1388629 +22.7949405     939.0513     72.35395      1.583     4.16     4.519346     20.41325     99.22586        13     1.053     0.981 -41.99   0
        92    492.3344    747.1851 300.0879136 +22.7459418     407.2382     72.33552      1.398     3.86     4.456583     20.41325     51.64598        10     0.973     0.747 -33.64   0
        93    257.8000    746.7512 300.0150616 +22.6755153     743.3259     72.33552      1.640     3.31     5.049295     20.41325     78.07951        15     1.066     0.948  -8.18   0
        94    550.2538    744.7650 300.1067377 +22.7626031     256.1167     72.37238      1.649     3.94     4.354238     20.41325     30.00573         5     0.929     0.479 -44.56   0
        95    503.0459    741.8082 300.0929965 +22.7476078     936.8016     72.37238      1.537     4.20     4.443349     20.41325     104.9693        15     1.171     0.946  77.91   0
        96     62.7106    742.3061 299.9558467 +22.6157370     604.5721     72.51963      1.922     4.36     5.271588     20.41325     56.31972         9     1.103     0.760 -28.65   0
        97    904.5511    739.0921 300.2190182 +22.8670976     483.2307      72.3908      1.503     4.35     4.697521     20.41325     44.94029        11     1.048     0.740 -19.34   0
        98    361.1974    737.2839 300.0503089 +22.7037951     310.5823      72.2802      1.317     5.64     4.823742     20.41325      41.5564        10     1.161     0.990 -69.84   0
        99    449.1352    736.7170 300.0778653 +22.7299896     482.6443     72.46445      1.663     4.53      4.50135     20.41325     46.41336        10     0.934     0.850   1.72   0
       100     90.7996    736.1120 299.9665901 +22.6223844     561.1442     72.26175      1.795     5.99     5.228007     20.41325     51.17605        11     1.080     0.944 -76.20   0
       101    386.2705    749.3173 300.0542016 +22.7147652     716.9354     72.48284      2.118     4.38     4.698925     20.41325     58.14201        13     1.165     0.967  -9.58   0
       102    255.2884    730.9467 300.0194163 +22.6702263     524.5651     72.37238      1.499     4.25     5.011351     20.41325     64.37795        11     1.040     0.793  31.53   0
       103    578.4751    722.1642 300.1228730 +22.7645681     338.9951     72.29865      1.402     3.69     4.537433     20.41325     38.90781         6     0.995     0.456 -34.01   0
       104    547.9148    720.0400 300.1140443 +22.7548015     776.4312     72.33552      1.635     3.87     4.522123     20.41325     68.76781        15     1.171     0.950 -43.59   0
       105    457.2306    719.4012 300.0860127 +22.7274438      365.445     72.31709      1.269     2.58     4.601893     20.41325      54.7708         6     0.774     0.489  -3.33   0
       106    964.6416    716.4073 300.2451383 +22.8785682     4487.078     72.37238      1.782     3.71     4.726803     20.41325     343.1644        39     1.429     1.319 -54.85   0
       107    569.9351    717.2283 300.1218168 +22.7605917     1321.438     72.35395      1.444     3.32     4.575896     20.41325     131.5103        17     1.104     0.920  64.17   0
       108    651.4680    712.4104 300.1487840 +22.7836342     369.0721     72.35395      1.467     2.73     4.623715     20.41325     57.04872         5     0.757     0.696  80.27   0
       109    953.0678    707.8789 300.2442985 +22.8726517     1684.434     72.46445      1.663     3.37     4.769725     20.41325     132.0907        23     1.207     1.126 -89.37   0
       110    315.9231    701.4761 300.0478563 +22.6799446     962.0263     72.44604      1.657     3.55     4.907247     20.41325     92.42345        19     1.212     1.031 -50.35   0
       111    984.3102    698.0984 300.2572256 +22.8791929     1706.182     72.53801      1.711     4.04     4.704456     20.41325      127.978        26     1.323     1.169 -43.70   0
       112    779.5341    699.1261 300.1930180 +22.8181757      2630.74     72.40922      1.659     3.30     4.712857     20.41325     236.4896        31     1.471     1.065  -0.30   0
       113      2.0567    688.8686 299.9543611 +22.5822148     663.6712     60.37906      1.563     4.23     5.417071     20.41325     63.61024        14     1.268     0.818  85.29  24
       114    862.0256    684.7777 300.2234042 +22.8387539     489.4926     72.31709      1.755     6.38     4.949277     20.41325     43.98501        12     1.390     0.823  83.19   0
       115    164.6999    684.9505 300.0061885 +22.6298650     520.4599     72.44604      1.566     4.23     5.202241     20.41325     55.41528        12     1.016     0.889  34.69   0
       116    897.8986    676.0211 300.2374389 +22.8469775     148113.8      72.2802      1.636     3.27     4.984227     20.41325     11693.66       161     1.534     1.501 -72.04   0
       117    659.9517    679.9621 300.1619712 +22.7768537     266.2007     72.37238      1.409     4.68     4.689988     20.41325     35.46192         7     0.907     0.686  33.97   0
       118    750.2308    676.3718 300.1912760 +22.8028615     740.8038     72.35395      1.486     4.08     4.752207     20.41325     84.04457        11     1.071     0.734   9.12   0
       119    930.9747    668.7972 300.2501048 +22.8548031     546.4425     72.29865      1.763     5.16     4.997874     20.41325     50.52167         8     1.195     0.630   8.93   0
       120    765.3477    662.1100 300.2006225 +22.8032902     9320.698     72.37238      1.511     2.91     4.807312     20.41325     839.6176        41     1.245     1.227 -85.66   0
       121    584.1206    664.7109 300.1432999 +22.7497568     1523.453     72.48284      1.480     2.92     5.030901     20.41325     161.4895        21     1.157     0.970   0.97   0
       122    266.7953    656.8921 300.0470569 +22.6524196     4907.006     72.26175      1.613     3.20     4.913599     20.41325     478.7596        35     1.301     1.218  42.96   0
       123    348.9342    654.8922 300.0732632 +22.6764653     1212.979     72.48284      1.587     3.30     4.864091     20.41325     126.7566        19     1.131     1.057  28.81   0
       124    224.2778    652.9913 300.0350988 +22.6385544     496.1561     72.31709      2.065     2.16     4.982332     20.41325     66.23016         6     0.936     0.657 -23.38   0
       125    557.0740    650.7585 300.1394079 +22.7376463        687.8     72.33552      1.305     2.90     5.023062     20.41325     95.93443        11     0.981     0.721  66.44   0
       126    548.7755    642.7923 300.1394110 +22.7328720     3303.298     72.35395      1.494     2.96     5.030598     20.41325     383.6823        28     1.180     1.104  71.25   0
       127    610.1753    638.6525 300.1598826 +22.7500757     277.0964     72.37238      1.640     4.78      5.10926     20.41325     31.69712         5     1.106     0.585 -58.93   0
       128    538.9642    636.6359 300.1383551 +22.7281643     1543.654     72.42764      1.547     2.89     5.037839     20.41325     152.3821        19     1.068     1.001  65.96   0
       129    932.9432    635.0867 300.2616712 +22.8457011     476.2827     72.44604      1.598     4.62     5.232161     20.41325     48.99158        12     1.218     1.055  19.03   0
       130    202.4328    632.7808 300.0348699 +22.6262045     588.9115     72.35395      1.340     3.39      5.03874     20.41325      77.7091        12     1.115     0.733 -30.53   0
       131    216.7240    630.7672 300.0399687 +22.6299107     705.8154     72.35395      1.551     4.31     4.970517     20.41325     71.62595        12     1.173     0.727  45.41   0
       132    985.3962    628.2029 300.2802743 +22.8594224     488.1194     72.13246      1.669     4.61     4.834431     20.41325     50.80755         8     1.100     0.679  46.95   0
       133    463.7545    626.2719 300.1183011 +22.7026544     1755.971     72.33552      1.455     3.18     4.995244     20.41325     178.4529        22     1.137     1.039  59.12   0
       134    273.4851    628.0366 300.0585115 +22.6461412     341.0889     72.33552      1.530     4.87      4.89662     20.41325     43.30157         6     1.152     0.681  26.32   0
       135    242.4704    627.6291 300.0489960 +22.6367277     555.7092     72.35395      1.584     4.83     4.917911     20.41325      48.1281        12     0.998     0.968  51.46   0
       136    563.0980    626.8575 300.1490486 +22.7325852     642.9381     72.44604      1.880     4.14     5.082523     20.41325     63.83117        11     1.149     0.827 -41.65   0
       137    497.7870    625.6428 300.1291024 +22.7126702     382.3948     72.37238      1.583     3.43     5.049288     20.41325      27.2158         5     0.768     0.443  16.88   0
       138    117.7075    621.0030 300.0123511 +22.5974231     19897.62     72.26175      1.743     3.48     5.310111     20.41325     1682.866        64     1.502     1.414  36.92   0
       139    548.7204    621.6984 300.1462461 +22.7267961     1044.228     72.48284      1.532     3.99     5.078049     20.41325     115.2658        17     1.181     0.981 -42.23   0
       140     38.5329    622.5447 299.9872407 +22.5741252     639.3165     72.40922      1.944     5.24     5.360422     20.41325     71.08672        12     1.280     0.872  25.15   0
       141    583.9672    620.6571 300.1575635 +22.7370554     336.2429     72.37238      1.340     4.29     5.118067     20.41325     43.53845         6     0.892     0.589 -88.56   0
       142    966.8588    608.0078 300.2810500 +22.8480673     1173.253     72.33552      1.762     3.92      5.06791     20.41325     100.3007        22     1.272     1.120 -19.41   0
       143     63.7454    605.1093 300.0007393 +22.5766822     1621.182     72.40922      2.157     5.07     5.340464     20.41325     110.7882        29     1.574     1.286 -84.65   0
       144    833.2659    606.1138 300.2399911 +22.8075325     433.8369     72.44604      1.555     4.76     5.274822     20.41325     52.04433         9     0.985     0.714  13.11   0
       145    130.1376    606.0826 300.0210615 +22.5968677     393.3401     72.44604      1.454     3.84     5.272033     20.41325     46.41965         6     0.984     0.430 -36.57   0
       146    512.5228    602.1804 300.1413122 +22.7103456     480.0319     72.35395      1.292     2.61     5.089221     20.41325     57.77892         5     0.720     0.448 -66.86   0
       147    906.8873    600.8712 300.2646571 +22.8280647      825.786     72.50124      1.821     3.09     5.406504     20.41325     80.48362        12     1.007     0.796  25.59   2
       148    305.1212    601.0446 300.0771211 +22.6478736     236.3521     72.33552      1.319     3.22      4.87662     20.41325     34.81626         5     0.788     0.507 -32.55   0
       149    468.8383    594.4159 300.1302311 +22.6950279     824.7474     72.37238      1.465     3.27     5.046294     20.41325     85.44509        14     1.046     0.854  63.16   0
       150    617.0236    593.0323 300.1768348 +22.7390200      537.179     72.35395      1.360     2.31     5.232708     20.41325     76.79703         9     0.766     0.732 -22.59   0
       151    664.1415    591.4220 300.1920396 +22.7526688     475.6078     72.35395      1.482     3.50      5.20876     20.41325     57.86143         7     0.860     0.602 -29.25   0
       152    634.4590    591.1589 300.1828757 +22.7437036     424.8793     72.35395      1.359     3.18     5.229962     20.41325     52.34819        11     0.985     0.748  16.41   0
       153    513.4241    590.1386 300.1455040 +22.7071565     1041.866     72.35395      1.689     4.31     5.088995     20.41325     87.36969        19     1.247     1.153 -11.91   0
       154    946.8987    586.1235 300.2819303 +22.8358007     3169.812     72.50124      1.486     3.07     5.168684     20.41325     299.5763        27     1.205     1.110  -3.60   0
       155    478.5397    585.7405 300.1360694 +22.6954425     1773.437     72.42764      1.487     2.86     5.070395     20.41325     217.6816        20     1.113     0.966  42.19   0
       156    843.8335    583.0757 300.2507697 +22.8040736     196.2764     72.35395      1.161     2.73     5.292707     20.41325     49.48807         5     0.771     0.495  39.93   0
       157     40.4433    579.1497 300.0019278 +22.5622456     5029.381      72.3908      1.853     3.91      5.25851     20.41325     424.8755        41     1.455     1.392  34.56   0
       158    454.1488    581.1390 300.1299695 +22.6868134       209.98     72.40922      1.265     3.00     5.010142     20.41325     40.98542         6     0.781     0.650  79.56   0
       159    985.8308    576.2017 300.2973013 +22.8445995     317.3667     72.31709      1.410     3.94     4.902492     20.41325     35.28301         6     0.988     0.637  86.06   0
       160    507.7220    576.4286 300.1481809 +22.7015099     270.3406     72.35395      1.174     4.71      5.08662     20.41325     45.29288         7     0.874     0.721 -18.64   0
       161    342.0007    572.4590 300.0978804 +22.6507175     9037.919     72.31709      1.488     2.86     4.849966     20.41325      970.391        40     1.252     1.191  48.48   0
       162    464.5032    569.5109 300.1369698 +22.6865755     9095.925     72.53801      1.469     2.68     5.036654     20.41325       1117.9        44     1.248     1.218 -65.30   0
       163    869.8303    567.6410 300.2638908 +22.8074185     371.7243      72.3908      1.449     3.16     5.216844     20.41325     38.27906         5     0.863     0.479   1.74   0
       164    876.1827    563.6022 300.2671840 +22.8081588     2004.787     72.26175      1.612     3.02     5.187499     20.41325      225.904        24     1.197     1.133  64.11   0
       165    960.8819    561.1183 300.2944148 +22.8327955     12553.64     72.48284      1.594     3.12     5.003472     20.41325     1162.549        50     1.345     1.282 -34.88   0
       166    525.0266    559.1423 300.1591839 +22.7017276     11541.21     72.35395      1.404     2.72     5.093361     20.41325     1238.856        40     1.180     1.157 -87.61   0
       167    694.9374    555.2108 300.2133976 +22.7514846     470.9454      72.2802      1.203     2.60     5.288959     20.41325     71.03147         7     0.707     0.669  27.74   0
       168    252.4818    554.3474 300.0759098 +22.6186897      1312.03      72.3908      1.555     3.12     4.875762     20.41325     155.8378        21     1.255     1.023  54.71   0
       169    499.0526    552.5870 300.1532238 +22.6920639     544.0833      72.3908      1.615     3.43     5.082575     20.41325     59.48244         9     1.096     0.541 -17.57   0
       170    456.5956    547.2824 300.1417261 +22.6778214     4527.418      72.2802      1.484     2.71     5.017373     20.41325     521.2017        35     1.369     1.110  29.61   0
       171    799.5124    547.5534 300.2484849 +22.7805937     864.6255     72.33552      1.449     2.75     5.487089     20.41325     92.28363        14     1.028     0.792  35.08   0
       172    434.8944    545.7220 300.1354765 +22.6708718     1292.423     72.46445      1.475     3.00      4.96435     20.41325     150.7095        18     1.111     0.951  10.07   0
       173    189.2853    544.8632 300.0593336 +22.5970255     744.6541     72.46445      1.468     3.67     4.941763     20.41325     75.51021        13     1.039     0.885  42.86   0
       174    876.6550    543.0688 300.2739996 +22.8023966     1615.043      72.3908      1.531     3.17     5.065551     20.41325     143.7269        21     1.174     0.985 -30.67   0
       175    573.3735    534.8956 300.1821164 +22.7092421     205879.5     72.29865      1.414     2.64     5.258915     20.41325     24710.83       190     1.474     1.392 -21.59   0
       176    396.8718    541.3346 300.1250650 +22.6582201     338.3233      72.3908      1.281     2.73     4.906156     20.41325     52.87323         7     0.799     0.617  25.17   0
       177    756.9557    540.0541 300.2376516 +22.7656974     803.5907     72.37238      1.376     2.76      5.22965     20.41325     101.0154        10     0.893     0.702  24.18   0
       178    850.2284    538.9308 300.2671008 +22.7932967     252.9482     72.35395      1.559     4.36     5.163436     20.41325      28.2411         5     1.018     0.531 -53.91   0
       179    825.0692    530.9658 300.2618409 +22.7834756     614.0299     72.35395      1.633     2.80     5.279065     20.41325     55.23183         9     0.783     0.745  37.39   0
       180    259.4141    534.7689 300.0844236 +22.6151456     3516.608     72.35395      1.567     2.96     4.868059     20.41325     418.4379        28     1.238     1.111  56.99   0
       181    604.8019    521.4263 300.1962808 +22.7147840     229.6749     72.29865      1.443     4.34      5.44136     20.41325     24.46441         5     0.924     0.579  47.39   0
       182    308.3299    517.4769 300.1052564 +22.6248385     409.0897     72.46445      1.302     2.86     4.846654     20.41325     51.62991         6     0.845     0.470  89.12   0
       183    463.9783    515.1601 300.1544550 +22.6708053      2596.52      72.3908      1.420     2.47     5.121185     20.41325     302.3875        24     1.073     1.043  55.67   0
       184    620.1440    512.7839 300.2038670 +22.7168949     344.6931     72.31709      1.641     4.04      5.46955     20.41325     40.91394         5     0.987     0.600  72.27   0
       185    875.9896    511.7252 300.2839699 +22.7931851      426.794     72.35395      1.420     3.89     4.980577     20.41325     49.41945         7     0.940     0.615  -9.04   0
       186    781.0338    504.2426 300.2567868 +22.7626110     273.4484     72.40922      1.249     2.35     5.266086     20.41325     51.80364         7     0.739     0.626   1.93   0
       187    860.9998    501.5039 300.2826132 +22.7857597      1801.28     72.22483      1.497     2.75     4.971473     20.41325     199.3831        20     1.057     1.047  77.72   0
       188    732.1967    499.0682 300.2432414 +22.7465033      2564.64     72.33552      1.388     2.94     5.362988     20.41325     274.6181        24     1.174     1.012 -76.39   0
       189    976.6346    496.6023 300.3202803 +22.8189555     580.8995     72.31709      1.656     4.47      4.92432     20.41325     54.90059        11     1.055     0.817 -43.09   2
       190    975.2936    492.1592 300.3213045 +22.8172764      812.711     72.37238      1.632     4.06     4.923015     20.41325     84.19521        16     1.130     0.977 -35.81   2
       191    636.8793    495.7428 300.2146142 +22.7170087     330.9769      72.3908      1.403     2.96     5.484448     20.41325     64.87975         9     1.000     0.734  57.53   0
       192    519.4103    494.7411 300.1783458 +22.6815424     624.8472     72.31709      1.238     2.63     5.155512     20.41325     105.8778        12     0.971     0.764  48.01   0
       193    989.5047    493.3011 300.3253685 +22.8218571      1166.28     72.53801      1.453     2.90     4.920373     20.41325     128.7972        18     1.144     0.915  39.11   0
       194    861.2542    491.5306 300.2859306 +22.7829681     2266.825      72.3908      1.763     4.31     4.938403     20.41325     186.0662        30     1.585     1.068  74.95   0
       195    614.8342    489.4267 300.2097960 +22.7085923     795.7742     72.37238      2.024     4.60     5.477901     20.41325     60.23362        11     1.192     0.712  66.83   2
       196    400.5668    489.7428 300.1429658 +22.6445079     325.9876     72.37238      1.339     2.88     5.028553     20.41325     49.34361         5     0.749     0.431 -66.49   0
       197    899.5016    486.6645 300.2994409 +22.7930156     4395.682     72.44604      1.576     2.90     4.917193     20.41325     468.6329        34     1.223     1.198 -82.50   0
       198    452.9032    488.3517 300.1597104 +22.6597861     309.2496      72.3908      1.198     4.49     5.175062     20.41325     51.76329         7     0.874     0.655  23.02   0
       199    560.0240    482.7834 300.1948777 +22.6902697      445.539     72.35395      1.454     3.17     5.200804     20.41325     49.51243         6     0.884     0.467 -40.15   0
       200    991.3587    477.3612 300.3311222 +22.8178270     652.0871     72.44604      1.289     3.53     4.914896     20.41325     82.46637        15     1.186     0.792  51.99   0
       201    792.6359    471.0024 300.2711961 +22.7565274     344.3657     72.35395      1.506     3.40     5.102329     20.41325     46.11713         6     0.841     0.764   3.67   0
       202    398.0065    470.1405 300.1485323 +22.6381099     288.2986     72.31709      1.406     3.21     5.074427     20.41325     39.35878         5     0.799     0.496 -56.08   0
       203    131.6197    476.7573 300.0635136 +22.5601887     943.1556      72.3908      1.579     3.46     4.987921     20.41325     105.1716        16     1.138     0.927 -17.98   0
       204    123.9186    466.8331 300.0643408 +22.5550313     257.6878     72.31709      1.395     3.03     4.996561     20.41325     57.44943         6     1.006     0.530 -23.12   0
       205    731.6944    461.1995 300.2553788 +22.7354668     427.0942     72.22483      1.271     2.79     5.344641     20.41325      54.6156         8     0.876     0.600  79.13   0
       206    620.9627    459.2821 300.2214914 +22.7017638     349.8613     72.31709      1.410     2.47     5.475871     20.41325     54.71299         5     0.842     0.444   5.67   0
       207    673.1035    457.2166 300.2384096 +22.7167813     740.3772     72.26175      1.334     3.70     5.500101     20.41325     78.75346         9     0.904     0.659 -19.99   0
       208     32.7902    451.5906 300.0409619 +22.5233403       240.09     72.24329      1.437     3.46     5.362714     20.41325      24.3835         5     1.212     0.285 -54.33   0
       209    987.3052    449.9435 300.3387580 +22.8087277     541.0917     72.40922      1.565     2.90     4.884853     20.41325     55.53882         9     0.909     0.642  18.38   0
       210    733.6020    449.3300 300.2598264 +22.7326256     863.4019     72.29865      1.315     2.73     5.268134     20.41325     113.3963        16     1.033     0.893  53.99   0
       211    891.0434    445.5112 300.3101622 +22.7786494     1147.337     72.35395      1.516     2.89     4.909404     20.41325     135.2067        18     1.096     0.985 -76.03   0
       212    874.9623    441.8603 300.3063311 +22.7727872     739.2274     72.37238      1.471     2.97     4.907771     20.41325      96.5035        12     0.968     0.815  69.45   0
       213    855.4389    442.3388 300.3000862 +22.7670821     345.4026     72.35395      1.402     3.15     4.918396     20.41325     39.72688         6     0.861     0.471  -3.46   0
       214    619.4362    439.8530 300.2273224 +22.6957224     3217.119     72.37238      1.368     2.42      5.46757     20.41325     421.7633        25     1.106     1.034  71.89   0
       215    980.0840    439.0544 300.3400392 +22.8034349     542.2681     72.40922      1.563     3.68     4.877889     20.41325     55.97065         9     0.955     0.763  37.15   0
       216     95.8355    431.2908 300.0671462 +22.5364100     335.6176     72.31709      1.592     3.27     5.056353     20.41325     53.82038         7     1.107     0.516 -22.78   0
       217    459.2117    426.7530 300.1816695 +22.6439776     456.4117     72.35395      1.541     3.63     5.249442     20.41325     53.87819        10     0.927     0.814  -4.77   0
       218    902.9335    418.7229 300.3225666 +22.7745029     581.5746     72.44604      1.535     3.85     4.916316     20.41325     61.98254         7     0.828     0.710 -73.39   0
       219    989.0262    417.6564 300.3497754 +22.7999548     1029.086     72.35395      1.595     3.51     4.846783     20.41325     102.2966        16     1.097     1.027 -22.42   0
       220    639.7756    415.6569 300.2415133 +22.6948570     352.7516     72.35395      1.148     3.49     5.466457     20.41325     41.56797         5     0.930     0.407 -83.65   0
       221    730.0673    413.9604 300.2702049 +22.7213986     926.6812     72.31709      1.330     2.80     5.104661     20.41325     132.2753        14     0.962     0.889  80.07   0
       222    525.7631    414.1535 300.2064832 +22.6602875     377.7309      72.3908      1.290     4.29     5.168565     20.41325     59.00555         9     1.073     0.619  48.84   0
       223    234.1764    412.0686 300.1164028 +22.5723471     539.3802     72.35395      1.371     2.89     5.042824     20.41325     64.05946        10     0.875     0.741   8.72   0
       224    296.4117    407.5649 300.1372255 +22.5896995     3774.715     72.35395      1.520     2.72     4.872211     20.41325     466.2574        31     1.205     1.103  58.12   0
       225    243.6242    402.2764 300.1225194 +22.5723654     7579.365     72.37238      1.540     2.88     5.051119     20.41325     851.4866        40     1.287     1.179  63.00   0
       226   1009.5406    397.3989 300.3627526 +22.8002641     1877.292     72.31709      1.561     2.90     4.798387     20.41325     201.5885        22     1.158     1.093 -37.96   0
       227    384.4632    396.6113 300.1681818 +22.6129291     4850.336     72.29865      1.432     2.56     5.277498     20.41325     621.8239        32     1.176     1.080  72.73   0
       228    628.5929    393.3751 300.2452601 +22.6851040     18613.91     72.35395      1.397     2.43     5.470311     20.41325     2426.028        46     1.234     1.118  69.33   0
       229    646.2357    393.4410 300.2507363 +22.6904047     885.6823     72.42764      1.914     5.90     5.475969     20.41325     72.80198        17     1.586     0.853 -32.99   0
       230    872.5769    389.8382 300.3224716 +22.7571117     238.4335     72.37238      1.576     4.20     4.912663     20.41325     26.79897         5     0.917     0.550 -41.46   0
       231    825.9372    383.9989 300.3098201 +22.7414759    -390.5945     72.33552      1.315     4.11     4.889138     20.41325     33.26495         7     0.917     0.525 -46.86   0
       232    962.4136    376.3224 300.3548854 +22.7801024     777.3394     72.37238      1.756     4.55     4.830137     20.41325     70.78624        12     1.199     0.810 -78.36   0
       233    499.2003    375.5706 300.2107315 +22.6412450     301.4845     72.31709      1.222     2.22     5.319179     20.41325     51.53007         5     0.672     0.487 -11.30   0
       234    183.3375    373.3488 300.1131554 +22.5459941     2054.333     72.40922      1.515     3.13     5.061966     20.41325       229.75        24     1.296     1.050 -68.22   0
       235    569.2772    362.8391 300.2366892 +22.6585681     6627.099     72.33552      1.351     2.40     5.387637     20.41325     869.6851        32     1.142     1.067  86.17   0
       236    982.9705    363.2538 300.3655412 +22.7824922     1289.806     72.35395      1.526     3.40     4.791138     20.41325     130.1277        21     1.121     1.115  43.63   0
       237    284.0891    362.0995 300.1481448 +22.5729478     623.8293     72.51963      1.370     3.07     5.244238     20.41325     78.61113        12     0.924     0.887  14.96   0
       238    829.2125    355.0224 300.3202444 +22.7341222     347.4209     72.33552      1.251     2.73     4.867752     20.41325     50.26162         6     0.849     0.477 -49.52   0
       239    141.3681    354.9314 300.1060803 +22.5281293     503.7392     72.33552      1.565     4.59     4.996171     20.41325     61.38849        13     1.257     0.875  29.30   0
       240    773.5641    352.0103 300.3038691 +22.7166034     1095.896     72.33552      1.477     2.92     4.925686     20.41325     122.9243        16     1.079     0.865 -71.37   0
       241    682.7132    352.7484 300.2753088 +22.6896248     618.4042      72.3908      1.534     3.45     5.428411     20.41325     57.77717        13     1.022     0.828  41.82   0
       242   1009.0128    352.2035 300.3772545 +22.7871028     1389.602      72.1879      0.459     0.77     4.742464     20.41325     1091.975         6     0.403     0.333 -85.69   0
       243    475.9059    349.0123 300.2120951 +22.6266370     6130.127      72.2802      1.392     2.80     5.375875     20.41325     746.2531        31     1.186     1.051  71.19   0
       244    867.7492    343.6405 300.3359568 +22.7423792     1525.253     72.37238      1.633     2.65     4.913783     20.41325       170.37        22     1.160     1.013  85.36   0
       245    965.2636    344.0376 300.3662509 +22.7716668     519.3851     72.35395      1.399     3.87     4.772624     20.41325     56.54118        11     1.010     0.776 -14.21   0
       246    460.4025    337.8732 300.2108817 +22.6187933      365.454     72.26175      1.419     4.44     5.372903     20.41325     53.26328         8     0.932     0.886 -51.47   0
       247    543.2211    335.7502 300.2373621 +22.6429804     409.8505     72.35395      1.676     4.06     5.378059     20.41325     57.22689         7     1.061     0.645 -38.56   0
       248    523.8191    333.5875 300.2320207 +22.6365499     243.7068     72.31709      1.319     3.16     5.383276     20.41325     44.01086         6     0.991     0.460 -58.29   0
       249    840.5535    331.2736 300.3314870 +22.7306849     509.3727     72.35395      1.272     2.67     4.898099     20.41325     67.05014        11     0.979     0.685  40.88   0
       250    363.4945    328.1926 300.1838549 +22.5869905     2579.301     72.24329      1.415     2.62     5.367198     20.41325     297.8193        21     1.108     0.977  66.99   0
       251     81.7921    325.5286 300.0970975 +22.5018336     1075.493     72.33552      1.668     3.85     5.180962     20.41325     103.4854        21     1.241     1.129 -42.71   0
       252    711.1659    322.7126 300.2939223 +22.6895042     400.5825     72.31709      1.257     3.88     5.226885     20.41325     43.80923         5     1.238     0.348  47.45   0
       253    332.7959    317.6386 300.1777249 +22.5747637     30093.82     72.37238      1.473     2.72     5.390616     20.41325     3851.101        65     1.322     1.232  73.86   0
       254    867.5255    315.3336 300.3450711 +22.7341697     1505.554     72.42764      1.452     2.55     4.915961     20.41325     182.1944        23     1.272     1.054  51.35   0
       255    823.2491    313.0968 300.3319875 +22.7202790     307.4373     72.40922      1.444     2.85      4.90472     20.41325     62.83266         6     0.943     0.602 -33.76   0
       256     29.0903    305.2877 300.0872828 +22.4802283     5017.262     72.51963      1.742     3.33     5.543722     20.41325     490.4289        40     1.420     1.326  61.44   0
       257    825.8204    304.1583 300.3356892 +22.7184773     298.2104      72.3908      1.492     3.97     4.915525     20.41325     27.19908         6     0.774     0.583 -39.26   0
       258    782.8077    304.3311 300.3222203 +22.7056570     470.7834     72.33552      1.268     2.08     4.954436     20.41325     84.88117         6     0.689     0.583 -49.25   0
       259    207.0015    303.8370 300.1430663 +22.5331183     463.4985     72.37238      1.438     3.67      5.25802     20.41325     65.12011        11     1.050     0.891  38.95   0
       260    431.2636    303.1422 300.2130767 +22.6000864     430.9341     72.40922      1.332     2.75     5.380816     20.41325     55.46674         8     0.782     0.680 -43.88   0
       261    743.2526    297.5944 300.3120733 +22.6918831     1941.782     72.31709      1.373     2.54     5.046119     20.41325     241.4481        19     1.080     0.931 -71.72   0
       262    551.5535    292.3918 300.2540235 +22.6330110     438.7568     72.37238      1.312     2.81      5.38871     20.41325     52.26479         7     0.901     0.494  85.83   0
       263    481.0017    291.3848 300.2323771 +22.6115997     161.6179     72.20637      1.549     4.95       5.4362     20.41325     25.56491         5     1.269     0.547 -51.28   0
       264    958.2567    290.8025 300.3813357 +22.7542540     548.4537     72.31709      1.301     2.47     4.665644     20.41325     86.91094        10     0.879     0.783   1.42   0
       265    405.0503    281.8720 300.2118157 +22.5861241     2150.144     72.35395      1.550     3.53     5.398926     20.41325     204.9768        26     1.443     0.975  71.65   0
       266    617.4258    281.1610 300.2781881 +22.6495001     296.8148     72.37238      1.183     3.31     5.451934     20.41325     44.02832         5     0.755     0.421  65.61   0
       267    837.0144    275.7533 300.3483946 +22.7136555     325.6218     72.37238      1.316     3.35     4.984518     20.41325      41.0732         8     0.899     0.727 -67.27   0
       268    844.1396    275.1226 300.3508215 +22.7156057     590.8189     72.40922      1.312     3.31     4.979734     20.41325     72.49017         9     0.876     0.754 -81.66   0
       269    726.5828    273.0165 300.3148493 +22.6798262     446.7121     72.31709      1.488     2.94     5.202993     20.41325     60.90507         7     0.839     0.657 -12.38   0
       270    694.6209    272.0963 300.3051850 +22.6699969     308.2239     72.26175      1.282     3.78     5.358157     20.41325     43.86285         6     0.759     0.613  46.67   0
       271    480.8352    261.5766 300.2419937 +22.6029816     1079.031     72.37238      1.285     2.31     5.453002     20.41325     166.5784        14     0.926     0.863  83.52   0
       272     53.1869    261.9359 300.1088327 +22.4750000     320.3116     72.31709      1.629     3.76     5.395509     20.41325     42.65319         5     1.005     0.404 -29.85   0
       273    992.4904    257.4092 300.4028509 +22.7548837     431.5793      72.2802      1.667     5.58     4.388233     20.41325     44.16964         9     1.111     0.790  83.19   0
       274    725.7582    253.3120 300.3209834 +22.6739123     2143.944     72.35395      1.396     2.52     5.311015     20.41325     303.5536        22     1.233     0.938  67.95   0
       275    987.1104    247.7983 300.4042892 +22.7505089     3227.227     72.26175      1.554     3.15     4.437785     20.41325     335.6102        31     1.299     1.149 -82.32   0
       276    988.5301    239.1474 300.4075380 +22.7484438      2028.89     72.33552      1.089     3.65     4.419672     20.41325     691.3177         9     1.132     0.395 -73.27   0
       277    358.6864    238.8411 300.2113405 +22.5598740     236.6431     72.33552      1.297     3.38     5.451327     20.41325     44.67875         5     0.853     0.462  40.43   0
       278    434.1806    237.1505 300.2353889 +22.5819925     741.6561     72.35395      1.339     2.71     5.437931     20.41325     95.60702        13     0.940     0.874 -60.69   0
       279    108.9038    231.3477 300.1360722 +22.4829080     1320.842     72.42764      1.756     3.60     5.398218     20.41325     124.6705        24     1.327     1.112 -24.49   0
       280    139.6663    231.2612 300.1456647 +22.4920988     739.5621      72.3908      1.728     4.16     5.473803     20.41325     66.69954        13     1.144     0.986  36.95   0
       281   1002.9848    228.3016 300.4155668 +22.7496452     508.2671     72.26175      1.445     2.89     4.271835     20.41325     63.19598         8     0.806     0.743   3.45   0
       282    192.6789    223.5007 300.1646667 +22.5057492     466.6023     72.48284      1.399     3.88     5.589786     20.41325     53.88016        12     0.950     0.872 -13.60   0
       283    987.9947    221.4911 300.4130971 +22.7432024     505.8252     72.26175      1.431     3.49     4.488565     20.41325     56.41972         8     0.978     0.597  18.95   0
       284     48.7344    219.9325 300.1210698 +22.4616026     367.7309     72.40922      1.446     4.17     5.514118     20.41325     40.87331         6     1.090     0.456 -60.72   0
       285    869.0988    216.4495 300.3776359 +22.7061918     457.7987     72.42764      1.572     5.18     5.119579     20.41325     41.42361         7     1.229     0.616  79.19   0
       286    797.4641    214.9686 300.3557750 +22.6843369     635.0614     72.35395      1.274     2.42     5.349575     20.41325     87.60456         9     0.831     0.703  84.68   0
       287    387.7299    214.1000 300.2284035 +22.5614596     312.8041     72.48284      1.246     3.38      5.41791     20.41325     48.53043         7     0.708     0.697  65.81   0
       288    888.5298    208.3362 300.3863283 +22.7096693     372.4724      72.3908      1.354     3.37     5.210413     20.41325     38.68329         5     0.722     0.474 -73.25   0
       289    895.7148    203.8609 300.3900209 +22.7105305     2044.148     72.46445      1.461     2.92     5.263905     20.41325     225.4268        25     1.255     1.055 -60.47   0
       290    391.9499    196.2454 300.2355065 +22.5575910     1094.091     72.37238      1.451     2.85     5.367489     20.41325     115.4036        16     1.056     0.938 -35.40   0
       291    794.1321    195.3184 300.3611080 +22.6776869     583.1977     72.46445      1.555     3.62     5.293073     20.41325     69.40027        12     1.072     0.930 -11.93   0
       292    143.8956    196.6240 300.1582110 +22.4834154     375.1051     72.24329      1.614     3.43     5.681509     20.41325     34.52313         5     0.759     0.447  17.71   0
       293    314.0643    201.0523 300.2097077 +22.5356521     2112.557      72.3908      1.424     2.79     5.519798     20.41325      243.157        23     1.191     0.977  51.36   0
       294    208.8224    188.0691 300.1811762 +22.5004044     681.8393     72.37238      1.534     3.57     5.634392     20.41325     80.80497        13     1.069     0.947 -65.06   0
       295    327.0829    187.8669 300.2180341 +22.5357609     376.9117     72.46445      2.426     6.06     5.473065     20.41325     37.48791         8     1.653     0.626  28.53   0
       296    746.6666    185.1577 300.3496033 +22.6605640     1763.619     72.33552      1.417     2.77     5.377885     20.41325      222.456        21     1.128     1.005 -78.81   0
       297    811.7311    185.2674 300.3698551 +22.6800599     597.0291     72.40922      1.251     3.07     5.248419     20.41325     71.13958         7     0.813     0.618  25.50   0
       298    230.4279    181.7255 300.1899533 +22.5050522     593.1781     72.37238      1.618     2.30      5.59618     20.41325     68.59232         7     0.759     0.627  14.29   0
       299   1018.2401    178.1305 300.4365977 +22.7397663     869.7845     72.33552      1.442     2.85     4.764014     20.41325     94.57378        13     0.933     0.883  54.11  16
       300    520.0721    178.1168 300.2812775 +22.5907327     303.1823     72.48284      1.375     2.89     5.443508     20.41325     40.85833         5     0.773     0.507 -54.35   0
       301    750.7936    176.5498 300.3536809 +22.6593224     784.2331     72.35395      1.510     3.48     5.355654     20.41325     107.2402        14     1.160     0.867 -79.06   0
       302    671.2025    175.8886 300.3290857 +22.6353193     1159.651      72.2802      1.360     2.92     5.459192     20.41325     141.2211        16     1.026     0.888  78.00   0
       303    492.0122    172.4230 300.2743847 +22.5806969     429.2123     72.35395      1.609     4.95     5.443465     20.41325     45.42054         8     1.136     0.677  46.70   0
       304    597.2225    167.6961 300.3086890 +22.6108257     1115.874     72.26175      1.508     3.04     5.449157     20.41325     129.7552        19     1.169     1.033  21.53   0
       305    878.8156    166.9050 300.3967321 +22.6948417     863.2443      72.2802      1.416     3.14     5.463115     20.41325     108.0169        13     1.093     0.797  51.03   0
       306    866.6642    167.6816 300.3926899 +22.6914309     1554.152     72.46445      1.435     2.41     5.359477     20.41325      204.688        18     1.022     0.950  33.39   0
       307    925.3356    166.4072 300.4114065 +22.7086111     369.1394     72.33552      1.429     3.90     5.854295     20.41325     44.32605         5     0.950     0.476   8.59   0
       308    995.5133    156.9696 300.4363654 +22.7268798     1132.622     72.35395      1.484     3.47     5.242968     20.41325       133.64        19     1.190     0.951 -71.79   0
       309     19.7918    153.5269 300.1336039 +22.4338584     492.2327     72.33552      1.313     4.53     6.302771     20.41325     61.76418         9     1.160     0.641  69.43   0
       310    229.4877    149.6851 300.2000480 +22.4955636     813.5901     72.48284      1.682     3.29     5.580776     20.41325     83.98042        14     1.032     0.918  89.07   0
       311     91.2287    144.5599 300.1587152 +22.4526824     2241.375     72.37238      1.637     3.27     5.970245     20.41325     242.7074        26     1.270     1.106  22.28   0
       312    914.5571    141.7525 300.4160369 +22.6982922      746.592      72.3908      1.386     3.34     5.683542     20.41325     100.6198        12     1.031     0.837   9.93   0
       313     40.5801    141.7896 300.1438695 +22.4367146     468.2797     72.33552      1.748     4.86     6.210895     20.41325     41.00055         7     1.372     0.487 -15.36   0
       314    248.7726    137.8752 300.2098754 +22.4979446     5627.612     72.35395      1.517     2.85     5.542411     20.41325     664.0172        36     1.248     1.185  73.23   0
       315     32.8502    132.2889 300.1445466 +22.4316698     1317.985     72.35395      1.754     3.69       6.2577     20.41325     120.2743        23     1.407     1.028  26.58   0
       316    232.1635    129.0355 300.2075740 +22.4904306     660.0505     72.42764      1.383     3.58     5.542779     20.41325     80.08535        11     1.119     0.663 -36.80   0
       317    892.9689    119.7439 300.4164366 +22.6855021     3635.986     72.37238      1.496     2.67     5.453584     20.41325     448.2511        33     1.281     1.195  56.18   0
       318    996.6396    118.3186 300.4492471 +22.7160905     2868.306     72.31709      1.697     3.09     5.293115     20.41325     302.6773        30     1.332     1.176  82.52   0
       319    442.1672    114.6580 300.2775896 +22.5491687     566.6847     72.37238      1.393     2.77     5.432556     20.41325     82.20911        12     0.917     0.834  78.25   0
       320    195.2456    115.2310 300.2005655 +22.4754084     331.3587     72.40922      1.568     4.92     5.690076     20.41325     41.55881         8     1.121     0.783  -8.22   0
       321    556.8624    112.5985 300.3139767 +22.5829023     252.7243     72.31709      1.086     2.80     5.584527     20.41325     47.38049         6     0.778     0.487  -5.10   0
       322    366.5500    106.3033 300.2567578 +22.5241320     753.7203     72.42764      2.341     5.28     5.358535     20.41325      68.9451        11     1.361     0.944   8.44   2
       323    132.4732    103.5862 300.1848190 +22.4532635     611.5147     72.37238      1.570     3.69     5.985729     20.41325     66.91151        13     1.069     0.924 -75.74   0
       324    493.8199    102.0503 300.2977601 +22.5610028     1663.559     72.33552      1.416     2.65     5.567537     20.41325     200.4793        22     1.165     1.009  44.12   0
       325    421.8194    102.8411 300.2750847 +22.5396807     540.7708     72.37238      1.427     2.61     5.413408     20.41325     61.52139         8     0.776     0.674 -43.07   0
       326    555.6739    101.3666 300.3172471 +22.5793163     385.8269     72.33552      1.408     4.37     5.616387     20.41325     46.59359         9     1.041     0.794  -5.28   0
       327    237.3492     97.9263 300.2192704 +22.4830428     487.8401     72.37238      1.570     3.78     5.477025     20.41325     47.40274         7     0.771     0.630  86.04   0
       328    710.9568     95.8605 300.3674197 +22.6241913     64.23412     72.35395      1.246     4.65     5.867117     20.41325     35.33044         5     0.931     0.660  24.69   0
       329    928.3846     86.6045 300.4382275 +22.6865538     332.1801      72.1879      1.609     4.34     5.310662     20.41325      38.0447         7     0.883     0.682 -69.78   0
       330    774.2312     82.8677 300.3913572 +22.6393793     425.2356     72.33552      1.287     2.63     5.641098     20.41325     48.93993         5     0.748     0.493  37.39   0
       331    267.7455     81.7074 300.2339829 +22.4874821     6030.728     72.40922      1.548     2.94     5.369797     20.41325     727.1265        40     1.328     1.188  67.31   0
       332    118.9068     81.5873 300.1877304 +22.4428794     761.6498      72.2802      1.619     3.88     5.888513     20.41325     79.35938        11     1.213     0.630 -23.95   0
       333    897.0639     79.5702 300.4307357 +22.6751639     408.6317     72.37238      1.328     2.16      5.31789     20.41325      52.9522         6     0.739     0.493   5.22   0
       334    239.8627     75.7769 300.2272305 +22.4774294       456.56     72.33552      1.646     3.34     5.402274     20.41325     50.99028         7     0.969     0.640  59.54   0
       335    743.7743     73.0189 300.3850533 +22.6274357      309.304     72.37238      1.357     4.57     5.832303     20.41325     37.67024         7     1.082     0.548  31.94   0
       336    283.7322     73.4048 300.2416475 +22.4898818     274.3371     72.33552      1.228     3.11     5.328006     20.41325     47.57197         5     0.747     0.426 -23.33   0
       337     29.3805     72.3782 300.1628850 +22.4134198     453.5259     72.35395      1.443     4.03     6.321556     20.41325      50.2949         6     0.875     0.531 -39.35   0
       338    513.9007     67.1720 300.3153179 +22.5569817     6477.544      72.2802      1.464     2.69     5.578503     20.41325      800.449        40     1.370     1.115  88.83   0
       339    399.2716     67.2434 300.2796022 +22.5226967     812.2933     72.31709      1.537     3.36     5.408381     20.41325      93.0659        12     1.128     0.732 -48.81   0
       340    571.0614     61.7375 300.3348841 +22.5725224     418.8347      72.3908      1.493     3.65     5.692031     20.41325     49.00727         8     1.039     0.568 -22.96   0
       341    534.5010     61.0311 300.3237243 +22.5613798      296.037     72.33552      1.355     3.76     5.578503     20.41325     26.96054         6     0.814     0.500  88.05   0
       342    766.3361     57.0951 300.3972481 +22.6296016     908.3333     72.44604      1.621     3.47     5.773574     20.41325     83.00737        14     1.148     0.768 -89.34   0
       343    858.5337     55.7595 300.4264332 +22.6567892     801.0259     72.31709      1.176     4.72     5.316481     20.41325     233.8619        10     0.916     0.690 -76.65   0
       344    206.7263     50.5895 300.2250852 +22.4602686     566.5791     72.35395      1.533     2.87     5.363607     20.41325     87.79422        10     0.977     0.800   4.25   0
       345    642.2674     47.3370 300.3617369 +22.5896830     6201.732     72.40922      1.457     2.57     5.846051     20.41325      776.236        39     1.296     1.118  85.68   0
       346    565.0981     49.7287 300.3369179 +22.5672839     421.7298     72.50124      1.281     2.53     5.664826     20.41325     72.94714         9     0.910     0.622  48.55   0
       347    417.0516     46.2739 300.2919325 +22.5219886     1331.225     72.37238      1.320     2.90     5.418869     20.41325      173.104        20     1.049     1.027  51.59   0
       348    683.3428     44.8319 300.3753500 +22.6012495     749.9548     72.37238      1.331     2.92     5.842165     20.41325     94.18105        16     1.036     0.915  19.82   0
       349    753.1620     42.5185 300.3978643 +22.6214668     369.8373     72.31709      1.695     4.53     5.840435     20.41325     44.24245         6     1.084     0.563  31.93   0
       350    699.0723     40.7324 300.3815812 +22.6047749      577.174      72.3908      1.582     4.72     5.848264     20.41325     73.27112        11     1.221     0.812  66.27   0
       351    969.5110     39.0220 300.4664813 +22.6851516     620.7449      72.2802      1.798     3.26     5.293126     20.41325     57.36179        10     1.029     0.824  17.44   0
       352    165.9633     38.9078 300.2161927 +22.4447059     704.8388     72.31709      1.564     3.37     5.325734     20.41325     75.19235        10     1.025     0.699 -35.67   0
       353     12.7329     38.9549 300.1685413 +22.3988310     328.7625     72.35395      1.350     4.89     6.559902     20.41325     39.14896         7     0.956     0.857  49.67   0
       354   1008.7367     38.0731 300.4790309 +22.6966042     235.8961      72.3908      1.619     5.19     5.348475     20.41325     29.07858         7     1.089     0.700  78.23   0
       355    737.6071     36.1137 300.3950903 +22.6149716     471.8072      72.2802      1.165     3.29     5.866444     20.41325     72.77695        11     0.988     0.774  41.26   0
       356    327.1365     33.2517 300.2681650 +22.4913320      366.374     72.40922      1.260     3.75     5.359407     20.41325     55.69938         9     0.998     0.625 -50.75   0
       357    701.6886     31.3012 300.3854528 +22.6028437      979.928     72.51963      1.981     5.01     5.846632     20.41325     80.90895        15     1.345     0.840  54.19   0
       358    686.4680     32.1724 300.3804262 +22.5985418     2775.047     72.33552      1.405     2.57     5.837617     20.41325     332.8264        24     1.209     0.972  74.98   0
       359    772.8751     23.9100 300.4100405 +22.6220073     1445.409     72.51963      1.380     2.79      5.88259     20.41325     197.2842        22     1.111     1.046  31.88   0
       360    463.0321     18.0723 300.3153867 +22.5276387     997.0925     72.35395      0.439    -1.36     5.533641     20.41325     804.5705         5     0.419     0.367  38.04   0
       361    711.0090     17.1356 300.3929480 +22.6015553     662.9612     72.33552      1.207     2.17     5.848694     20.41325     110.5915        10     0.829     0.742  21.91   0
       362    174.9928   1017.3536 299.9013193 +22.7283098     689.9399     72.37238      2.465     8.57     96.38688     20.41325     36.12589        13     1.610     1.274  42.14  16
       363    315.5475   1013.1260 299.9464112 +22.7692632     1952.162     72.37238      6.730     7.20     5.811819     20.41325     69.93522        38     1.731     1.651 -23.15  16
       364    151.1377   1008.4161 299.8968100 +22.7185893     1699.246     72.31709      3.186    14.16     89.33458     20.41325     57.16837        48     3.628     1.538  -6.95  18
       365     22.4133   1009.7620 299.8563632 +22.6803468     905.4338     72.37238      3.947     4.53    -6.692468     20.41325     33.98294         5     1.211     0.482  -6.40   3
       366    376.1554    998.2440 299.9701121 +22.7831721     461.3584      72.3908      1.338     4.27     3.559979     20.41325     51.84567         7     1.136     0.499  74.50   0
       367    752.7715   1014.6274 300.0820853 +22.9007835     635.5134     72.31709      2.280     6.23     3.460389     20.41325     32.79518         8     1.139     0.956  65.21   0
       368    199.2540   1000.6785 299.9142882 +22.7308068     1440.508      72.3908      3.431    10.52     80.96632     20.41325     53.91506        23     2.337     1.319  62.27   3
