#   1 NUMBER                 Running object number                                     
#   2 X_IMAGE                Object position along x                                    [pixel]
#   3 Y_IMAGE                Object position along y                                    [pixel]
#   4 ALPHA_J2000            Right ascension of barycenter (J2000)                      [deg]
#   5 DELTA_J2000            Declination of barycenter (J2000)                          [deg]
#   6 FLUX_APER              Flux vector within fixed circular aperture(s)              [count]
#   7 FLUXERR_APER           RMS error vector for aperture flux(es)                     [count]
#   8 FLUX_RADIUS            Fraction-of-light radii                                    [pixel]
#   9 FWHM_IMAGE             FWHM assuming a gaussian core                              [pixel]
#  10 BACKGROUND             Background at centroid position                            [count]
#  11 THRESHOLD              Detection threshold above background                       [count]
#  12 FLUX_MAX               Peak flux above background                                 [count]
#  13 ISOAREA_IMAGE          Isophotal area above Analysis threshold                    [pixel**2]
#  14 A_IMAGE                Profile RMS along major axis                               [pixel]
#  15 B_IMAGE                Profile RMS along minor axis                               [pixel]
#  16 THETA_IMAGE            Position angle (CCW/x)                                     [deg]
#  17 FLAGS                  Extraction flags                                          
         1    221.4867     17.7382 300.2354449 +22.4424808     3831.665      72.6396      1.535     2.68     4.292752     20.46779     493.9747        33     1.297     1.140  46.48   0
         2    644.3320     14.4969 300.3680945 +22.5681793     376.2109     72.65806      1.327     4.91     4.798506     20.46779     50.55981         8     0.988     0.751 -47.43   0
         3    782.8173     10.3453 300.4125921 +22.6084340     921.8199     72.52879      1.437     2.86     4.637209     20.46779     106.3538        12     0.995     0.724  50.61   0
         4    337.4714      9.9511 300.2740413 +22.4749878     1354.997     72.52879      1.435     2.49     4.290852     20.46779     174.1104        19     1.083     0.932  55.27   0
         5    820.4684      5.5506 300.4258825 +22.6183216      756.928     72.54727      1.730     4.03     4.630929     20.46779     77.09693        11     1.117     0.714 -84.57  16
         6    744.0618      4.8719 300.4022869 +22.5952614     427.0926     71.63609      1.480     3.03     4.658462     20.46779     74.64852         8     1.055     0.537  69.41  16
         7    840.7236      1.9241 300.4333724 +22.6233392     1855.002      59.8276      1.162     2.25     4.618487     20.46779     308.6686        14     0.975     0.720   0.54  24
         8    689.2828    998.5919 300.0625388 +22.8643319     9322.588     72.49181      1.901     4.43      2.54832     20.46779     559.2105        48     1.522     1.417  26.09   3
         9    288.0933   1012.7800 299.9330557 +22.7480205     1166.071     72.47332      2.045    26.48     60.39529     20.46779     72.99093       110     9.505     2.048 -13.29  19
        10    250.7127   1017.9987 299.9197344 +22.7382950     2713.365     72.47332      5.979    24.56     71.72966     20.46779     66.20351       157     4.798     3.490   6.46  27
        11    250.1532   1000.2155 299.9253468 +22.7330294     4269.508     72.56575      8.847    22.57     59.70897     20.46779     100.8255       298     5.404     5.186 -86.07  19
        12    268.6348    999.9116 299.9311921 +22.7384903     5110.423     72.52879      9.472    29.02     55.91195     20.46779     101.7136       465     7.282     5.208 -43.75  19
        13    288.3535    987.8626 299.9412439 +22.7409551     7409.164     72.56575      7.897    29.33     44.47153     20.46779     160.4437       618     9.595     4.646  57.62  19
        14    198.3866   1023.1223 299.9018003 +22.7240539     617.2999      59.5581      3.344     4.76     80.99847     20.46779     34.21902         8     1.221     0.526  51.20  27
        15    182.8542   1022.8193 299.8970710 +22.7193035     1305.956     61.06952      4.102    10.35     80.99847     20.46779     69.72926        31     2.398     1.245 -25.22  27
        16    179.7660   1020.8009 299.8967678 +22.7177978     1249.201     69.72039      2.833     9.29     79.58166     20.46779     57.18134        25     2.640     0.913 -32.97  19
        17    132.9423   1013.7751 299.8845018 +22.7017247     5520.565     72.54727     13.730    63.66     59.89536     20.46779     123.7151      1256    14.143     7.951  30.83  27
        18    127.5906    967.0292 299.8980473 +22.6867206     5310.009     72.54727     23.628    83.73     30.99135     20.46779     103.8117      3441    19.166    15.808 -13.92  27
        19    200.8932    972.6828 299.9189904 +22.7103488     1073.517     72.71339      4.764     4.93     45.57798     20.46779     37.88987         5     1.035     0.664  60.48   2
        20    193.9413    968.9155 299.9180550 +22.7071818     1782.002     72.65806      6.197     9.98     42.74434     20.46779     51.39115        29     1.868     1.811  37.90   2
        21    701.9067    967.9037 300.0764567 +22.8593119     6826.006     72.73182      1.876     4.08      2.76801     20.46779     424.1889        47     1.495     1.401  37.21   0
        22    223.5417   1012.1205 299.9131998 +22.7284529     3407.794     72.60268      7.909    28.04     73.20596     20.46779     68.70395       319     6.077     5.014  57.88  25
        23    581.5261    962.3673 300.0407649 +22.8216162     603.4536     72.52879      2.460     8.36     2.591748     20.46779     36.18673        14     1.840     1.062  30.38   0
        24    201.4516   1021.3641 299.9033251 +22.7244702     621.5253     67.75055      4.077    11.18     79.58166     20.46779     32.53441        15     2.930     1.187  21.69  26
        25    610.2326    958.5111 300.0509585 +22.8291209     1575.675     72.51031      1.830     4.38      2.62172     20.46779     102.3982        24     1.265     1.201  51.91   0
        26    159.9964    999.6962 299.8974903 +22.7058131     946.6348     72.45482      7.592     9.96     64.24245     20.46779     46.95748        19     2.048     1.349  84.83   1
        27    787.7670    955.2516 300.1073266 +22.8814283     171.1425     72.56575      1.257     4.70     2.805851     20.46779     39.96918         6     1.195     0.525  65.75   0
        28    504.2257    955.0870 300.0190684 +22.7963378     1165.798     72.49181      1.868     3.97     2.654288     20.46779     92.91388        18     1.251     0.989   1.47   0
        29    434.8683    953.0121 299.9981582 +22.7749327     6687.041     72.54727      1.775     3.78     2.995613     20.46779     542.2257        44     1.419     1.378 -78.24   0
        30    216.7669    988.1914 299.9188794 +22.7195598     1379.911     72.54727      3.605    10.21     56.20413     20.46779     49.97467        31     2.184     1.331 -29.30   3
        31    215.0393    984.2206 299.9196341 +22.7179029     1157.864     72.58422      5.440     9.71     53.37049     20.46779     47.86306        21     1.903     1.383  70.08   3
        32    174.1199    940.0975 299.9212685 +22.6929704     1153.109     72.67651     10.378    11.10     22.20045     20.46779     40.60415        19     2.865     1.198  -1.08   3
        33    218.0523    993.8359 299.9174425 +22.7215637     1743.767     72.56575      4.102    10.40     60.45459     20.46779     51.70852        30     2.094     1.616 -52.07   3
        34    127.2738    930.3551 299.9098785 +22.6761138     3961.724     72.52879     18.894    51.32     10.16175     20.46779     86.71759       852    10.916     6.695 -29.49   3
        35    975.7254    984.1136 300.1565378 +22.9460633     670.3194     72.65806      1.977     5.69     2.607262     20.46779      45.1157        11     1.216     0.750 -63.79   2
        36    631.0607    928.4594 300.0672212 +22.8267452     313.1971     72.60268      1.645     5.27     2.721276     20.46779     32.65287         8     1.089     0.721  88.03   0
        37    467.6839    939.9578 300.0126168 +22.7810345     463.6994     72.51031      1.647     5.55     2.805612     20.46779     39.47914        10     1.016     0.853  58.10   0
        38    663.7143    925.6578 300.0783029 +22.8357345     308.9439     72.65806      1.799     4.06     2.868179     20.46779     32.15151         5     1.012     0.466   5.84   0
        39    770.5410    920.7221 300.1131913 +22.8663519     853.5381     72.58422      2.212     7.73     2.998302     20.46779     46.79989        18     1.451     1.233   5.89   0
        40    804.7560    915.0606 300.1256962 +22.8749852      1133.75     72.56575      1.865     4.55     3.036104     20.46779     68.32845        22     1.327     1.113  80.07   0
        41    582.3683    915.2891 300.0563421 +22.8083615     412.3606     72.51031      1.521     3.63     2.712324     20.46779     44.36002         5     0.900     0.422  43.77   0
        42    783.5678   1001.4880 300.0909738 +22.8934396     697.5379     72.51031      2.016     6.03     2.467297     20.46779     58.16015        15     1.215     0.955 -12.18   0
        43     14.5049    911.2583 299.8810553 +22.6367811     459.9667     72.62115      1.733     6.42     3.309572     20.46779     48.60533        12     1.337     0.867  42.33   0
        44    827.1207    908.5795 300.1347754 +22.8798296      11558.6     72.54727      1.804     3.90     3.059114     20.46779     733.3632        55     1.462     1.452  24.14   0
        45   1019.3391    909.6663 300.1943636 +22.9377559     376.9004     72.58422      1.999     3.80     3.091128     20.46779     26.66061         5     0.890     0.465  78.76  18
        46    872.3284    908.0320 300.1490466 +22.8932247     485.2492     72.54727      1.817     6.45     3.099039     20.46779     43.54943        11     1.495     0.781 -78.45   0
        47    194.1366    905.4106 299.9387724 +22.6890353     633.4218     72.49181      5.593     5.10     11.13972     20.46779     27.53034         5     1.057     0.697 -65.66   0
        48    981.2864    931.8689 300.1752705 +22.9327281     2282.947     72.65806      2.044     5.22      2.80292     20.46779     113.6049        32     1.550     1.356   4.46   0
        49    138.3432    899.8902 299.9232269 +22.6707043      1149.51     72.60268      8.547     8.87     8.360404     20.46779     85.38628        25     2.256     1.199  27.24   0
        50    532.6194    896.7598 300.0468800 +22.7881226     605.5039     72.56575      2.010     6.14     2.849924     20.46779     48.31459        12     1.554     0.838  12.65   0
        51    879.3174    896.1111 300.1551031 +22.8918970     339.2186     72.65806      1.577     5.32     3.144643     20.46779     41.09241         8     1.179     0.676  22.74   0
        52    835.8672    890.5150 300.1433776 +22.8772654     1348.001      72.6396      1.806     4.36     3.079246     20.46779     91.14989        24     1.305     1.191 -28.07   0
        53   1017.3723    889.0004 300.2004722 +22.9312311     365.8196     72.51031      2.088     4.79     3.396652     20.46779     29.72465         5     1.352     0.482  56.33  18
        54    687.3470    887.6921 300.0980137 +22.8319257     556.9772     72.60268      1.840     4.84     2.978409     20.46779     35.86962         9     1.146     0.578 -45.01   0
        55    873.7173    884.0104 300.1572930 +22.8867439     798.6943     72.51031      1.729     5.29     3.167362     20.46779     55.99694        15     1.183     0.987  19.39   0
        56    212.9602    882.9605 299.9519251 +22.6882488     650.5964     72.62115      7.296     7.61     8.276809     20.46779     28.32782        11     1.625     0.997 -87.90   0
        57    981.4126    880.3321 300.1920741 +22.9179653     388.4584     72.56575      1.575     3.40     3.506351     20.46779     29.94678         5     1.097     0.305 -68.49   0
        58    922.1423    875.3593 300.1752061 +22.8987742     360.4622     72.52879      1.614     5.98     3.498361     20.46779     37.71785        10     1.119     0.898   1.50   0
        59    773.4668    874.4563 300.1291516 +22.8539481     741.5486     72.60268      1.747     5.06     3.000576     20.46779     58.31552        16     1.166     1.060  40.88   0
        60     22.1801   1004.5588 299.8530894 +22.6658212     474.8424     72.58422      3.063     4.92   -0.4414036     20.46779     32.11362         5     1.043     0.656  65.16   0
        61    785.2150    871.5233 300.1337668 +22.8566282     601.8231     72.56575      1.604     3.66      3.01422     20.46779     76.66995        13     1.174     0.874  33.64   0
        62    486.1862    870.7692 300.0408792 +22.7667371     4266.742     72.54727      1.606     3.28     3.024689     20.46779     414.7332        31     1.261     1.211  18.94   0
        63    264.8922    859.6511 299.9756511 +22.6971510     328.5588     72.60268      1.612     5.05     4.587912     20.46779     45.06108         7     1.284     0.561 -18.26   0
        64    529.2699    858.4603 300.0582930 +22.7761289     336.7168     72.58422      1.300     3.39     3.066103     20.46779     48.04128         5     0.776     0.429 -23.14   0
        65    211.6903    856.1785 299.9602394 +22.6801885     696.3605     72.47332      1.468     3.69     5.587162     20.46779     77.55207        12     1.051     0.842 -17.38   0
        66    188.3673    853.3329 299.9539146 +22.6723725     1510.186     72.54727      1.761     4.04     5.308601     20.46779     128.5549        23     1.331     1.104  14.39   0
        67    120.4405    854.3406 299.9324758 +22.6522722      301.778     72.54727      1.305     3.43     4.507045     20.46779     39.12137         5     0.737     0.462  71.62   0
        68    740.2391    845.4467 300.1282315 +22.8356583     4575.079     72.60268      0.868     2.88     2.950834     20.46779     1725.458        10     0.980     0.356 -62.16   0
        69     64.0266    843.6806 299.9184136 +22.6322810     317.8115     72.52879      1.430     3.26     3.893999     20.46779     37.11134         7     0.708     0.700 -55.00   0
        70   1014.5991    841.1072 300.2151834 +22.9166435      2097.48     72.43631      1.874     4.36     3.744793     20.46779     122.1523        28     1.345     1.279  22.85   0
        71    719.9136    840.8203 300.1234029 +22.8282364      556.314     72.47332      1.729     4.68     2.945474     20.46779     39.07149         7     0.997     0.625 -74.30   0
        72    797.9857    834.7139 300.1497175 +22.8498885     573.9564     72.49181      1.659     5.63     2.979756     20.46779     49.68523        14     1.168     0.924  15.54   0
        73    220.5600    834.8059 299.9699462 +22.6767219     441.0163     72.58422      1.485     4.90     4.973993     20.46779     43.56679         9     1.268     0.654  41.22   0
        74    666.1362    828.8965 300.1105268 +22.8086896     5064.784      72.6396      1.561     3.09     2.919041     20.46779     466.1393        36     1.268     1.217 -80.32   0
        75    155.9449    829.8569 299.9514703 +22.6559099     365.2567     72.60268      1.532     5.03     4.527479     20.46779     41.67689         9     1.004     0.713   0.22   0
        76    468.5676    826.0155 300.0499485 +22.7486118     581.0374     72.52879      1.402     2.77     3.279371     20.46779     82.16142        11     0.930     0.801  26.88   0
        77    216.2171    822.6864 299.9725365 +22.6719432     1441.952     72.49181      1.683     3.67     4.568202     20.46779     146.9437        21     1.235     1.128  54.35   0
        78    686.9414    821.3878 300.1194493 +22.8127723     659.8937     72.51031      1.608     3.54     2.884464     20.46779     59.94423        14     1.136     0.820  -1.69   0
        79    484.8505    820.6634 300.0567565 +22.7519603     224.7414     72.60268      1.297     3.48     3.240686     20.46779     33.16746         5     0.803     0.436  15.61   0
        80    235.4217    819.8809 299.9794193 +22.6769020     444.4768     72.51031      1.654     4.05     4.374211     20.46779     44.70234         7     1.034     0.701 -53.73   0
        81    842.2479    808.6929 300.1719753 +22.8556841     4092.776     72.56575      1.605     3.39     3.297313     20.46779     342.0375        29     1.243     1.149  38.23   0
        82    573.6896    805.4247 300.0893676 +22.7742315     307.3664     72.49181      1.348     3.45     3.110484     20.46779     33.19144         5     0.768     0.447 -19.73   0
        83    250.7345    802.7639 299.9897452 +22.6765882     509.9288     72.54727      1.599     4.01     3.831105     20.46779     57.67465         9     1.107     0.857  11.75   0
        84    559.1890    800.8830 300.0863293 +22.7685795     663.6215     72.51031      1.537     3.87     3.114976     20.46779     59.17606        16     1.215     0.892  22.06   0
        85    205.4534    799.0888 299.9768622 +22.6619460     887.2396     72.56575      1.675     3.83     3.876929     20.46779      103.514        18     1.264     0.985 -36.66   0
        86    620.7780    794.2687 300.1076581 +22.7851497     587.6393     72.54727      1.726     4.89     3.099963     20.46779     54.42419        11     1.221     0.962  74.37   0
        87    355.1726    791.1313 300.0260073 +22.7045872     53621.34     72.52879      1.573     3.06     3.484957     20.46779      5633.63        92     1.434     1.349  19.81   0
        88    613.0131    790.2388 300.1065500 +22.7816647     1628.936     72.56575      1.435     3.14     3.164499     20.46779     152.5967        20     1.066     1.031  35.74   0
        89    283.4469    788.8459 300.0044418 +22.6824121     443.7662     72.56575      1.459     3.18     3.707031     20.46779     55.81984         9     0.937     0.759  49.50   0
        90    642.1133    786.4501 300.1168448 +22.7893026      833.985     72.54727      1.432     3.06     3.048932     20.46779     85.98174        14     0.953     0.924 -10.00   0
        91      9.1288    785.7286 299.9202007 +22.5991880     678.8544     72.60268      1.772     4.05     4.159985     20.46779     70.94263        11     1.342     0.669  83.44   0
        92     41.1198    785.4744 299.9302204 +22.6087187     805.1312     72.65806      1.882     4.65     3.951542     20.46779     70.75385        16     1.257     1.102  46.83   0
        93    652.9637    784.8212 300.1207540 +22.7920882      555.966     72.56575      1.446     3.60     3.002126     20.46779     60.31947        12     1.010     0.824 -30.19   0
        94    758.2262    780.9510 300.1548069 +22.8225336     517.8375     72.56575      1.846     5.65     2.952276     20.46779     43.99795         8     1.199     0.750 -13.44   0
        95    795.8713    771.2371 300.1696970 +22.8310281     797.0364     72.52879      1.515     3.37     3.043339     20.46779     76.11518        13     1.018     0.861  73.72   0
        96    404.9099    768.3654 300.0488816 +22.7129762     31473.52     72.51031      1.523     2.97     3.484957     20.46779     3025.997        72     1.357     1.309  26.98   0
        97    928.0049    764.4393 300.2131017 +22.8686740     2873.705     72.56575      1.645     3.45     3.757109     20.46779     213.1683        29     1.228     1.225 -58.65   0
        98    415.9096    762.8113 300.0541096 +22.7146820     683.4886     72.49181      2.047     3.26     3.484957     20.46779     61.09741         9     0.985     0.799 -20.49   0
        99    685.8666    760.3331 300.1389641 +22.7949226     832.1553     72.60268      1.391     3.38     3.043343     20.46779     84.84567        11     0.943     0.793 -29.11   0
       100    287.3593    760.0208 300.0150285 +22.6753178     836.1622     72.58422      1.591     3.83     3.696761     20.46779     95.37777        14     1.196     0.849  26.35   0
       101    522.5118    760.3663 300.0880822 +22.7459524     446.3253     72.51031      1.384     3.81      3.42455     20.46779     52.65394         7     0.912     0.551 -32.86   0
       102    580.3256    758.5982 300.1066569 +22.7627814     201.7964     72.45482      1.330     4.25     3.392076     20.46779     36.16771         5     0.792     0.732  59.30   0
       103    533.0733    755.2781 300.0930240 +22.7476593      717.452     72.65806      1.328     3.12     3.445296     20.46779     76.48167        13     1.039     0.796 -12.71   0
       104     92.0148    755.7571 299.9556918 +22.6154755     498.9413     72.56575      1.652     5.79     3.620027     20.46779      43.3472        11     1.113     0.848  61.05   0
       105    934.1005    752.4075 300.2189140 +22.8670442     475.2803     72.43631      1.353     3.71     3.759542     20.46779     55.38886        11     0.991     0.750  66.66   0
       106    681.5873    752.2564 300.1402565 +22.7913209      416.653     72.54727      2.690     5.63     3.099074     20.46779     37.87169         7     1.428     0.626 -56.18   0
       107    419.1516    768.8682 300.0531495 +22.7173923     1977.804     72.54727      1.542     2.99     3.483572     20.46779     235.2927        22     1.151     1.042  33.26   0
       108    479.0971    749.8507 300.0779864 +22.7299147     514.5302     72.62115      1.400     3.97     3.499931     20.46779     56.91823         9     1.055     0.668 -81.24   0
       109    120.1044    748.8406 299.9666682 +22.6219227     532.4249     72.54727      2.157     6.38     3.588814     20.46779     40.33037        11     1.366     0.837  49.01   0
       110    435.0420    751.6321 300.0636968 +22.7172129     296.6203     72.60268      1.187     3.41     3.487535     20.46779     40.34026         5     0.765     0.440 -18.31   0
       111    912.0838    747.0055 300.2138041 +22.8588955      230.755     72.47332      1.393     4.87     3.759735     20.46779     39.63679         8     1.243     0.790 -58.88   0
       112    285.0747    744.3643 300.0194069 +22.6701412     528.8503     72.49181      1.515     4.40     3.704466     20.46779     51.56028         7     0.795     0.693   1.53   0
       113    608.4053    735.1949 300.1230081 +22.7644828     514.2993     72.39929      1.336     2.84     3.533374     20.46779     64.81028         8     0.934     0.548 -66.40   0
       114    577.9214    733.2944 300.1141331 +22.7547973     606.6584     72.67651      1.404     3.54     3.560268     20.46779       66.468        11     0.989     0.761 -34.96   0
       115    487.3567    732.7660 300.0861103 +22.7274887     436.5287     72.60268      1.835     3.24     3.544222     20.46779      35.2605         6     0.728     0.631  29.58   0
       116    994.3738    729.6789 300.2451018 +22.8785727     4483.977     72.54727      1.692     3.63     3.360552     20.46779     337.5412        35     1.287     1.284 -33.57   0
       117    599.9120    730.6882 300.1218280 +22.7606426     1260.516     72.71339      1.418     2.80     3.566743     20.46779     158.8521        20     1.070     0.985 -66.46   0
       118    519.6033    730.5562 300.0968662 +22.7365245     217.8273     72.56575      1.266     3.76     3.563422     20.46779     44.14073         7     0.855     0.687  76.98   0
       119    681.7744    725.6578 300.1489604 +22.7837403      223.239     72.54727      1.130     2.75     3.205172     20.46779     43.03658         5     0.716     0.457  13.50   0
       120    982.9942    721.2355 300.2442965 +22.8727378     1665.899     72.56575      1.566     3.42     3.439385     20.46779     130.9985        23     1.217     1.091 -74.62   0
       121    345.8159    714.8270 300.0478986 +22.6798891     949.0928     72.56575      1.496     3.03     3.516301     20.46779     107.6019        15     1.073     0.930 -80.45   0
       122    361.9720    714.8484 300.0529174 +22.6847415      303.106     72.56575      1.438     4.39     3.479822     20.46779     36.54332         6     1.233     0.445  55.95   0
       123    809.3732    712.3773 300.1930379 +22.8181711      2466.28     72.52879      1.595     3.12     3.312464     20.46779     227.4086        30     1.526     1.011  13.16   0
       124   1014.0193    711.1639 300.2572485 +22.8791381     1761.579     72.56575      1.705     3.71     3.215341     20.46779     126.5054        25     1.255     1.182  55.80   0
       125     32.3536    702.3434 299.9545152 +22.5822536     772.2361     72.58422      1.681     3.08     4.447639     20.46779     78.34864        12     1.071     0.727  84.69   2
       126    194.9710    698.6116 300.0062610 +22.6299835     512.3417     72.54727      1.450     2.58     3.815133     20.46779     78.54433         8     0.845     0.649  57.93   0
       127    891.6823    698.2333 300.2232949 +22.8387724     617.6472     72.51031      1.690     4.72     3.806716     20.46779     58.93977        12     1.328     0.697  14.23   0
       128    474.3991    698.2056 300.0933093 +22.7136841     264.7724     72.36225      1.767     5.08     3.528065     20.46779     28.17701         5     1.012     0.720  -8.57   0
       129    927.7155    689.2805 300.2374409 +22.8469962     148530.5     72.69495      1.593     3.08     3.842528     20.46779     13615.58       162     1.485     1.456   6.82   0
       130    690.4045    693.2464 300.1621826 +22.7770208      493.509     72.52879      1.604     4.61     3.243881     20.46779     47.41383         8     0.907     0.666  27.64   0
       131    780.0585    689.6577 300.1912849 +22.8028607     768.1783     72.62115      1.455     2.99     3.246657     20.46779     81.75913        14     0.955     0.923 -52.04   0
       132    960.4229    681.8918 300.2500430 +22.8546719     400.9484     72.47332      1.693     5.45     3.614637     20.46779     49.71328        11     1.284     0.913  37.24   0
       133    613.9480    677.9714 300.1433315 +22.7497163     1757.537     72.56575      1.422     3.00     3.936909     20.46779      185.283        24     1.148     1.026  67.00   0
       134    795.1827    675.4340 300.2006210 +22.8033079     9439.504     72.52879      1.444     2.66     3.315187     20.46779     1020.963        42     1.214     1.181  58.51   0
       135    276.6500    677.4601 300.0385294 +22.6484205     249.2226     72.60268      1.455     4.45     3.914872     20.46779     41.94931         5     1.312     0.430 -41.27   0
       136    296.6241    670.4072 300.0470327 +22.6523887     4780.087     72.54727      1.482     2.91     3.877908     20.46779     528.2889        32     1.223     1.112  26.35   0
       137     10.3594    668.8867 299.9585542 +22.5660592     1473.255     72.52879      1.684     3.34     4.616379     20.46779     185.8849        24     1.285     1.143  33.47   0
       138    378.7701    668.4271 300.0732282 +22.6764593     1304.909     72.54727      1.494     3.19     3.473062     20.46779     136.8369        18     1.118     0.954 -73.01   0
       139    254.4311    665.9257 300.0353680 +22.6384460     523.1125     72.56575      1.403     3.62     3.944834     20.46779      64.6226        13     1.037     0.915  87.13   0
       140    586.9994    664.0914 300.1394495 +22.7376526     670.0407      72.4178      1.353     3.09     3.974185     20.46779     87.67269        11     0.969     0.724  65.69   0
       141    578.7128    656.1735 300.1394418 +22.7328952     3150.326     72.52879      1.326     2.49     3.979137     20.46779     414.8963        23     1.019     0.997  14.87   0
       142    568.8372    650.0032 300.1383716 +22.7281630     1395.823     72.58422      1.353     2.45     3.965115     20.46779     204.7187        18     0.987     0.938  26.86   0
       143    962.3530    647.7205 300.2617492 +22.8454315     479.0684     72.56575      1.573     4.73      3.72453     20.46779     50.83318        12     1.094     0.920  48.66   0
       144    480.0231    647.2716 300.1116102 +22.7007511     330.3399     72.58422      1.780     4.06     3.615893     20.46779     37.52781         5     0.814     0.578  87.05   0
       145    232.2732    646.0809 300.0349261 +22.6261056     739.7798     72.65806      1.542     2.90     4.016679     20.46779     98.09758        10     0.959     0.737  -9.68   0
       146    246.7319    644.6428 300.0398888 +22.6300304      449.566     72.52879      1.275     3.61     4.005447     20.46779     71.26976         9     0.976     0.680 -45.92   0
       147   1015.7017    641.1926 300.2805122 +22.8595351     552.6184      72.4178      1.609     5.58     3.482942     20.46779      58.2392        11     1.113     0.828  63.93   0
       148    303.7502    641.6974 300.0585770 +22.6462886     367.0479     72.62115      1.174     3.37     3.907921     20.46779      47.6372         5     1.056     0.312 -54.29   0
       149    493.6609    639.6862 300.1183196 +22.7026628     1816.852      72.6396      1.403     2.39     3.693513     20.46779     265.0074        20     1.061     0.965 -83.98   0
       150    272.4329    641.3809 300.0489404 +22.6368041     365.6153     72.54727      1.259     3.21     3.988942     20.46779     61.35058         9     1.039     0.602  14.56   0
       151    592.9641    640.5089 300.1489693 +22.7326699     383.4078     72.52879      1.074     2.14     4.121387     20.46779     64.09976         6     0.731     0.498   4.26   0
       152    147.6303    634.5778 300.0123513 +22.5974122     19705.33     72.54727      1.605     3.09     3.927274     20.46779     2185.107        59     1.375     1.276  31.64   0
       153     68.7015    636.2385 299.9872850 +22.5742056     616.3882     72.54727      1.576     4.00     4.237399     20.46779     75.67667        12     1.172     1.015  35.19   0
       154    578.5072    634.8160 300.1463171 +22.7267016     1195.045     72.47332      1.497     2.85     4.089893     20.46779     145.4169        15     1.023     0.874  41.92   0
       155    614.0522    634.4515 300.1575046 +22.7372520     320.8335     72.58422      1.098     2.33     4.207099     20.46779     47.91993         6     0.743     0.495  -4.88   0
       156    633.5696    627.3689 300.1658844 +22.7410685     205.6272     72.54727      1.162     3.91     4.185395     20.46779     31.65451         6     0.907     0.483   0.09   0
       157    331.5905    626.7968 300.0720770 +22.6503629     223.4449     72.36225      1.290     4.88      3.87396     20.46779     32.69447         5     1.119     0.603  23.93   0
       158    996.6452    621.5069 300.2809633 +22.8481701     1096.601     72.56575      1.607     3.88     3.724069     20.46779     99.77511        18     1.137     1.079  67.73   0
       159     93.5965    618.9360 300.0006409 +22.5767132     1501.626     72.52879      1.899     5.01     4.211815     20.46779     120.4573        26     1.552     1.204 -83.87   0
       160    863.5391    619.6525 300.2400543 +22.8077654     532.4136     72.60268      1.317     3.09     3.896657     20.46779     63.49206        11     1.083     0.677  26.44   0
       161    159.7209    619.0754 300.0211452 +22.5965927     446.1336     72.65806      1.570     5.73     3.933866     20.46779     44.46419        11     1.073     0.974  62.06   0
       162    542.0953    615.8019 300.1411570 +22.7103270     535.7631     72.45482      1.355     4.28     4.026505     20.46779     63.17012         9     1.026     0.735 -46.37   0
       163    936.7994    614.0680 300.2647132 +22.8281071     936.9286     72.51031      1.923     3.59     3.967453     20.46779     69.93098        13     1.077     0.830  47.11   2
       164    334.7009    614.8553 300.0769238 +22.6478690     362.0219      72.6396      1.340     3.30     3.932895     20.46779     48.56491         7     0.986     0.517  15.99   0
       165    681.4969    612.7708 300.1855561 +22.7512409     223.6393     72.47332      1.025     3.36     4.237603     20.46779     39.95835         5     0.752     0.435  66.22   0
       166    498.7405    607.9829 300.1302003 +22.6950847     841.5388     72.49181      1.298     2.42     3.829324     20.46779     111.8383        11     0.939     0.679  15.53   0
       167    646.7625    606.7053 300.1767066 +22.7390888     547.6017     72.52879      1.228     2.00     4.356695     20.46779     89.50211         8     0.796     0.584 -80.61   0
       168    693.8975    604.8664 300.1919872 +22.7526871     470.6188      72.6396      1.173     2.35     4.217828     20.46779     71.20856         8     0.788     0.645 -36.32   0
       169    664.2293    604.6777 300.1828061 +22.7437415     516.1916     72.54727      1.316     3.79     4.357532     20.46779     64.23643        10     0.937     0.817  63.27   0
       170    542.9105    603.8948 300.1452789 +22.7071527     982.6085     72.73182      1.543     3.19     4.078822     20.46779     107.6213        16     1.087     0.943  26.21   0
       171    729.5547    603.2465 300.2036232 +22.7629073     222.9114     72.58422      0.995     2.98     3.988552     20.46779     37.45103         5     0.713     0.475 -73.99   0
       172    976.7566    599.3209 300.2819669 +22.8358374     3242.622     72.52879      1.503     3.04     3.869935     20.46779     331.8264        28     1.210     1.133  30.00   0
       173    508.5652    599.1627 300.1361238 +22.6954979     1707.412     72.62115      1.284     2.48      3.89685     20.46779      238.799        18     1.080     0.843  46.54   0
       174    483.2396    594.3685 300.1297979 +22.6865290     326.0105     72.58422      1.411     4.19     3.755814     20.46779     38.69435         6     0.761     0.657 -45.03   0
       175     70.4111    592.7564 300.0019406 +22.5622476     5025.017     72.54727      1.657     3.10     4.314902     20.46779     576.8929        37     1.352     1.203  25.73   0
       176    537.8058    589.8780 300.1482428 +22.7015980     280.3398     72.45482      1.123     2.06     4.075976     20.46779     56.52191         6     0.722     0.528  41.52   0
       177   1016.1780    589.4595 300.2974684 +22.8448096     380.5995     72.52879      1.781     3.09     3.789146     20.46779     34.50865         5     0.734     0.453  21.01   0
       178    371.8369    585.8624 300.0978940 +22.6506847     9189.108     72.56575      1.403     2.70     3.898442     20.46779     1208.436        37     1.205     1.085  29.82   0
       179    494.2727    582.9393 300.1369446 +22.6865555     8829.184     72.58422      1.329     2.39     3.831472     20.46779     1196.456        37     1.140     1.079  16.57   0
       180    259.3148    580.6653 300.0645841 +22.6154480     355.9434     72.62115      1.386     3.48     4.050712     20.46779     46.43056         5     0.764     0.458 -10.84   0
       181    740.7657    579.5936 300.2148001 +22.7594726      134.767     72.54727      0.926     3.45      4.06794     20.46779     33.93979         5     0.762     0.453  18.12   0
       182    905.9767    577.1712 300.2670872 +22.8082720     1820.958     72.54727      1.334     2.78     3.910247     20.46779     209.3654        21     1.018     1.004  10.09   0
       183    990.7081    574.4063 300.2944125 +22.8328554      12551.7     72.45482      1.547     2.85     3.835999     20.46779     1319.434        51     1.311     1.255  87.59   0
       184    554.9109    572.5444 300.1591987 +22.7017485     11512.65     72.58422      1.326     2.35      4.18061     20.46779     1684.133        44     1.163     1.084  65.19   0
       185    724.5140    568.4860 300.2133440 +22.7514123     513.4502     72.67651      1.351     2.55     4.190972     20.46779     64.94699         8     0.900     0.564  43.07   0
       186    282.4023    567.8822 300.0759155 +22.6187041     1312.577     72.45482      1.412     2.64     4.018859     20.46779     191.1544        17     1.176     0.862  48.01   0
       187    440.3112    567.1177 300.1252886 +22.6658355     309.3164     72.65806      1.320     3.57     3.762422     20.46779       39.985         8     0.941     0.610  29.34   0
       188    529.3128    565.5854 300.1534892 +22.6920771     485.2157     72.49181      1.436     3.28     4.064093     20.46779     50.74481         9     0.900     0.716   5.64   0
       189    486.5458    560.8105 300.1417269 +22.6778859     4432.107     72.54727      1.299     2.29     3.814609     20.46779     658.7901        27     1.064     1.014  16.15   0
       190    829.3082    560.6869 300.2485375 +22.7805690     826.6273     72.71339      1.395     3.27     3.889227     20.46779      100.691        15     1.142     0.826  47.07   0
       191    464.8219    559.0775 300.1355282 +22.6708757      1229.36     72.54727      1.340     2.71     3.777495     20.46779     170.7815        18     1.029     0.950  81.35   0
       192    219.3679    558.3220 300.0594202 +22.5970552     715.0452     72.52879      1.332     3.40     4.020448     20.46779      85.1869        14     1.132     0.806  43.21   0
       193    906.4848    556.3824 300.2739982 +22.8024503     1676.002     72.51031      1.458     2.91     3.871528     20.46779     184.0998        20     1.120     0.970  -9.44   0
       194    152.9805    556.1055 300.0395030 +22.5765058     269.5077     72.47332      1.347     4.71     3.862679     20.46779     38.57299         8     1.000     0.630  59.04   0
       195    603.2184    548.2941 300.1821176 +22.7092637       201577     72.47332      1.323     2.38     4.341134     20.46779     24468.46       197     1.423     1.366   4.89   0
       196    427.0996    554.8288 300.1251684 +22.6583467     388.3153     72.45482      1.530     2.22      3.77828     20.46779     56.39617         5     0.729     0.487  58.38   0
       197    786.8857    553.2921 300.2377161 +22.7657353     901.0979     72.71339      1.370     2.97     3.979941     20.46779     110.5507        13     1.019     0.791 -22.41   0
       198    856.7484    549.6602 300.2606735 +22.7856207     304.7118     72.60268      1.289     3.65     3.862177     20.46779     37.55489         5     0.872     0.441  46.83   0
       199    289.2072    548.2242 300.0844161 +22.6151035     3445.189     72.54727      1.364     2.61     4.013279     20.46779      392.399        26     1.093     1.053  51.99   0
       200    855.2478    544.6014 300.2618487 +22.7837176      533.555     72.54727      1.524     3.23     3.860079     20.46779     60.02583         9     0.996     0.627  27.53   0
       201    469.2432    545.3391 300.1413662 +22.6682569     355.0241     72.54727      1.408     3.73     3.793953     20.46779     43.72535         5     0.957     0.418  15.00   0
       202    873.9319    542.8950 300.2682283 +22.7888239     322.0193     72.69495      1.360     3.50     3.849198     20.46779     42.73653         5     0.978     0.360  56.33   0
       203    493.7841    528.5660 300.1544519 +22.6707977     2736.998     72.52879      1.332     2.30     3.853363     20.46779      376.231        20     1.037     0.909  69.01   2
       204    338.2026    531.1524 300.1051993 +22.6248960     446.9244     72.54727      1.405     3.11     3.985635     20.46779     57.58433         7     0.807     0.748  -7.90   0
       205    943.1037    528.9846 300.2943167 +22.8055439     247.9819     72.45482      1.355     3.76     3.825389     20.46779     37.87626         5     0.693     0.584   0.66   0
       206    905.6306    524.9474 300.2839414 +22.7931606      493.118     72.56575      1.607     3.67     3.829988     20.46779     47.18092         8     0.984     0.593  31.80   0
       207    810.8576    517.3219 300.2568700 +22.7625818     374.6502     72.58422      1.281     3.35     3.849691     20.46779     51.82555         9     0.903     0.678  72.25   0
       208    890.8494    514.8311 300.2826175 +22.7858262      1730.66     72.58422      1.431     2.46     3.819898     20.46779     228.0991        23     1.159     1.049  67.52   0
       209    777.5674    514.7016 300.2473448 +22.7518562     215.8252     72.52879      1.325     3.92     3.969205     20.46779     38.17339         5     1.027     0.427  74.44   0
       210    762.0160    512.5287 300.2432037 +22.7465730      2612.62     72.54727      1.292     2.29     4.045795     20.46779     380.1674        22     1.027     0.966 -38.20   0
       211     20.5576    513.3068 300.0122540 +22.5245008     809.0807     72.56575      1.892     4.44     4.184871     20.46779     71.60811        14     1.106     0.938 -50.08   0
       212   1006.6871    509.9907 300.3203189 +22.8191249     451.6588     72.47332      1.344     2.02     3.736603     20.46779     74.13831         7     0.686     0.627 -22.30   2
       213   1005.2537    505.9444 300.3211857 +22.8175325     800.9112     72.58422      1.615     3.50     3.728125     20.46779     85.90632        12     1.148     0.734  61.27   3
       214    971.8757    509.6733 300.3095624 +22.8086096     299.2784     72.62115      1.210     3.49     3.770919     20.46779     38.39151         5     0.796     0.442  13.73   0
       215    666.7149    509.3585 300.2145393 +22.7171088     424.7017     72.51031      1.111     2.43     4.275342     20.46779     79.96233         8     0.893     0.563  20.66   0
       216    549.1217    508.2386 300.1782804 +22.6815472     683.1674     72.52879      1.267     2.76     3.955268     20.46779     93.82343        10     0.936     0.677  77.58   0
       217   1019.3331    506.6673 300.3253435 +22.8219561     1416.824     72.60268      1.655     3.02     3.716169     20.46779     132.5633        20     1.243     0.956 -38.29  16
       218    891.0922    504.9620 300.2858981 +22.7830626      2318.86     72.54727      1.605     3.83     3.809449     20.46779     220.9588        28     1.425     1.041  75.10   0
       219    644.3583    503.1798 300.2095816 +22.7086349     575.1361     72.58422      1.204     2.70     4.242823     20.46779     74.75407        10     0.991     0.622  21.29   0
       220    483.0407    501.5400 300.1598838 +22.6598172     450.3127     72.54727      1.364     2.80     3.797072     20.46779     56.55739         8     0.853     0.648  53.11   0
       221    929.3522    499.9779 300.2994478 +22.7930885     4350.833     72.56575      1.441     2.75     3.802172     20.46779      490.273        30     1.152     1.094 -19.68   0
       222    643.9993    498.9159 300.2108543 +22.7073026      412.891     72.43631      1.383     5.41     4.230781     20.46779     52.47481         9     1.057     0.780  59.77   1
       223    570.0541    499.4136 300.1876637 +22.6852863     401.4763     72.54727      1.689     3.81     4.002797     20.46779     38.97901         6     0.850     0.601  40.27   0
       224    589.9148    496.0153 300.1949517 +22.6902622     363.8998      72.5103      1.413     3.10     4.093919     20.46779     45.40623         5     0.944     0.384 -27.39   0
       225   1021.1702    490.6646 300.3311132 +22.8179056      776.036     68.49832      1.362     2.65     3.667213     20.46779     103.3766        12     0.890     0.814 -81.97  16
       226    161.3752    490.1863 300.0635172 +22.5601101     943.6797     72.54727      1.317     2.60     4.000874     20.46779     118.7411        15     1.029     0.877  25.48   0
       227    822.0390    484.1294 300.2711338 +22.7563932     310.3279     72.51031      1.337     3.21     3.791189     20.46779     42.31259         5     0.617     0.609 -49.79   0
       228    153.9122    480.3594 300.0643880 +22.5550519     288.3639     72.52879      1.269     3.52     4.045108     20.46779     54.96794         8     0.936     0.580 -16.86   0
       229   1017.8681    479.3806 300.3337470 +22.8136729     364.8343     72.52879      1.653     3.66     3.627526     20.46779     50.80609         7     1.041     0.697 -15.54  16
       230    761.4703    474.5889 300.2553531 +22.7355086     438.7183     72.56575      1.121     2.54     3.934538     20.46779     65.21906         8     0.908     0.550  49.35   0
       231    370.3269    472.7001 300.1341723 +22.6177483     421.1295     72.69495      1.475     3.83     3.838903     20.46779     41.45691         5     0.958     0.439 -44.60   0
       232    702.6393    470.5453 300.2383340 +22.7167223     886.1372     72.54727      1.276     2.31     4.079684     20.46779     127.5144        15     0.942     0.895  57.04   0
       233    650.3195    472.5063 300.2213981 +22.7016100     369.6666     72.67651      1.445     3.66     4.135283     20.46779     48.77962         7     0.959     0.490   7.00   0
       234     60.6444    464.6187 300.0405147 +22.5225596     310.6484     72.56575      1.666     4.11     4.064073     20.46779     29.47511         5     1.185     0.407  36.81   0
       235    763.3845    462.8311 300.2597672 +22.7327035     851.7006     72.54727      1.289     2.21     3.879836     20.46779     132.5832        14     1.140     0.779 -22.46   0
       236   1017.4654    463.1212 300.3389007 +22.8088779     406.8676     72.65806      1.513     4.15     3.508718     20.46779     57.78952        12     1.188     0.731   3.86  16
       237    920.6785    458.8430 300.3100992 +22.7786675     1051.449     72.52879      1.416     3.05     3.649608     20.46779     127.2244        13     0.965     0.892  42.73   0
       238    904.8469    455.3909 300.3062829 +22.7729344     798.5015     72.56575      1.693     2.98     3.654718     20.46779     79.07863        12     0.934     0.827  62.53   0
       239    649.2906    453.1971 300.2273466 +22.6957548     3343.061     72.45482      1.264     2.34      4.01913     20.46779     407.0149        24     1.086     0.968  66.09   0
       240   1009.8989    452.0874 300.3401224 +22.8034402     538.3206     72.71339      1.488     5.00     3.439099     20.46779     60.37148         9     1.099     0.734  40.61   0
       241    125.4222    444.5197 300.0671680 +22.5362227     352.0513     72.51031      1.535     3.13     4.024146     20.46779      43.1861         7     0.904     0.559 -58.78   0
       242    488.8611    440.4211 300.1815387 +22.6440106     358.6949     72.51031      1.387     3.34     3.706272     20.46779     47.67455         5     0.763     0.423 -23.65   0
       243    932.5050    432.2034 300.3224362 +22.7745511     664.6276     72.45482      1.292     2.74     3.451689     20.46779     81.23815        11     0.949     0.729  27.02   0
       244   1019.1685    431.3250 300.3497550 +22.8002459     1066.097     72.54727      1.538     3.10      3.26372     20.46779     117.5644        15     1.150     0.791   9.76  16
       245    668.8909    429.1078 300.2412724 +22.6947064     269.5168     72.71339      1.312     4.73     3.883721     20.46779     46.90002         7     1.296     0.490  59.56   0
       246    760.0195    427.1613 300.2702985 +22.7214457     1202.858     72.58422      1.315     2.54     3.745944     20.46779     148.2729        16     1.041     0.847  53.98   0
       247    555.6678    427.8465 300.2064191 +22.6604197     328.3434     72.52879      1.043     2.45      3.73754     20.46779     84.73042         8     0.849     0.621  68.18   0
       248    263.8452    425.4796 300.1163809 +22.5722680     599.7328     72.52879      1.382     3.69     3.959132     20.46779     66.33083        12     1.087     0.811 -31.30   0
       249    326.1821    421.0015 300.1372221 +22.5896717     3686.113     72.45482      1.332     2.48     3.912461     20.46779     473.0506        25     1.090     1.002  63.92   0
       250    273.4261    415.8544 300.1224845 +22.5723776      7616.55     72.58422      1.392     2.36     3.996498     20.46779     1119.576        39     1.223     1.084  50.71   0
       251    652.1505    415.3449 300.2405251 +22.6857370     296.0322     72.58422      1.171     3.17     3.808396     20.46779     40.72429         6     0.733     0.626 -67.60   0
       252    414.2633    410.1201 300.1681576 +22.6129506     4858.519     72.65806      1.286     2.27     3.715784     20.46779     624.5398        26     1.046     0.980  41.03   0
       253    658.4136    406.7255 300.2452739 +22.6851369     18648.13     72.56575      1.286     2.28     3.795953     20.46779     2667.757        53     1.213     1.098  60.59   0
       254    505.7351    408.3470 300.1972027 +22.6398558     288.4345     72.58422      1.075     2.74       3.6812     20.46779     48.73184         5     0.747     0.425 -20.48   0
       255    675.9406    406.7578 300.2507235 +22.6903969     855.6872     72.52879      1.948     5.21     3.792348     20.46779     69.90831        16     1.411     0.787 -31.85   0
       256    516.4258    403.8048 300.2020051 +22.6417549      285.728     72.51031      1.696     5.42     3.689381     20.46779     29.51855         6     1.549     0.536 -16.18   0
       257     33.7071    404.3536 300.0517072 +22.4971887     211.3365     72.56575      1.512     4.18     3.899741     20.46779     33.69658         5     1.055     0.474  -4.02   0
       258    901.7267    403.3855 300.3221924 +22.7570509     338.6653     72.54727      1.269     3.95     3.446343     20.46779     35.80923         6     0.877     0.510  42.83   0
       259    855.1865    397.5117 300.3095874 +22.7414263     405.1638     72.49181      1.338     2.54     3.571756     20.46779     49.28512         6     0.750     0.499  -2.66   0
       260    278.3748    394.2234 300.1310442 +22.5676515     276.1057     72.51031      1.127     2.47     3.932962     20.46779     55.77666         8     0.913     0.538 -21.69   0
       261    991.9545    389.3615 300.3548866 +22.7800331     734.0806     72.60268      1.406     3.48     3.218743     20.46779     91.66309        13     1.034     0.860  82.94   0
       262    529.0938    388.7361 300.2108398 +22.6412227     299.6137     72.65806      1.224     3.31     3.700829     20.46779     50.45346         9     0.873     0.731  71.19   0
       263    701.9807    387.9221 300.2649499 +22.6927851     266.7815     72.54727      1.159     2.49     3.763086     20.46779     43.60619         5     0.611     0.589  -3.32   0
       264    213.0858    386.8271 300.1131430 +22.5459534      1925.82     72.54727      1.351     2.56     3.824235     20.46779     254.3919        21     1.052     0.981  52.62   0
       265    599.0684    376.2253 300.2366890 +22.6585948     6555.157     72.52879      1.284     2.25     3.758005     20.46779      909.455        32     1.123     0.988  63.16   0
       266   1012.7914    376.5760 300.3655370 +22.7825943     1332.688     72.54727      1.501     2.62     3.183581     20.46779     166.9743        19     1.090     0.986 -55.25   0
       267    313.8171    375.4288 300.1481669 +22.5728806     664.2251     72.54727      1.284     2.96     3.837902     20.46779     116.1728        12     0.942     0.864  58.92   0
       268    171.5324    368.9758 300.1060181 +22.5283699     446.2022     72.52879      1.196     3.19     4.016017     20.46779      71.9234         8     0.914     0.675  10.07   0
       269    858.8987    368.2077 300.3202559 +22.7341144      395.043      72.4178      1.352     4.13     3.447502     20.46779     46.92824         6     1.064     0.458  27.51   0
       270    712.7709    366.2802 300.2753357 +22.6897981     504.6965     72.56575      1.255     3.14     3.760006     20.46779     79.24006        10     1.128     0.609  48.63   0
       271     18.9556    366.4561 300.0594232 +22.4818902     1238.426     72.56575      1.500     3.14     3.735991     20.46779     131.1464        19     1.107     1.004  -5.04   0
       272    803.3587    365.2722 300.3038942 +22.7166390     1191.693     72.52879      1.330     2.52     3.634841     20.46779     144.2867        16     1.029     0.910  23.49   0
       273    505.6942    362.4730 300.2120784 +22.6266671     6357.298     72.67651      1.264     2.19     3.720358     20.46779     991.9473        30     1.115     0.964  52.08   0
       274    995.0120    357.1931 300.3662809 +22.7716985     701.0244      72.4178      1.500     2.48     3.214163     20.46779     73.33703         9     0.779     0.722  31.76   0
       275    897.6059    356.9097 300.3359917 +22.7424561     1465.088     72.45482      1.377     2.43     3.340649     20.46779     200.3483        16     1.028     0.859 -10.72   0
       276    490.0525    351.1812 300.2108735 +22.6187366     536.0607     72.52879      1.319     3.17     3.738778     20.46779     66.49657        10     0.957     0.716  76.61   0
       277    572.7919    349.1132 300.2373047 +22.6429331     453.4308     72.45482      1.339     2.47     3.714935     20.46779     76.55438         6     0.737     0.592  29.42   0
       278     17.2753    347.8645 300.0649339 +22.4760514     1193.306     72.62115      1.619     3.36     3.694378     20.46779      130.905        19     1.210     0.971  66.86   0
       279    553.1006    346.7910 300.2319267 +22.6363664     289.7092      72.4178      1.128     4.42     3.700368     20.46779     53.23504         7     1.031     0.538  56.10   0
       280    870.5168    344.7888 300.3314784 +22.7308607     480.6725     72.51031      1.281     2.37     3.420672     20.46779     69.13342         8     0.773     0.663 -36.28   0
       281    393.2561    341.6897 300.1838287 +22.5870030     2458.973     72.58422      1.288     2.26     3.753359     20.46779     340.3048        21     1.086     0.899  23.66   0
       282    111.7824    339.0681 300.0971519 +22.5018693     1034.051     72.54727      1.422     3.21     4.001298     20.46779     127.0856        12     1.011     0.775  -3.86   0
       283    362.6196    331.0812 300.1777389 +22.5747744     29741.37     72.52879      1.358     2.40     3.777922     20.46779     4076.486        66     1.290     1.158  57.25   0
       284    897.2790    328.6574 300.3450580 +22.7342355     1468.087     72.58422      1.306     2.21     3.443913     20.46779     238.8304        17     1.003     0.889  75.30   0
       285    852.9585    326.3288 300.3319942 +22.7202965     361.8365     72.51031      1.201     2.54     3.620605     20.46779      46.5183         7     0.714     0.652 -12.33   0
       286     58.9106    318.8339 300.0872877 +22.4802071       4902.2     72.52879      1.533     3.02     3.917921     20.46779     555.6949        36     1.376     1.139  52.78   0
       287    812.6782    317.4648 300.3223130 +22.7056875     548.9902      72.6396      1.249     3.09      3.71735     20.46779     79.34777        10     0.950     0.768 -84.40   0
       288    237.0931    317.4695 300.1431132 +22.5332400     477.1669     72.67651      1.333     4.19     3.794317     20.46779     47.56919        10     1.097     0.656  79.35   0
       289    461.4346    316.7303 300.2131444 +22.6002654      522.749     72.54727      1.095     2.27     3.769526     20.46779     77.43747         8     0.818     0.601  37.68   0
       290    937.1155    312.8640 300.3626062 +22.7416203     359.1602      72.6396      1.957     3.85     3.317771     20.46779     30.17429         5     1.010     0.422 -45.52   0
       291    773.0958    310.9081 300.3121028 +22.6919500     1923.247     72.73182      1.352     2.23     3.762101     20.46779     292.5059        19     1.060     0.876  84.05   0
       292    581.2564    305.2225 300.2541819 +22.6328585       385.77     72.56575      1.136     3.08     3.649171     20.46779     66.27667         7     0.908     0.628 -73.56   0
       293    988.0259    303.6790 300.3814667 +22.7542181     663.0087     72.54727      1.329     2.55     3.308356     20.46779     89.63783        10     0.877     0.708 -26.16   0
       294    434.8528    295.4456 300.2117769 +22.5861863     2128.761     72.58422      1.466     2.81     3.807766     20.46779     284.6833        23     1.325     0.888  56.00   0
       295    647.2027    294.2208 300.2782906 +22.6494508     274.3933     72.49181      1.128     2.47      3.43692     20.46779     50.29807         6     0.744     0.529  50.86   0
       296    874.0750    288.3595 300.3508977 +22.7157022     495.9402     72.52879      1.219     2.36     3.848042     20.46779     99.55173        10     0.867     0.710 -89.27   0
       297    866.0032    289.0304 300.3481632 +22.7134786     174.2157      72.5103      1.092     3.64      3.92005     20.46779     33.86463         5     0.642     0.594 -89.91   0
       298      6.4826    286.7922 300.0813948 +22.4552890     899.8264     72.47332      2.493     7.10     3.897746     20.46779      73.3896        16     1.986     0.712 -36.11  16
       299    756.4439    285.9589 300.3150077 +22.6797920      414.381     72.62115      1.307     2.14     3.797118     20.46779     75.86495         7     0.792     0.559 -19.27   0
       300    724.8166    285.4568 300.3053147 +22.6701767     353.4984     72.51031      0.971     1.67      3.70375     20.46779     70.12157         5     0.654     0.458  24.78   0
       301    510.7457    274.8203 300.2420907 +22.6030000     1273.743     72.52879      1.399     2.56     3.741562     20.46779      168.366        17     0.975     0.954  84.76   0
       302     83.4725    275.4559 300.1089916 +22.4751221     349.7924     72.56575      1.449     3.82     4.133068     20.46779     43.83216         6     0.938     0.446  15.59   0
       303   1021.7566    271.1425 300.4025463 +22.7549558     437.7467     66.14865      1.469     3.13     3.423131     20.46779     51.58724         7     0.852     0.607 -13.01  16
       304    893.7895    268.2995 300.3635530 +22.7158360     294.1657     72.45482      0.982     2.77     3.762362     20.46779     49.47551         5     0.885     0.352  47.27   0
       305    755.5837    266.7683 300.3209653 +22.6740179     2113.827     72.52879      1.273     2.20     3.836493     20.46779     326.0077        20     1.032     0.940 -87.47   0
       306   1016.8387    261.1692 300.4042473 +22.7506153     3349.838     72.54727      1.468     2.58     3.479023     20.46779     413.0997        30     1.219     1.148  26.35  16
       307    388.4703    253.0512 300.2110960 +22.5601103     251.9441     72.54727      1.337     5.00     3.860872     20.46779     37.02749         7     1.104     0.641  47.69   0
       308    463.7914    250.5234 300.2353560 +22.5819522     729.4649     72.51031      1.328     2.79     3.884471     20.46779     83.45027        11     0.859     0.790 -75.58   0
       309    138.7877    244.7018 300.1361574 +22.4828781     1322.016     72.43632      1.607     3.58     4.166472     20.46779     158.0469        20     1.262     0.975 -33.73   0
       310    169.3163    244.4370 300.1457326 +22.4919539     627.0524     72.52879      1.602     3.26     4.090734     20.46779     84.50021        12     1.122     0.772  41.24   0
       311    876.0895    238.1869 300.3678019 +22.7018785     324.1739     72.49181      1.365     3.15     3.960641     20.46779     46.16705         8     0.826     0.679 -49.41   0
       312    222.3955    236.8139 300.1647068 +22.5056758     576.5135     72.39929      1.784     4.34     3.880537     20.46779     56.51616        11     1.080     0.823 -88.19   0
       313   1017.9855    234.6279 300.4132148 +22.7433241     457.5974     72.56575      1.814     4.27     3.610827     20.46779       38.316         6     0.803     0.673  14.82   0
       314     78.1170    233.8378 300.1208261 +22.4615700     230.5222     72.51031      1.072     3.89     4.335952     20.46779     44.98475         6     0.927     0.467 -31.56   0
       315    898.8688    230.7039 300.3773323 +22.7065452     342.1028     72.67651      1.319     2.64      3.93323     20.46779     56.08498         6     0.790     0.603  30.65   0
       316    827.1945    228.5124 300.3556955 +22.6844596     588.8222     72.45482      1.199     2.53     3.951023     20.46779     81.74465        11     0.906     0.720 -10.74   0
       317    417.5190    227.4550 300.2284372 +22.5614615     328.4437     72.58422      1.070     2.48     3.943637     20.46779     70.85638         5     0.716     0.454  67.86   0
       318    917.9878    221.5218 300.3862729 +22.7096272       316.21     72.54727      1.311     3.11      3.94701     20.46779     40.23526         6     0.778     0.496   5.83   0
       319    925.3694    217.2690 300.3899544 +22.7106134     2074.173     72.52879      1.343     2.34     3.945374     20.46779     296.7453        21     1.046     1.004 -62.07   0
       320    421.7156    209.4286 300.2355894 +22.5575401     1020.686     72.54727      1.419     2.79     4.054139     20.46779     121.3819        16     1.011     0.918  76.75   0
       321    173.6147    210.1812 300.1581784 +22.4834068     206.4252     72.52879      1.253     1.85     4.113396     20.46779     53.72779         5     0.694     0.424 -64.28   0
       322    823.8289    208.8728 300.3610161 +22.6778049     599.9097     72.56575      1.306     2.81      3.96192     20.46779     90.35202        10     0.911     0.733 -49.01   0
       323    343.8836    214.5382 300.2097153 +22.5356875     2174.911      72.6396      1.297     2.32     3.907494     20.46779     336.0601        22     1.093     0.925  74.68   0
       324     19.6333    203.1671 300.1126021 +22.4352310     322.4485     72.62115      1.300     4.10     4.817672     20.46779     38.22729         6     0.920     0.631  -7.50   0
       325    356.4812    201.3754 300.2179031 +22.5356812     384.1363     72.52879      1.136     3.66     4.010556     20.46779     49.06165         6     0.972     0.397 -70.03   0
       326    238.5670    201.8144 300.1810858 +22.5004721      829.168     72.52879      1.466     2.70     4.015502     20.46779      114.776        13     0.989     0.826  20.23   0
       327    776.4956    198.6157 300.3495884 +22.6606856     1758.636     72.47332      1.258     2.34     3.950802     20.46779     238.4196        18     0.966     0.931 -52.50   0
       328    841.6420    198.3633 300.3699779 +22.6801152     528.3853     72.62115      1.113     2.33     3.999778     20.46779     75.43443         6     0.699     0.559 -46.08   0
       329    260.2102    194.9337 300.1900474 +22.5049824     585.2444     72.52879      1.561     2.56     4.104987     20.46779     73.08358         9     0.874     0.671 -72.88   0
       330    549.7292    190.9766 300.2814221 +22.5905854     252.6512     72.56575      1.148     2.13     4.067617     20.46779     63.73175         5     0.739     0.397  71.23   0
       331    780.5557    189.9785 300.3536549 +22.6594176     725.8686     72.60268      1.414     2.70     3.953535     20.46779      89.4483        12     0.919     0.802  29.02   0
       332    700.8755    189.4122 300.3290077 +22.6353989     1378.768     72.56575      1.288     2.48     3.886353     20.46779     197.5526        16     1.045     0.848  64.05   0
       333    522.2854    185.7578 300.2745697 +22.5808657     391.9835     72.51031      1.422     3.39     4.202204     20.46779      61.7651         6     0.780     0.754 -50.37   0
       334    896.4819    180.8592 300.3927538 +22.6914958     1385.724     72.62115      1.355     2.37     4.027494     20.46779     190.1587        17     1.000     0.952  40.64   0
       335    627.2745    181.0804 300.3087808 +22.6109648     1126.194     72.65806      1.443     2.53     3.889053     20.46779      138.577        16     1.021     0.940  51.31   0
       336    955.0426    179.6135 300.4114217 +22.7086633     418.7303     72.56575      1.441     5.54     3.888609     20.46779     37.82121         8     1.487     0.581  45.96   0
       337    908.5544    179.9808 300.3968034 +22.6948563     822.4531     72.58422      1.474     3.09     4.014407     20.46779     97.88819        16     1.066     0.953 -73.55   0
       338   1023.8947    169.7968 300.4360847 +22.7264421     476.1451     54.99402      1.155     3.25     3.606757     20.46779     76.81944         5     1.000     0.306 -88.64  24
       339     48.9476    167.0234 300.1334290 +22.4336443     435.7243     72.56575      1.282     3.11     4.871481     20.46779     79.04477         7     1.069     0.613 -10.05   0
       340    259.3097    163.4958 300.1999612 +22.4956832     702.6627     72.73182      1.326     2.32     4.378217     20.46779     84.52055        11     0.861     0.748  50.02   0
       341    142.0229    162.2364 300.1639050 +22.4601705      358.163     72.56575      1.245     3.34     4.236866     20.46779     44.21542         7     0.840     0.671  58.81   0
       342    121.0957    157.9911 300.1587771 +22.4526788     2297.934     72.45482      1.478     2.92     4.301511     20.46779     266.1866        25     1.243     1.058  34.79   0
       343    944.0737    155.1332 300.4159387 +22.6983390      706.014     72.60268      1.332     3.13     3.976767     20.46779     81.59609        13     1.120     0.722  44.79   0
       344    278.5334    151.3535 300.2098766 +22.4979561     5640.363     72.54727      1.366     2.38     4.518036     20.46779     743.5037        34     1.231     1.087  72.13   0
       345     70.5733    154.9583 300.1440600 +22.4366635     502.2567     72.58422      1.607     4.42     4.676074     20.46779     51.99524         9     1.020     0.871   3.66   0
       346    260.1107    152.4039 300.2038066 +22.4927374      338.981     72.45482      1.304     3.89     4.424301     20.46779      48.8247         5     0.889     0.487  -4.72   0
       347     62.5567    145.6553 300.1445852 +22.4315893     1366.055     72.54727      1.649     3.05     4.808269     20.46779     175.1253        22     1.280     1.098  34.45   0
       348    261.8036    142.1160 300.2076686 +22.4902897     624.2909     72.47332      1.359     2.68     4.458063     20.46779      92.4055        10     0.924     0.719  43.39   0
       349    922.7265    132.8798 300.4164961 +22.6855496     3493.506     72.65806      1.406     2.78     4.105877     20.46779     427.9946        30     1.219     1.093 -84.40   0
       350    472.1573    128.3775 300.2775696 +22.5493616     666.6835     72.60268      1.353     2.86     4.564951     20.46779     87.04922        10     0.863     0.768  -2.44   0
       351    225.2885    128.5529 300.2007109 +22.4754519     238.2482     72.52879      1.293     4.77     4.384052     20.46779     37.37895         7     1.011     0.639 -18.65   0
       352    586.6596    125.8809 300.3140291 +22.5829357     171.1105     72.60268      1.109     3.37     4.383949     20.46779     40.92557         5     0.777     0.422  70.76   0
       353    396.1192    120.1690 300.2565662 +22.5242264     830.5383     72.54727      1.354     2.71      4.34159     20.46779     98.99449        10     0.959     0.676  63.37   0
       354    162.2906    116.9581 300.1848840 +22.4532426     789.8803     72.54727      1.601     3.09     4.452288     20.46779     78.93353        15     1.095     0.870  48.78   0
       355     60.4948    116.3040 300.1534596 +22.4225441     351.5321     72.71339      1.690     2.86     4.961755     20.46779     60.78895         5     0.919     0.474  78.26   0
       356    523.5375    115.3860 300.2977762 +22.5610162      1695.94     72.51031      1.255     2.34     4.543723     20.46779     232.3417        16     0.979     0.890 -87.77   0
       357    451.5359    115.9428 300.2751822 +22.5396116     434.0761     72.60268      1.210     2.20     4.495059     20.46779     87.67719        10     0.928     0.612  28.39   0
       358    584.9492    114.5899 300.3171569 +22.5791778     390.3095     72.56575      1.295     3.10     4.457863     20.46779     62.00282         8     0.894     0.639  50.12   0
       359    267.0264    110.9318 300.2194022 +22.4828971     436.3154     72.52879      1.386     3.18     4.538649     20.46779     58.24193         9     0.920     0.702  14.62   0
       360    658.9179    101.6008 300.3444070 +22.5975912     178.4417     72.43631      1.131     4.44     4.277777     20.46779     30.26711         5     1.173     0.479   5.49   0
       361    957.8483     99.0832 300.4384076 +22.6863364     425.9849     72.52879      1.463     4.10     4.198527     20.46779     52.71441         8     0.848     0.682 -49.05   0
       362    297.5296     95.2142 300.2339841 +22.4875211     6080.327     72.54727      1.391     2.53     4.523729     20.46779     731.6523        38     1.258     1.123  51.94   0
       363    803.9987     95.8664 300.3914764 +22.6393713     364.3288     72.52879      1.333     3.34     4.226257     20.46779     52.68308         7     0.893     0.603  20.40   0
       364    148.5715     94.8317 300.1877917 +22.4427766     869.2138     72.54727      1.982     3.62     4.646906     20.46779     99.78535        16     1.161     1.066 -80.19   0
       365    412.2421     95.4054 300.2696108 +22.5219402     181.9052     72.56575      1.036     3.45     4.354582     20.46779     30.51263         5     0.777     0.444  19.23   0
       366    926.7224     92.6317 300.4307906 +22.6751670       313.51     72.52879      1.286     2.51     4.209327     20.46779     47.12531         5     0.730     0.431  21.64   0
       367    269.2707     89.5686 300.2270251 +22.4774326     435.7109     72.54727      1.445     3.19     4.538092     20.46779     46.03735         7     0.829     0.608 -74.22   0
       368    312.7782     86.4370 300.2415722 +22.4895679     396.9284     72.56575      1.455     4.40     4.444213     20.46779     53.21964         7     1.027     0.535  27.87   0
       369     59.1092     85.5669 300.1629921 +22.4133031     367.5973     72.51031      1.398     4.71     5.027778     20.46779     53.55141         8     0.840     0.749  86.30   0
       370    543.6299     80.6349 300.3152970 +22.5570445     6275.186     72.56575      1.322     2.28     4.605639     20.46779     926.3365        36     1.177     1.071  89.51   0
       371    429.2134     80.3613 300.2797687 +22.5227003     598.0524     72.56575      1.321     2.49     4.415881     20.46779     98.44755        12     0.916     0.808  16.60   0
       372    737.3214     71.7101 300.3785249 +22.6124668     190.9456     72.67651      1.185     2.65     4.346922     20.46779     57.89724         6     0.746     0.620  41.26   0
       373    888.9172     69.6528 300.4264493 +22.6572442     373.7034     72.58422      1.259     4.71     4.280948     20.46779     65.78305         9     1.340     0.559  29.17   0
       374    796.1249     70.4348 300.3972656 +22.6297002     799.8574     72.52879      1.254     2.13     4.351237     20.46779     101.8011         8     0.804     0.591  15.14   0
       375    108.2169     66.9513 300.1842857 +22.4226757     251.6673     72.58422      1.381     3.44     4.911291     20.46779     31.90892         5     0.791     0.504  33.81   0
       376    236.6339     64.3831 300.2250388 +22.4604190     588.1254     72.52879      1.667     2.81     4.432064     20.46779     58.60273        12     0.986     0.776 -34.31   0
       377    594.9583     63.3246 300.3368917 +22.5674373     390.0675     72.52879      1.095     2.20     4.641955     20.46779      62.0874         7     0.680     0.660   9.91   0
       378    671.9409     60.7476 300.3617064 +22.5897434      6411.09     72.60268      1.363     2.32     4.499278     20.46779     992.3404        34     1.160     1.075  84.80   0
       379    446.9959     59.7102 300.2919965 +22.5220913     1437.246     72.45482      1.292     2.38     4.522709     20.46779     220.5936        18     1.000     0.913 -74.44   0
       380    712.9398     58.1041 300.3753372 +22.6012560     919.3057     72.62115      1.364     3.52     4.452126     20.46779      107.818        13     1.048     0.797  61.57   0
       381    782.9891     56.0029 300.3978489 +22.6216180      390.593     72.36224      1.549     2.62     4.418804     20.46779     53.54462         6     0.843     0.648 -44.24   0
       382    729.0518     54.2802 300.3815973 +22.6049791     633.1808     72.54727      1.288     3.15     4.445273     20.46779     90.97811         8     0.903     0.712 -16.25   0
       383    195.9927     52.1278 300.2163741 +22.4447214      640.303      72.5103      1.428     2.97     4.586535     20.46779     89.58503        13     1.048     0.811 -55.45   0
       384     43.0452     53.1331 300.1685126 +22.3991749     314.3049     72.54727      1.174     2.15     4.999506     20.46779     61.69547         5     0.748     0.471 -49.61   0
       385    999.1252     52.0917 300.4665164 +22.6851647     580.0103     72.71339      1.394     3.67     4.208442     20.46779     63.79477         9     0.943     0.758 -31.46   0
       386    767.5276     49.8134 300.3950359 +22.6152104     525.0051     72.56575      1.456     2.04     4.447872     20.46779     62.81731         5     0.683     0.448  64.77   0
       387    716.2313     45.5929 300.3804178 +22.5986433      2835.04     72.54727      1.386     2.40     4.513642     20.46779     426.1169        26     1.164     0.986  78.21   0
       388    731.2019     44.6565 300.3853864 +22.6028549     929.9324     72.49181      1.823     4.33     4.485688     20.46779     94.30492        18     1.528     0.834  50.21   0
       389    357.1858     46.1656 300.2684391 +22.4912995     417.1323     72.52879      1.344     2.23     4.316521     20.46779      58.8481         7     0.720     0.629 -85.28   0
       390      9.6938     39.8321 300.1624617 +22.3853592     882.8919     72.47332      1.620     3.12     4.992413     20.46779     102.7287        14     1.022     0.923  -7.91   0
       391    802.5245     37.1701 300.4100419 +22.6220476     1480.395     72.54727      1.293     2.73      4.50702     20.46779     190.1001        19     1.116     0.889  74.48   0
       392    963.1547     35.8337 300.4605642 +22.6697257     414.3872     72.58422      1.597     1.92     4.208442     20.46779     57.69736         6     0.712     0.523 -41.97   0
       393    740.6490     30.2998 300.3929832 +22.6015535     707.8386     72.60268      1.222     2.53     4.541964     20.46779      114.131        12     0.947     0.805  57.21   0
       394    546.4629     29.6128 300.3327155 +22.5432255     1070.268     72.52879      1.290     2.25     4.710115     20.46779     172.0613        14     0.905     0.878 -15.59   0
       395    119.0455     29.5114 300.1997842 +22.4151680     594.2219     72.54727      1.628     4.12     4.952108     20.46779     53.56093         8     1.079     0.647 -27.54   0
       396    449.9970     27.7911 300.3032750 +22.5138160     797.3548     72.36225      1.409     2.32     4.576715     20.46779     119.9194        11     0.907     0.734  77.79   0
       397    832.1275     26.6127 300.4226919 +22.6278694     457.6123     72.56575      1.292     3.35     4.523632     20.46779     55.02061         8     0.813     0.682 -81.22   0
       398     19.2324   1016.5662 299.8482671 +22.6683762     514.6368     72.62115      2.487     3.62    -2.779656     20.46779     32.96847         5     1.458     0.258 -40.31  16
       399    789.5935     18.4141 300.4120895 +22.6127828     712.7244     72.43632      1.457     2.24     4.599465     20.46779     105.0998        12     0.920     0.749 -29.31   0
       400     14.3539     18.3643 300.1708657 +22.3805915     348.7226     72.58422      1.665     3.47      4.92602     20.46779     42.31491         5     0.995     0.349 -69.49   0
       401    352.5761     17.8646 300.2761762 +22.4817861     229.3323     72.52879      1.376     3.46     4.313536     20.46779      39.1227         5     0.755     0.457  71.81   0
       402    405.9849   1012.2936 299.9698836 +22.7832661     683.1541     72.47332      2.696     5.24     3.431124     20.46779      51.9374         9     1.365     0.568  54.47   0
       403      6.4006   1011.8761 299.8458077 +22.6631784     1022.779     72.43631      7.039     8.24     -9.52516     20.46779     47.03693        10     1.646     1.154 -26.42  16
       404    597.1987   1005.4980 300.0316117 +22.8386915     2466.146     72.45482      1.860     4.02     2.591071     20.46779     177.7533        31     1.382     1.301 -18.77   0
       405      4.4591    973.3196 299.8577485 +22.6515482     826.0949     70.59933      2.885     5.57    -4.248566     20.46779     43.52135        11     1.100     0.795 -29.00  16
       406    683.5342   1000.6978 300.0600628 +22.8632120     8815.312      72.6396      1.972     4.42     2.500983     20.46779     479.7794        48     1.569     1.400  33.71   3
