#   1 NUMBER                 Running object number                                     
#   2 X_IMAGE                Object position along x                                    [pixel]
#   3 Y_IMAGE                Object position along y                                    [pixel]
#   4 ALPHA_J2000            Right ascension of barycenter (J2000)                      [deg]
#   5 DELTA_J2000            Declination of barycenter (J2000)                          [deg]
#   6 FLUX_APER              Flux vector within fixed circular aperture(s)              [count]
#   7 FLUXERR_APER           RMS error vector for aperture flux(es)                     [count]
#   8 FLUX_RADIUS            Fraction-of-light radii                                    [pixel]
#   9 FWHM_IMAGE             FWHM assuming a gaussian core                              [pixel]
#  10 BACKGROUND             Background at centroid position                            [count]
#  11 THRESHOLD              Detection threshold above background                       [count]
#  12 FLUX_MAX               Peak flux above background                                 [count]
#  13 ISOAREA_IMAGE          Isophotal area above Analysis threshold                    [pixel**2]
#  14 A_IMAGE                Profile RMS along major axis                               [pixel]
#  15 B_IMAGE                Profile RMS along minor axis                               [pixel]
#  16 THETA_IMAGE            Position angle (CCW/x)                                     [deg]
#  17 FLAGS                  Extraction flags                                          
         1    502.4951     15.5757 300.3325994 +22.5432252     1058.487     72.14524      1.558     2.59     4.823369     20.38554       125.02        15     1.005     0.882  74.59   0
         2    406.3170     13.5530 300.3033048 +22.5138627     802.2504     72.25574      1.359     2.94     4.970934     20.38554        110.4        14     0.972     0.909  23.21   0
         3    745.7950      4.4801 300.4120131 +22.6128143     527.6375     70.22102      1.432     4.15     6.348877     20.38554     66.64314        10     1.057     0.731  72.57  16
         4    177.7377      3.4788 300.2354390 +22.4425446     3869.999     66.86458      1.681     3.00     4.836947     20.38554     425.1697        34     1.332     1.245  14.20  24
         5    301.5291   1012.3551 299.9464469 +22.7692748     1705.776     72.21893      4.323     6.35     6.647474     20.38554     81.05389        32     1.739     1.524 -20.73   0
         6     92.1664   1011.1529 299.8817288 +22.7061159     5008.448     72.29255     17.073    91.76     81.22288     20.38554     147.5271      2175    18.170    15.589  48.64  27
         7     82.5848    945.2795 299.9001755 +22.6843563     5891.752     72.27415     31.610   119.93     21.48548     20.38554     1309.732      5079    22.803    17.502 -57.98  19
         8    140.9872   1010.8445 299.8970064 +22.7206773     459.2977     72.25574      2.247    10.87     92.12093     20.38554      44.0312        11     2.412     1.365 -76.59  18
         9    933.1700    970.3563 300.1569071 +22.9465615     732.9025     72.29255      2.106     7.10      3.76777     20.38554     37.03377        16     1.467     0.963  74.31   2
        10    133.6642   1009.4100 299.8951963 +22.7180687     845.8506     72.21893      2.923     9.10     89.62212     20.38554     43.40427        12     1.763     1.310 -41.47   3
        11    151.9957    956.5965 299.9180737 +22.7084267     1762.519     72.07147      8.596    13.53     45.71288     20.38554     55.86079        34     2.896     1.759  24.22   3
        12    657.8912    953.7224 300.0764823 +22.8593029     7133.831     72.40283      1.986     4.49     4.292811     20.38554     405.1538        51     1.556     1.485  51.56   0
        13    360.8604    997.5435 299.9697274 +22.7828226     381.2524     72.32933      1.787     5.68     4.620775     20.38554     32.64367         9     1.165     0.781  20.01   0
        14    145.2566    952.5817 299.9172840 +22.7052537     1226.118     72.23734     14.428    21.14     41.09925     20.38554     43.10225        29     5.378     2.308  -6.46   3
        15    214.1667   1007.2205 299.9209413 +22.7415947     804.6039     72.25574      2.089     6.60     85.11145     20.38554     48.94643        10     1.572     0.777  18.96   3
        16    537.3931    947.9415 300.0408223 +22.8215247     530.2079     72.23734      1.950     4.40     3.960459     20.38554     34.11162         6     0.843     0.652 -61.15   0
        17    553.0851    991.3882 300.0315781 +22.8386970     2274.029     72.20052      1.955     4.91     3.732444     20.38554     155.7237        30     1.465     1.285   4.99   0
        18    566.2172    944.4742 300.0509281 +22.8291703     1554.057     72.25574      1.901     4.80     4.116197     20.38554     107.1711        25     1.315     1.267  87.91   0
        19    639.6146    986.7551 300.0600425 +22.8633064     8684.434     72.27415      2.028     4.56      4.28041     20.38554       465.55        53     1.633     1.499  44.35   3
        20    460.2211    940.9208 300.0190737 +22.7963737     1049.809     72.25574      1.867     4.21     3.663036     20.38554      94.2282        22     1.308     1.228 -82.30   0
        21    390.7776    938.7751 299.9981533 +22.7749358     6591.912     72.21893      1.939     4.43     4.205829     20.38554     464.5131        42     1.509     1.422  14.47   0
        22    205.1870   1002.5254 299.9196758 +22.7375544     1843.629     72.27415      4.201    14.07     82.39775     20.38554     67.92692        44     2.846     1.934   5.45   3
        23    138.9442   1004.6781 299.8983771 +22.7182964     898.5071     72.29255      2.517     9.08     86.56537     20.38554     56.02164        13     1.944     1.184 -15.23   2
        24    424.3997    925.5973 300.0129048 +22.7812365     597.5318     72.03455      2.354     6.01     3.842749     20.38554     43.78887         8     1.239     0.818  83.75   2
        25    181.6927    988.0165 299.9170888 +22.7263455     1179.195     72.18209      5.418     9.34     71.51759     20.38554     49.19672        19     2.380     1.024 -70.44   3
        26    938.4415    918.5320 300.1754080 +22.9332549     1440.216     72.23734      1.768     4.93     3.929326     20.38554      121.783        18     1.468     0.926 -72.30   3
        27    936.3207    917.0331 300.1752337 +22.9321892     1432.316     72.23734      1.726     5.70     3.935835     20.38554     99.13048        13     1.383     0.662 -62.94   3
        28    178.9027    998.3068 299.9128741 +22.7284589     2890.808     72.43956      5.979    23.22     80.77113     20.38554     63.98235       132     4.518     3.315  33.20  18
        29    726.0561    906.8575 300.1129689 +22.8662759      898.658     72.32933      2.205     7.06     4.204189     20.38554     56.11298        17     1.562     1.031  33.20   0
        30    760.9994    900.7766 300.1258397 +22.8749998       1070.2     72.18209      1.884     5.22     4.124066     20.38554      70.7263        22     1.315     1.249  40.25   0
        31    537.9590    901.7933 300.0560061 +22.8084500     367.2848     72.29255      2.237     6.53     4.104465     20.38554     31.70047         7     1.242     0.963  -7.30   0
        32    178.0533    991.3306 299.9148792 +22.7262038     1520.196     72.27415      6.899    10.23     74.67116     20.38554     52.65359        24     2.196     1.327 -40.07   3
        33    783.1157    894.5231 300.1347688 +22.8798303     11404.73     72.36609      1.880     4.21     4.072042     20.38554     789.8945        52     1.479     1.468 -78.29   0
        34    974.3767    894.8817 300.1943122 +22.9372234     523.5617     72.21893      2.214     5.54     3.933989     20.38554     33.19788         8     1.162     0.796  46.88   0
        35    828.6879    894.8958 300.1488584 +22.8935900     382.5138     72.43956      1.601     5.71     4.050959     20.38554     38.26987        10     1.241     0.740  43.49   0
        36    223.1491    894.6320 299.9603507 +22.7120011     711.1298     72.29255      5.055     4.37     8.472501     20.38554     26.96195         5     1.152     0.471  -5.57   0
        37    645.1750    984.5668 300.0624869 +22.8643450     9510.163     72.25574      2.034     4.95     4.283854     20.38554     505.3168        52     1.574     1.553  25.69   3
        38    238.9315   1000.3803 299.9308689 +22.7470628     2147.198     72.23734      4.440    18.17     62.00756     20.38554     74.65422        82     5.128     1.788   0.00  19
        39    206.3694    985.5513 299.9255648 +22.7330419     4138.414     72.29255      7.713    24.62      66.7438     20.38554     91.11444       276     5.332     4.980 -62.44   3
        40    244.2792    973.8852 299.9411503 +22.7410690     8250.378     72.40283     10.130    34.42     39.31227     20.38554     170.5588       890    11.945     5.053  65.36  18
        41     94.4052    885.7084 299.9232199 +22.6708225     1188.281     72.16367      8.057     7.66     7.778942     20.38554     49.66196        22     1.605     1.332  -2.54   2
        42    488.7904    882.9193 300.0468306 +22.7882942     592.6807     72.20052      2.118     5.51     3.949909     20.38554      44.4344        10     1.563     0.548  30.63   0
        43      8.8967   1003.5392 299.8583263 +22.6789436     2771.981     72.32933     16.796    56.48    -23.73209     20.38554     73.26085       858    15.034     5.888  83.01  24
        44    834.9257    882.5423 300.1548208 +22.8919107     470.0946     72.31094      1.750     3.79      4.06243     20.38554     40.70685        10     0.982     0.750 -65.46   0
        45    791.6768    876.5918 300.1432688 +22.8772456     1352.623     72.21893      1.843     4.83     4.051648     20.38554     96.08274        22     1.324     1.144  40.45   0
        46    739.6285    987.2275 300.0910597 +22.8934175     656.1425     72.21893      1.699     6.49     4.234739     20.38554     41.86906        15     1.282     0.921  74.10   0
        47    974.5427    876.1228 300.2004640 +22.9318838     497.2166     72.29255      2.233     4.82      3.94895     20.38554     35.86781         6     1.411     0.467  23.27   2
        48    643.5793    873.6831 300.0980510 +22.8320365     454.9985     72.21893      1.703     3.61     4.172082     20.38554     48.96426         6     0.976     0.742 -40.79   0
        49    507.8074    874.0202 300.0556461 +22.7914408     256.4662     72.21893      1.409     4.79     4.042816     20.38554     30.83249         5     1.003     0.648  55.11   0
        50    829.9739    869.9515 300.1573704 +22.8868111     894.4097     72.27415      2.222     4.98     4.067845     20.38554     59.66021        17     1.235     1.054 -48.21   0
        51    172.5452    972.0127 299.9194496 +22.7190123     1231.863     72.25574     26.976    16.12     58.49733     20.38554     46.92402        31     4.496     1.608  60.01   3
        52    878.3249    862.1967 300.1749725 +22.8990665     483.3773     72.16367      1.696     4.62     4.103013     20.38554     35.19007         8     1.008     0.601 -18.69   0
        53    729.6519    860.4494 300.1291799 +22.8540275     607.9063     72.29255      1.758     6.81     4.076478     20.38554      48.3417        13     1.360     0.955  41.01   0
        54    442.0446    856.4937 300.0408671 +22.7666971     4143.588     72.27415      1.758     3.80     4.040627     20.38554     374.5824        36     1.353     1.336  83.76   0
        55    741.0897    857.1796 300.1338085 +22.8565154      607.975     72.20052      1.806     6.89     4.064125     20.38554     34.91461        14     1.306     1.021  70.09   0
        56    485.5034    844.7118 300.0582290 +22.7763431     343.0729     72.43956      1.536     5.52     3.976192     20.38554     39.62582         7     1.275     0.673  58.09   0
        57    221.2056    844.8347 299.9759358 +22.6971346     383.1623     72.25574      1.600     4.35     5.399055     20.38554     36.13489         5     0.751     0.716  62.70   0
        58    172.0796    979.4449 299.9168875 +22.7210037      1414.07     72.23734      4.560    10.08     64.80818     20.38554     53.86936        25     2.262     1.303  44.03   3
        59    167.3547    842.0764 299.9600850 +22.6801924     768.6635     72.23734      1.891     4.46     6.581208     20.38554     73.27699        17     1.358     1.138 -30.87   0
        60    144.4102    839.1808 299.9538918 +22.6724798     1491.655     72.21893      1.949     4.73     6.321115     20.38554     117.5573        27     1.462     1.231   5.83   0
        61   1016.3022    828.5991 300.2289483 +22.9307333     1991.915      72.1268      2.009     4.83     3.822712     20.38554     107.5866        32     1.449     1.402 -42.94  16
        62     19.9896    828.6436 299.9186416 +22.6321342     279.8079     72.25574      1.254     3.32     4.737523     20.38554     50.28196         5     0.993     0.404  66.35   0
        63    970.4951    826.9620 300.2151846 +22.9165470     2250.108     72.23734      1.962     4.41     3.982975     20.38554     120.2087        34     1.472     1.360  11.45   0
        64    674.8943    827.4075 300.1228545 +22.8281332     455.0471     72.14523      2.001     4.69     4.122973     20.38554     29.95541         7     1.272     0.491   0.32   0
        65    753.9001    820.9249 300.1495887 +22.8499414     638.1077     72.38446      1.972     6.30     4.040027     20.38554       50.373        11     1.178     0.947   2.91   0
        66    177.2199    821.1326 299.9699606 +22.6771439     347.4703     72.21893      1.275     4.27      5.46115     20.38554     40.14175         7     0.884     0.587 -57.49   0
        67    622.0820    814.6572 300.1105419 +22.8086477     4885.275     72.31094      1.738     3.63     4.116474     20.38554     422.9503        39     1.392     1.303  34.95   0
        68    173.4729    976.6576 299.9182274 +22.7206225     1532.253     72.29255      3.955    10.12     62.91127     20.38554     61.08831        23     1.968     1.450  -1.73   3
        69    424.3528    811.9063 300.0498534 +22.7485974     591.0925     72.27415      1.536     4.27     4.031207     20.38554     55.04665        13     1.161     0.956  13.52   0
        70    172.1241    808.3591 299.9725277 +22.6719516     1405.238     72.21893      2.006     4.18     4.940486     20.38554       131.03        26     1.388     1.296   7.06   0
        71    642.7939    807.3702 300.1193643 +22.8127614     697.8087     72.25574      1.689     3.76     4.110485     20.38554     75.62351        14     1.083     0.980  35.79   0
        72    226.3922    984.2916 299.9322020 +22.7386875     5217.403     72.16367      9.021    28.12     61.63755     20.38554     104.7093       431     6.546     5.344 -61.26  19
        73    559.7741    797.2564 300.0967864 +22.7849806     260.7816     72.25574      1.887     6.21     3.915763     20.38554     37.87765         8     1.244     0.872  78.77   0
        74   1015.0156    794.9171 300.2394960 +22.9206688      1211.08     72.21893      1.910     4.79     3.875724     20.38554     82.47507        25     1.418     1.225  49.04  16
        75    798.1387    794.5498 300.1719555 +22.8556174      4280.06     72.31094      1.740     3.84     4.039456     20.38554     313.6389        35     1.305     1.296  31.00   0
        76    207.3501    789.1272 299.9897333 +22.6769988     254.0375     72.27415      1.175     4.02     4.509971     20.38554     43.55934         6     0.956     0.484  57.81   2
        77    204.0064    789.0000 299.9887347 +22.6759596      292.844     72.05302      1.445     3.72     4.517398     20.38554     28.03121         5     1.377     0.289  -0.00   3
        78    515.0991    786.6094 300.0863320 +22.7685356     653.1126     72.14523      1.703     4.35     3.870901     20.38554     64.15915        14     1.258     0.808  82.76   0
        79    161.4800    784.6717 299.9769163 +22.6619646      939.131     72.38447      1.792     5.06     4.613706     20.38554     80.21312        20     1.389     1.190 -64.75   0
        80    576.6348    780.2664 300.1075608 +22.7851552     487.5088     72.25574      1.646     4.65     4.118021     20.38554      40.0306        11     1.064     0.936 -65.94   0
        81    311.1241    776.8774 300.0259974 +22.7046003     53407.92     72.36609      1.734     3.56     4.541004     20.38554     5200.326        99     1.524     1.479  21.59   0
        82    569.0271    775.9797 300.1065840 +22.7816447     1608.738     72.23734      1.554     3.42     4.094226     20.38554     143.3109        24     1.181     1.122 -41.58   0
        83    982.1384    775.3851 300.2355837 +22.9052125     889.0294     72.21893      1.869     5.58     4.131781     20.38554     58.53883        21     1.396     1.073  18.01   0
        84    240.1960    774.8386 300.0045933 +22.6827489     498.2276     72.27415      1.636     4.00     4.486107     20.38554     46.60068         6     0.763     0.598 -37.76   0
        85    597.7557    771.9012 300.1168595 +22.7890820     780.5042     72.25574      1.666     5.19     4.321076     20.38554     74.93022        16     1.196     0.980   2.98   0
        86    608.5892    770.6736 300.1206338 +22.7919756     529.7836     72.27415      1.643     5.04     4.407331     20.38554     60.78835        12     1.196     0.929  -4.63   0
        87    714.1993    766.6102 300.1548668 +22.8224489     518.5601     72.07147      1.692     4.74     4.070879     20.38554      49.5932         9     1.151     0.554  63.07   0
        88    508.9246    764.5085 300.0915918 +22.7603404     281.8965      72.4212      1.326     5.10     3.962095     20.38554      29.6505         6     1.089     0.675 -20.15   0
        89    360.8675    754.1359 300.0488678 +22.7129865     31594.77     72.31094      1.659     3.40      4.24064     20.38554     2709.369        76     1.454     1.420  -6.81   0
        90    752.0977    757.1055 300.1697701 +22.8310712     850.8932     72.43956      1.603     3.54     4.069352     20.38554       70.157        13     1.042     0.853  51.45   0
        91    375.2735    754.7041 300.0531669 +22.7174680      2036.87     72.38447      1.651     3.10     4.197122     20.38554     224.7716        26     1.216     1.151  19.62   2
        92    372.0611    748.4857 300.0541877 +22.7147203     748.4892     72.36609      2.028     5.65     4.198252     20.38554     54.35719        13     1.222     0.943  50.79   3
        93    884.0712    750.2012 300.2131706 +22.8686122     2828.417     72.16367      1.743     3.50     4.247459     20.38554     219.1017        31     1.316     1.275  20.85   0
        94    642.0259    746.3306 300.1389635 +22.7950032     740.2661     72.25574      1.488     3.44     4.373587     20.38554     82.21825        19     1.180     1.005 -23.57   0
        95    478.3585    746.1946 300.0880246 +22.7459225     597.8929     72.27415      2.385     5.64     4.027815     20.38554     44.96041         9     1.115     0.919   9.48   0
        96    243.5448    745.9219 300.0150319 +22.6754562     885.4866     72.29255      1.861     4.08     4.417922     20.38554     86.97831        18     1.256     1.052  19.96   0
        97     48.8350    741.7753 299.9558367 +22.6158756     409.8428     72.27415      1.501     4.51     4.758502     20.38554     42.64242         9     1.023     0.715 -50.90   0
        98    488.9717    740.9274 300.0930412 +22.7475911     750.3695     72.27415      1.453     3.70     4.052599     20.38554     90.40268        14     1.069     0.957  52.60   0
        99    889.9481    738.0004 300.2189689 +22.8668663     590.1812     72.21893      1.552     3.79     4.289475     20.38554     65.75746        10     1.055     0.792  49.22   0
       100    391.6554    736.8328 300.0640732 +22.7172490     373.7318     72.27415      1.319     4.86     4.131389     20.38554     45.43673         6     0.906     0.738  21.47   0
       101    346.9209    736.6270 300.0502168 +22.7037808     499.4587     72.25574      2.301     4.33     4.259667     20.38554     35.86008         5     1.109     0.482  -1.95   0
       102     77.0237    735.3298 299.9666926 +22.6224816     487.1595     72.27415      1.517     4.82     4.700565     20.38554     49.39896         7     0.894     0.736  -2.37   0
       103    867.5963    732.9734 300.2136301 +22.8587288     359.5075     72.21893      1.586     6.30     4.280095     20.38554     36.74687         9     1.143     0.976  29.84   0
       104    240.5466    730.0754 300.0192483 +22.6700103     516.8518     72.27415      1.932     5.97     4.462703     20.38554     46.97504        12     1.328     1.109 -20.44   0
       105    564.5724    720.9318 300.1230851 +22.7645038     546.6476     72.23734      1.682     3.42     4.497857     20.38554     73.94106         8     1.141     0.632   2.45   0
       106    533.9844    719.1301 300.1141426 +22.7548214     648.7707     72.27415      1.616     4.84     4.378145     20.38554     57.17992        12     1.256     0.784  24.94   0
       107    950.5701    715.6671 300.2451401 +22.8785991         4573     72.23734      1.785     3.75     4.489385     20.38554     318.8798        35     1.366     1.291 -29.74   0
       108    556.0739    716.6364 300.1218335 +22.7607241     1511.396     72.20052      1.574     3.28     4.486412     20.38554     156.0994        22     1.210     1.081   0.85   0
       109    475.5114    715.9552 300.0969640 +22.7363879     460.7236     72.27415      1.758     3.72     4.402385     20.38554      55.8909        10     1.221     0.870 -21.50   0
       110    756.5024    711.9320 300.1858229 +22.8194139     157.1372     72.34771      1.351     3.71     4.375058     20.38554     32.35109         6     1.175     0.337 -40.15   0
       111    637.5686    711.2541 300.1489724 +22.7835942     283.0272     72.27415      1.335     3.35     4.665059     20.38554     43.57981         6     0.873     0.636  -7.55   0
       112    938.8329    707.2062 300.2442270 +22.8726536     1678.523     72.25574      1.664     3.83     4.562563     20.38554     117.2605        23     1.205     1.146  11.95   0
       113    302.1537    700.6393 300.0479787 +22.6800326     824.8469     72.31094      1.639     3.23     4.822989     20.38554     81.56389        15     1.059     0.906 -32.82   0
       114    765.3657    698.2074 300.1930457 +22.8181256     2585.676     72.25574      1.636     3.37     4.552393     20.38554     209.7311        30     1.414     1.183   9.88   0
       115    970.1364    697.2818 300.2572197 +22.8791727      1747.03     72.36609      1.748     4.09     4.498312     20.38554     129.1195        23     1.266     1.159  17.77   0
       116    150.7228    684.3691 300.0061617 +22.6299636     734.7205     72.23734      1.630     5.37     4.742116     20.38554     84.28339        14     1.630     0.891 -54.57   0
       117    847.5354    684.4836 300.2231286 +22.8387888     620.8022     72.36609      1.691     5.14     4.829581     20.38554     50.86002        12     1.163     0.779  28.27   0
       118    883.7469    675.2112 300.2374364 +22.8469664     149110.5     72.25574      1.674     3.34     4.896682     20.38554     13044.11       159     1.540     1.484 -46.17   0
       119    646.0282    679.1271 300.1620466 +22.7769010     366.8577     72.27415      1.475     3.27     4.898899     20.38554      49.6398         7     0.981     0.609 -59.28   0
       120    736.0828    675.8386 300.1911837 +22.8029294     741.0782     72.21893      1.478     3.40     4.719345     20.38554     71.46298        15     1.042     0.969  22.94   0
       121    916.5667    667.9110 300.2500469 +22.8546942     379.8819     72.21893      1.524     5.57     4.851462     20.38554     48.09945        10     1.034     0.844  54.61   0
       122    569.9459    663.9166 300.1432827 +22.7497407     1514.931     72.29255      1.435     2.93     5.078519     20.38554     178.7506        21     1.173     0.986  -5.88   0
       123    751.2570    661.2715 300.2006468 +22.8032887     9278.032     72.27415      1.541     3.07     4.843421     20.38554     871.5801        42     1.277     1.238 -69.62   0
       124    252.6368    656.1603 300.0470221 +22.6524236     4838.436     72.32933      1.672     3.60     5.091525     20.38554     424.4707        35     1.325     1.245  39.89   0
       125    334.6897    654.3510 300.0731402 +22.6764992     1190.646     72.25574      1.599     3.46      5.11735     20.38554     114.9881        18     1.144     0.984 -22.73   0
       126    210.9036    652.3638 300.0352738 +22.6388232     509.5355     72.25574      1.580     2.49     5.035684     20.38554     71.23544         7     0.898     0.653 -46.49   0
       127    543.3995    649.8970 300.1395675 +22.7377615     736.4852      72.1268      1.423     3.57     5.115286     20.38554      75.0116        13     1.061     0.845 -16.27   0
       128    534.6115    642.0096 300.1393923 +22.7328636     3220.681     72.14523      1.521     3.02     5.121521     20.38554      359.681        28     1.184     1.146   5.13   0
       129    524.7599    635.7247 300.1383653 +22.7281072     1503.048     72.21893      1.572     3.17     5.124403     20.38554     163.9485        17     1.102     1.025  77.52   0
       130    918.3923    633.4276 300.2618185 +22.8453296     498.1423     72.25574      1.827     4.76     4.907882     20.38554     43.25153         7     0.878     0.730  21.07   0
       131    188.6202    631.9192 300.0349836 +22.6262758     637.6273     72.23734      1.565     4.37     5.019954     20.38554     70.21289        14     1.219     0.848  -1.58   0
       132    202.6061    630.2825 300.0398650 +22.6299989     480.1982     72.18209      1.441     3.96     5.045428     20.38554     59.51144        10     0.976     0.731  -3.02   0
       133    971.5471    627.1498 300.2804439 +22.8594360     595.4017     72.29255      1.815     5.00     4.562039     20.38554      45.7102         8     0.986     0.768  49.67   0
       134    449.7236    625.3549 300.1183662 +22.7026475      1626.58     72.23734      1.491     2.73     5.119311     20.38554     193.4538        22     1.213     0.999  64.21   0
       135    259.4112    627.2214 300.0585291 +22.6461486      239.231     72.23734      0.920     3.38     5.084067     20.38554     37.57401         5     1.181     0.280 -35.26   0
       136    228.4384    627.2156 300.0488959 +22.6368626     415.7333     72.27415      1.255     2.98     5.078156     20.38554     64.79937         7     0.841     0.588 -61.53   0
       137    548.8705    625.9496 300.1490502 +22.7325230     426.8307     72.25574      1.488     4.60     5.139353     20.38554     53.10987         9     1.011     0.782  68.49   0
       138    103.5704    620.2015 300.0123434 +22.5974144     19733.08     72.21893      1.789     3.66     4.814675     20.38554     1630.536        65     1.507     1.431  20.68   0
       139     24.9332    621.7552 299.9873957 +22.5742801     706.1886     72.25574      1.826     3.98     4.781224     20.38554     54.39455        12     0.981     0.867  50.97   0
       140    534.6509    620.6020 300.1463578 +22.7267273     1055.385     72.23734      1.603     3.25     5.141624     20.38554     123.3412        18     1.094     1.067 -73.75   0
       141    569.8537    619.9205 300.1575449 +22.7370772     276.7761     72.29255      1.377     2.54     5.142153     20.38554     57.27918         5     0.716     0.649 -63.70   0
       142    906.1288    617.3746 300.2632067 +22.8370444     369.5608     72.25574      1.817     4.52     4.986019     20.38554     30.00678         6     0.961     0.605 -68.79   0
       143    952.7485    607.3653 300.2810038 +22.8481220     903.7572     72.27415      1.541     3.47     4.718874     20.38554      88.7374        16     1.092     0.967 -14.01   0
       144     49.5591    604.2787 300.0007248 +22.5766508     1501.782     72.23734      2.243     5.34     4.790212     20.38554     103.7724        33     1.764     1.289 -72.40   0
       145    819.3348    605.4256 300.2400146 +22.8076264     333.0247     72.23734      1.306     4.78     5.158736     20.38554     39.19487         8     1.017     0.638  20.05   0
       146    116.4652    605.3553 300.0211737 +22.5970207     354.1739     72.25574      1.402     3.33     4.883718     20.38554     49.98591         5     0.946     0.434 -13.93   0
       147    498.5534    601.5424 300.1413053 +22.7104393     460.7843     72.31094      1.352     4.18     5.143906     20.38554     49.08017        10     1.015     0.710  -0.91   0
       148    892.6188    599.8742 300.2646760 +22.8279700     808.8043     72.25574      1.718     4.35     5.062238     20.38554     68.71385        14     1.182     0.904  16.00   2
       149    888.6235    599.7308 300.2634762 +22.8267328     402.4842     72.27415      1.671     3.65      5.08048     20.38554     43.60132         5     0.824     0.466  -9.02   3
       150    454.7115    593.7622 300.1301797 +22.6950701     724.9352     72.23734      1.392     2.86     5.133626     20.38554     83.62994        12     0.981     0.760  27.04   0
       151    602.7944    592.5133 300.1767086 +22.7390718     418.4528     72.18209      1.210     3.94     5.191416     20.38554     63.79539         8     0.962     0.615  -2.75   0
       152    650.0616    590.7447 300.1920116 +22.7527205     495.1671     72.32933      1.463     4.18     5.067596     20.38554     47.33858         9     0.971     0.670  57.12   0
       153    620.3750    590.3192 300.1828990 +22.7437071     563.1372     72.23734      1.372     3.40      5.16444     20.38554      64.5569         8     0.929     0.595 -71.57   0
       154    499.0812    589.4480 300.1453974 +22.7071240      866.418     72.29255      1.539     2.80       5.1599     20.38554     97.78041        16     1.081     0.855  22.29   0
       155    932.7593    585.3296 300.2819232 +22.8358044     3280.522     72.21893      1.580     2.95     4.875778     20.38554      327.895        28     1.235     1.186 -17.47   0
       156    464.4442    585.0370 300.1360436 +22.6954804      1622.99     72.32933      1.457     2.82     5.146201     20.38554     205.8838        21     1.158     1.014  -5.01   0
       157    830.0139    582.8412 300.2506799 +22.8043330     256.9435     72.27415      1.295     3.15     5.128629     20.38554     40.74775         6     0.911     0.569  21.34   0
       158     26.3898    578.3477 300.0019441 +22.5622637     5043.508     72.25574      1.854     3.62     4.776886     20.38554     489.8865        42     1.476     1.376   8.79   0
       159    494.4566    575.2996 300.1485517 +22.7016752     346.1746     72.34771      1.237     3.41     5.175964     20.38554      46.6559         5     0.765     0.439 -67.99   0
       160    327.8983    571.6595 300.0978823 +22.6507252     9207.413     72.32933      1.527     2.90     5.105931     20.38554     985.8178        45     1.295     1.238  76.65   0
       161    450.2987    568.7041 300.1369429 +22.6865520     9048.139     72.43956      1.505     2.81     5.143244     20.38554     1078.602        42     1.237     1.215  38.05   0
       162     94.1481    565.3792 300.0272163 +22.5788586     305.4749     72.25574      1.511     5.05     4.886659     20.38554     34.20298         6     1.234     0.584 -31.73   0
       163    862.0720    562.9817 300.2671281 +22.8082217     1844.252     72.25574      1.463     3.18     5.181747     20.38554     179.4201        21     1.136     1.052  53.30   0
       164    946.7796    560.3375 300.2944141 +22.8328159     12648.78     72.21893      1.630     3.18     4.836535     20.38554     1210.378        48     1.334     1.301 -61.99   0
       165    510.9526    558.3739 300.1591852 +22.7017556     11702.38     72.27415      1.441     2.71     5.199245     20.38554     1324.894        45     1.239     1.182  62.15   0
       166    680.5534    554.4995 300.2132846 +22.7514382     632.9147     72.27415      1.717     3.78     4.925166     20.38554      55.3231        10     0.969     0.766  -0.63   0
       167    238.5653    553.6335 300.0759405 +22.6187779     1360.177     72.32933      1.553     3.21     5.086677     20.38554     156.1037        21     1.121     1.114  20.16   0
       168    696.2495    553.8716 300.2183808 +22.7559579     138.4247     72.25574      1.293     4.50     4.910248     20.38554     27.61018         5     0.818     0.702  51.71   0
       169    484.9958    551.1025 300.1534625 +22.6918915     397.3532     72.16367      1.382     3.95     5.206002     20.38554     53.83767         9     0.843     0.735  42.76   0
       170    442.5049    546.4448 300.1417438 +22.6778245     4468.429     72.27415      1.491     2.87     5.141299     20.38554     570.8023        30     1.204     1.103  17.76   0
       171    785.5984    546.6572 300.2485789 +22.7806365      891.759     72.20052      1.490     3.21     4.938319     20.38554     104.9639        14     1.018     0.897  73.31   0
       172    420.9471    544.9497 300.1355174 +22.6709366     1376.532     72.29255      1.450     2.98     5.099645     20.38554     165.0613        21     1.153     1.074 -44.57   0
       173    175.3823    544.3356 300.0593072 +22.5971713      748.414     72.23734      1.494     3.17     5.090615     20.38554     94.62743        15     1.102     0.957   2.84   0
       174    862.4141    542.2565 300.2739646 +22.8023667     1596.606     72.23734      1.610     3.45     5.164271     20.38554     134.3681        25     1.260     1.119  62.86   0
       175    559.2505    534.1208 300.1821038 +22.7092557     207093.7     72.25574      1.432     2.72     5.225212     20.38554     21335.32       191     1.491     1.411  -8.87   0
       176    109.3112    541.6008 300.0396506 +22.5765807      208.995     72.16367      1.400     3.48     4.966021     20.38554     32.99179         5     0.775     0.452 -17.46   0
       177    743.0209    539.1870 300.2377290 +22.7657423     797.2061     72.23734      1.383     3.24     4.846137     20.38554     100.7184        11     0.975     0.740 -86.55   0
       178    382.8867    540.4084 300.1251437 +22.6582292     343.0287     72.18209      1.316     4.82      5.09271     20.38554     43.57869         9     0.910     0.764   8.92   0
       179    245.3317    533.8544 300.0844670 +22.6151280     3567.264     72.29255      1.574     3.00     5.044141     20.38554     428.1652        29     1.264     1.118  56.70   0
       180    811.4837    530.3674 300.2619401 +22.7837037     762.1927     72.21893      2.083     3.77     4.926641     20.38554     59.68443        12     1.077     0.830  12.33   0
       181    910.1793    519.8120 300.2961529 +22.8102110     95.94721     72.23734      1.069     4.34      4.94783     20.38554     24.47651         5     0.841     0.638 -48.35   0
       182    590.3937    520.0817 300.1963640 +22.7145497     232.9176     72.18209      1.395     4.55     5.267631     20.38554     40.95108         6     0.943     0.624  53.41   0
       183    449.8641    514.5358 300.1543948 +22.6708649     2848.277     72.29255      1.581     2.72     5.088585     20.38554     291.0707        32     1.520     1.099  84.66   0
       184    294.2360    516.4410 300.1053354 +22.6247842     487.0571     72.32933      1.572     3.13     5.009706     20.38554     59.51579        11     0.999     0.784  16.43   0
       185    767.1777    503.1454 300.2569622 +22.7626161     419.5441     72.27415      1.344     3.71      4.78387     20.38554     48.52732        10     0.971     0.726  31.09   0
       186    846.8702    500.8114 300.2825723 +22.7858001     1708.929     72.27415      1.449     2.90     4.912193     20.38554     193.7759        20     1.101     0.977 -53.24   0
       187    718.0788    498.3310 300.2432178 +22.7465333     2589.344     72.36609      1.416     2.61       4.8282     20.38554     308.6701        26     1.157     1.048  31.89   0
       188     77.7958    498.4020 300.0438765 +22.5547357     317.1912     72.07147      1.368     3.12     4.891765     20.38554     33.12551         5     0.744     0.435 -22.00   0
       189    961.3315    491.8925 300.3211781 +22.8174913     1017.059     72.38446      2.524     4.40     4.886369     20.38554     72.36499        15     1.232     0.989  19.93   2
       190    927.1626    495.5764 300.3093200 +22.8083255     189.1308     72.27415      1.081     3.53     4.899575     20.38554       40.109         5     1.016     0.458 -59.32   0
       191    623.0359    495.2137 300.2146079 +22.7171799     491.3831     72.25574      1.385     3.26     5.216081     20.38554     57.96927         8     0.843     0.703  13.22   0
       192    505.3067    494.0197 300.1783201 +22.6815791      747.962     72.18209      1.422     3.55     5.136538     20.38554     80.40638        14     1.070     0.927  85.08   0
       193    975.4472    492.5897 300.3253568 +22.8219156     1253.434     72.27415      1.580     3.03     4.879724     20.38554     146.3701        20     1.152     1.039 -25.50   0
       194    847.2372    491.0136 300.2858676 +22.7830934     2243.174     72.25574      1.577     3.50     4.863821     20.38554     212.1144        29     1.386     1.117  79.36   0
       195    600.7173    488.8124 300.2097317 +22.7086573     681.5285     72.23734      1.730     5.03     5.282688     20.38554     70.70565        16     1.328     0.972  71.64   2
       196    600.0046    484.6822 300.2108503 +22.7072572     353.8177     72.18209      1.119     3.41     5.280095     20.38554     41.45649         5     0.811     0.415  22.18   3
       197    438.8239    487.7083 300.1596662 +22.6598523     486.4647     72.18209      1.575     2.92     5.001729     20.38554      60.2076         9     0.839     0.750  74.64   0
       198    885.4053    485.9316 300.2994233 +22.7930558     4263.792     72.21893      1.509     3.10     4.897156     20.38554     394.0925        30     1.190     1.140  69.32   0
       199    526.8094    485.6517 300.1877336 +22.6856155     296.7892     72.25574      1.198     3.39      5.14531     20.38554     36.39357         6     0.729     0.634 -53.99   0
       200    622.7783    482.1495 300.2187685 +22.7133489     202.9709     72.25574      1.383     5.08     5.216081     20.38554     34.85638         6     1.119     0.652  82.84   0
       201    545.9962    481.4378 300.1950779 +22.6901511     411.9902     72.29255      1.947     4.42     5.160271     20.38554     43.03598         6     0.859     0.647  36.85   0
       202    977.2724    476.5931 300.3311194 +22.8178617     685.0263     72.21893      1.381     3.34     4.886959     20.38554      82.2639        13     1.015     0.847  16.96   0
       203    117.1017    475.7018 300.0634644 +22.5600026     977.7827     72.45792      1.690     4.37     5.003385     20.38554     119.1837        20     1.351     1.019  35.83   0
       204    747.1524    473.9206 300.2602057 +22.7482214     151.7637     72.27415      1.155     3.92     4.711528     20.38554     31.79596         5     0.820     0.536  32.74   0
       205    778.3288    470.4269 300.2710604 +22.7565497      328.696     72.23734      1.507     4.17     4.635652     20.38554     32.62532         6     1.052     0.472  54.24   0
       206    383.5465    469.4336 300.1483892 +22.6380445     256.9664     72.27415      1.448     4.12     4.884917     20.38554     35.34157         5     0.989     0.489  -5.44   0
       207    109.9770    466.4638 300.0642475 +22.5552155     345.0228     72.23734      1.338     3.50     4.996303     20.38554     42.03064         8     0.884     0.653 -54.44   0
       208    717.7572    460.3845 300.2554353 +22.7355310     417.0222     72.27415      1.418     4.31      4.72209     20.38554     45.76976         7     0.986     0.572  20.60   0
       209    606.6440    458.2554 300.2214969 +22.7016519     337.2661     72.25574      1.223     3.38      5.21155     20.38554      49.8662         6     0.855     0.482  50.89   0
       210    658.9395    456.2699 300.2384377 +22.7167394     713.1141     72.29255      1.293     2.92     4.976402     20.38554      89.8539        12     0.930     0.800 -19.32   0
       211    973.3560    448.8963 300.3388875 +22.8087249     613.7023     72.27415      1.559     3.91     4.804023     20.38554     69.88848        12     1.153     0.742  51.99   0
       212    719.7007    448.2357 300.2599844 +22.7326210     906.6461     72.23734      1.430     3.01     4.658594     20.38554     106.2053        16     1.127     0.856 -75.35   0
       213    876.8588    444.7990 300.3101087 +22.7786718     1038.864     72.21893      1.444     3.27     4.599891     20.38554     104.7077        15     0.987     0.983 -56.26   0
       214    860.9857    440.8571 300.3064366 +22.7727882     548.7639     72.23734      1.461     3.70     4.528569     20.38554     60.20478        11     1.043     0.780  86.10   0
       215    841.6988    441.5512 300.3001954 +22.7672157     382.2665     72.29255      1.458     3.15     4.497048     20.38554     47.75151         5     0.751     0.411  26.49   0
       216    605.3588    438.9941 300.2273479 +22.6957322     3343.125     72.29255      1.429     2.74     5.141656     20.38554     349.1798        27     1.144     1.049  63.73   0
       217    965.6118    437.9619 300.3400197 +22.8032633     556.3552     72.25574      1.660     5.51      4.75947     20.38554     54.35012        11     1.269     0.858  57.55   0
       218    752.2798    438.1239 300.2734231 +22.7394669     196.3701     72.36609      1.386     3.51     4.477647     20.38554      34.1002         5     1.033     0.344 -47.73   0
       219     81.6953    430.2826 300.0671970 +22.5363534     265.4226     72.43956      1.304     3.17     4.949215     20.38554     42.00753         5     0.892     0.436   8.26   0
       220    445.2528    426.0627 300.1816757 +22.6440705     428.5666     72.31094      1.531     3.81     4.900122     20.38554     40.66547        10     0.922     0.759  -0.77   0
       221   1016.7186    418.3419 300.3623382 +22.8129104     1273.239     72.31094      1.652     3.70     4.825525     20.38554     127.0493        19     1.199     1.024  32.78  16
       222    975.2107    417.1303 300.3497762 +22.8001441     959.8636     72.23734      1.486     3.05     4.715182     20.38554     92.72176        13     0.958     0.847 -35.22   0
       223    888.4999    418.0018 300.3224373 +22.7744501     567.9363      72.1268      1.489     3.17      4.43623     20.38554     57.60421         8     0.815     0.696  47.97   0
       224    625.1663    414.8752 300.2413473 +22.6947316     327.2195     72.25574      1.263     3.34     5.021986     20.38554     33.92676         6     0.748     0.569 -34.99   0
       225    716.0790    412.9734 300.2702994 +22.7214012     1061.168     72.25574      1.334     2.94     4.571747     20.38554     134.6324        15     0.982     0.901  20.12   0
       226    511.6834    413.3000 300.2065046 +22.6602990       337.58      72.4212      1.207     3.52     5.004582     20.38554     50.26793         6     0.719     0.656  18.72   0
       227    219.9276    411.1914 300.1163774 +22.5722982     561.9763     72.23734      1.318     3.74     4.977123     20.38554     65.89828        10     0.952     0.746 -30.47   0
       228   1015.5585    405.5783 300.3661182 +22.8088921     4363.332     72.29255      1.641     3.15     4.775891     20.38554     442.3814        38     1.376     1.236 -57.63  16
       229    282.2362    406.7375 300.1372070 +22.5896878     3805.475     72.27415      1.534     2.84     4.928985     20.38554     444.1421        30     1.193     1.151  58.82   0
       230    229.4730    401.4430 300.1225098 +22.5723591     7708.103     72.23734      1.580     2.84     4.935354     20.38554     963.7651        40     1.319     1.220  64.70   0
       231    995.3205    396.6443 300.3627006 +22.8002681     1939.153     72.23734      1.709     3.35      4.69896     20.38554     182.3658        26     1.355     1.102 -78.80   0
       232    370.2928    395.8307 300.1681497 +22.6129340     4984.169     72.18209      1.423     2.69     4.890053     20.38554     632.4267        30     1.164     1.076  54.51   0
       233    614.5128    392.5936 300.2452579 +22.6851384     18621.63     72.16367      1.409     2.48     5.047425     20.38554     2507.011        53     1.265     1.161  71.28   0
       234    632.1236    392.6058 300.2507417 +22.6904143     819.0321     72.16367      1.966     6.22     5.006932     20.38554     61.15923        18     1.479     0.921 -48.79   0
       235    462.3402    394.0925 300.1973707 +22.6400036     249.6073     72.32933      1.156     3.81     4.906296     20.38554     38.10558         5     0.884     0.472 -86.73   0
       236    858.0952    389.3698 300.3222440 +22.7571188     423.9615     72.18209      1.314     3.27     4.330187     20.38554     48.18524         7     0.828     0.683 -61.28   0
       237    811.6627    383.2835 300.3097368 +22.7414739     365.4451     72.34771      1.254     2.52     4.300368     20.38554     50.64367         6     0.680     0.624  12.56   0
       238    235.1650    379.5946 300.1313694 +22.5677906     384.6186     72.23734      1.616     2.13      4.88144     20.38554     40.42857         5     0.694     0.450 -21.84   0
       239    948.1533    375.4012 300.3548738 +22.7800474     926.9526     72.25574      1.666     3.52     4.573194     20.38554     102.4924        14     1.118     0.881 -40.60   0
       240    485.2489    374.3801 300.2109006 +22.6412004     320.7524     72.27415      1.443     3.44     4.935077     20.38554     37.47477         6     0.917     0.644 -32.80   0
       241    169.1305    372.6508 300.1130830 +22.5460112     1892.182     72.25574      1.487     2.75     5.007409     20.38554     248.0376        23     1.214     1.058  48.60   0
       242    657.8491    373.6785 300.2649001 +22.6926754     217.3448     72.25574      1.117     3.43     4.949284     20.38554     37.50748         5     0.769     0.443  13.73   0
       243    968.6117    362.6444 300.3653973 +22.7824985      1246.67     72.25574      1.506     2.87     4.566223     20.38554     140.5337        18     1.292     0.899  62.45   0
       244    555.1503    362.0091 300.2366866 +22.6585760     6496.624     72.25574      1.374     2.74     4.974295     20.38554     729.6108        36     1.166     1.103  65.17   0
       245    269.9161    361.4550 300.1480659 +22.5729923     626.1049     72.34771      1.376     3.25     4.882399     20.38554      79.9876        13     0.992     0.872  89.44   0
       246    127.9543    354.4622 300.1061794 +22.5284506     492.5902     72.29255      1.672     2.70     4.837058     20.38554     65.28116         7     0.830     0.682  53.95   0
       247    815.0609    354.4163 300.3201629 +22.7341904      265.008     72.20052      1.110     3.14     4.334689     20.38554     42.22942         6     0.793     0.489  -5.69   0
       248    759.3528    351.1928 300.3038370 +22.7165925     1180.387     72.27415      1.483     3.69     4.712033     20.38554     133.7797        18     1.153     0.955  89.42   0
       249    668.8983    352.4260 300.2752391 +22.6898740     371.9595     72.20052      1.195     2.41     4.929716     20.38554     68.31997         7     0.794     0.582  24.68   0
       250    461.8354    348.2326 300.2120926 +22.6266762     6221.229     72.29255      1.400     2.60     4.908273     20.38554     771.8806        36     1.220     1.107  88.28   0
       251    951.1033    343.1841 300.3662474 +22.7716633      543.233     72.16367      1.467     3.87     4.538291     20.38554     57.47019        13     1.048     0.931  35.38   0
       252    853.6641    342.9439 300.3359252 +22.7424424     1481.495     72.31094      1.487     2.68     4.390548     20.38554     171.6907        21     1.201     0.985 -33.91   0
       253    446.3654    337.0648 300.2108984 +22.6188349     400.6771     72.25574      1.232     2.28     4.896643     20.38554     60.59512         7     0.715     0.636  79.90   0
       254    529.4365    335.0311 300.2374289 +22.6431242      465.088     72.27415      1.277     4.18     4.901628     20.38554      58.0834         8     0.857     0.681   2.70   0
       255    510.0214    332.5349 300.2321914 +22.6365939     260.8138     72.23734      1.179     3.48     4.911246     20.38554     30.00664         6     0.783     0.498   1.65   0
       256    826.5537    330.5378 300.3314940 +22.7307629     489.1562     72.27415      1.095     2.79     4.468685     20.38554     78.30192         8     0.955     0.590  10.06   0
       257    349.4501    327.3725 300.1838722 +22.5870261     2479.374     72.27415      1.431     2.63     4.959464     20.38554     301.1951        22     1.122     0.992  74.08   0
       258     68.0531    324.8962 300.0971469 +22.5020120     986.6512     72.32933      1.708     4.22     4.799718     20.38554     107.2061        21     1.478     0.964   2.89   0
       259    318.7019    316.8213 300.1777252 +22.5747857     29991.47     72.18209      1.501     2.88     4.978097     20.38554     3650.501        70     1.359     1.264  52.88   0
       260    853.3438    314.5624 300.3450325 +22.7341844     1376.082     72.25574      1.500     2.70     4.544629     20.38554     168.4136        20     1.101     1.052  48.44   0
       261    809.2382    311.8250 300.3321641 +22.7202006     370.3253     72.27415      1.508     4.83     4.598905     20.38554     43.76656        10     1.197     0.866 -51.28   0
       262     15.0311    304.4706 300.0872914 +22.4802585     4906.563     72.25574      1.775     3.34     4.809952     20.38554     543.6617        43     1.440     1.390  11.39   0
       263    768.7676    303.7874 300.3221511 +22.7057794     586.2764     72.23734      1.495     3.19     4.780331     20.38554     61.11031        12     0.922     0.879  87.88   0
       264    417.1511    302.4126 300.2130428 +22.6001300     499.6173     72.29255      1.340     2.68     4.914285     20.38554     56.82991         9     0.856     0.668 -61.08   0
       265    193.0972    302.9505 300.1431467 +22.5331769     507.7633     72.31094      1.608     3.15     5.004952     20.38554     51.90162        10     0.894     0.761  82.79   0
       266    729.1346    296.9081 300.3120255 +22.6919412     1933.665     72.38446      1.370     2.45     4.904562     20.38554       254.79        20     1.021     0.955  12.09   0
       267    537.2508    291.0609 300.2541257 +22.6328269      373.382     72.31094      1.405     4.45     4.801338     20.38554     52.51241         7     1.021     0.552  71.74   0
       268    944.5034    289.8137 300.3815010 +22.7543368      673.347     72.16367      1.468     3.18     4.548101     20.38554     77.65574        11     0.997     0.754 -19.83   0
       269    798.5184    283.4012 300.3380407 +22.7088190     196.0372     72.14524      1.162     4.16     4.770955     20.38554     33.09993         5     1.012     0.487  -3.51   0
       270    390.9590    281.1551 300.2117833 +22.5861789     2148.869     72.32933      1.595     3.67     4.973783     20.38554     213.4081        27     1.378     1.040  68.52   0
       271    603.2595    280.3334 300.2781696 +22.6495028     320.3944     72.29255      1.215     3.36     4.921341     20.38554     53.29516         5     0.728     0.462   9.44   0
       272    830.0695    274.4127 300.3507960 +22.7156739     561.1128     72.27415      1.415     4.32     4.751056     20.38554     64.64061         7     0.872     0.609 -23.96   0
       273    712.2522    272.1219 300.3148017 +22.6797622     415.3286     72.25574      1.119     2.22     4.920939     20.38554     59.91629         6     0.728     0.525  29.20   0
       274    466.7961    260.6039 300.2420603 +22.6029806      1164.92     72.07147      1.342     2.54     4.877165     20.38554     159.8818        17     1.077     0.928 -62.54   0
       275    978.3344    256.9393 300.4027211 +22.7549980     378.1676     72.29255      1.285     3.26     4.730083     20.38554     55.16483         8     1.038     0.669 -19.76   0
       276    850.1287    254.2241 300.3636002 +22.7158683     356.8128     72.29255      1.336     2.48     4.782522     20.38554     47.42562         6     0.727     0.550  38.88   0
       277    711.6863    252.6177 300.3209507 +22.6739846     2244.623     72.20052      1.432     2.63     4.933651     20.38554     289.4163        24     1.133     1.027 -78.18   0
       278    972.9543    247.0698 300.4042428 +22.7505493     3358.871     72.23734      1.567     2.99     4.776531     20.38554     350.2616        30     1.306     1.131  69.58   0
       279    519.6724    246.3351 300.2631553 +22.6147093     299.7511     72.29255      1.676     5.40     4.797495     20.38554     33.28215         5     0.975     0.845 -72.95   0
       280    420.0499    236.1568 300.2354325 +22.5819592     665.4628     72.29255      1.363     3.42      4.91032     20.38554     93.61113        11     1.071     0.803  89.40   0
       281     94.9256    230.5829 300.1360867 +22.4829832     1451.317     72.25574      1.763     3.27      4.97569     20.38554     152.3139        24     1.376     1.039 -33.66   0
       282    125.6030    230.1622 300.1457613 +22.4920529     612.5322     72.29255      1.617     4.46     4.977427     20.38554     82.31458        11     1.146     0.826  50.49   0
       283    988.8738    227.6081 300.4155225 +22.7497106     372.6315     72.21893      1.331     2.44     4.927897     20.38554      68.3075         7     0.819     0.717 -83.60   0
       284    832.2000    224.4423 300.3676658 +22.7019385     315.8682     72.23734      1.163     1.98     4.857965     20.38554     52.08985         5     0.683     0.442  25.74   0
       285    179.0295    222.5714 300.1648371 +22.5058770     412.8953     72.23734      1.302     2.15     4.996262     20.38554     63.53727         6     0.733     0.495   0.47   0
       286    973.8127    219.8899 300.4133247 +22.7429857     323.6112     72.20052      1.465     4.52     4.903914     20.38554     48.94178         8     0.948     0.738 -81.49   0
       287    855.1192    216.2670 300.3774656 +22.7064429     423.6481     72.36609      1.429     3.83     4.859099     20.38554     43.26571         6     0.906     0.463  38.86   0
       288    783.3827    213.9503 300.3558434 +22.6843165     652.6019     72.27415      1.450     3.65     4.871957     20.38554     79.29054        13     1.051     0.917  77.57   0
       289    374.1617    213.7244 300.2284205 +22.5617734     473.2568     72.21893      1.354     2.05     5.044939     20.38554     62.81738         6     0.708     0.532 -53.01   0
       290    881.5011    203.1200 300.3899583 +22.7105521     1981.981     72.38446      1.500     2.91      4.85231     20.38554     216.7614        25     1.154     1.109 -63.79   0
       291    300.0026    200.2079 300.2097222 +22.5356836     2189.222     72.07147      1.438     2.85      5.20917     20.38554     226.7037        23     1.118     1.055  80.09   0
       292    377.7739    195.2567 300.2355325 +22.5575479     1110.955     72.25574      1.625     3.19      5.10759     20.38554     107.2443        20     1.142     1.077 -70.12   0
       293    129.4946    195.3304 300.1582643 +22.4832147     391.8026     72.36609      1.538     4.23     5.030217     20.38554     49.31594         7     1.034     0.493 -84.60   0
       294    779.9481    194.8653 300.3609604 +22.6777997     393.2143     72.29255      1.370     3.67     4.867115     20.38554     50.19547        10     0.937     0.753  53.50   0
       295    887.0026    192.1599 300.3952282 +22.7090445     433.8169     72.27415      1.408     2.78     4.862719     20.38554     49.08568         8     0.811     0.706 -11.27   0
       296    194.7563    187.5141 300.1810943 +22.5005174     867.2245     72.23734      1.637     3.21     5.170522     20.38554     109.6154        15     1.088     0.947 -19.13   0
       297    312.8119    187.5049 300.2178266 +22.5358693     289.3779     72.18209      1.338     2.34     5.275671     20.38554      47.8909         5     0.709     0.468  19.17   0
       298    732.5832    184.4800 300.3495591 +22.6606424     1665.801     72.25574      1.373     2.41     4.881765     20.38554     221.4478        19     1.159     0.931  79.07   0
       299    797.3138    183.9451 300.3699163 +22.6798537     607.0515     72.31094      1.568     3.47     4.856866     20.38554     63.24931        11     1.016     0.784 -79.01   0
       300    216.0065    180.9114 300.1898447 +22.5049851     508.0399     72.16367      1.341     3.63     5.306493     20.38554     69.99875        12     1.179     0.685  10.46   0
       301   1004.0936    177.0606 300.4366625 +22.7397163     801.3478     72.34771      1.449     3.44     4.967865     20.38554     90.08449        13     1.018     0.959  -5.97   0
       302    505.8905    176.8627 300.2813879 +22.5906142     380.8329     72.34771      1.409     4.37     4.813498     20.38554     45.49805         7     1.048     0.519 -21.89   0
       303    736.6016    175.8046 300.3536245 +22.6593495     868.1525     72.07147      1.796     3.06     4.869763     20.38554     91.94195        14     1.052     0.843 -59.05   0
       304    657.2529    175.3347 300.3290423 +22.6354732      1188.24     72.29255      1.316     2.74     4.905646     20.38554     136.0098        18     1.040     0.975 -49.16   0
       305    478.2689    171.4392 300.2745435 +22.5807873     420.8395     72.21893      1.833     4.84     4.789163     20.38554     34.12747         7     1.088     0.611  26.03   0
       306    852.7484    166.8757 300.3927398 +22.6915250     1548.254     72.27415      1.489     2.80     4.865136     20.38554     165.5929        21     1.125     1.038  44.71   0
       307    583.4175    166.8068 300.3087986 +22.6109262     937.3788     72.21893      1.383     2.84     4.862065     20.38554     134.0944        15     1.037     0.910  64.60   0
       308    864.8416    165.8611 300.3968411 +22.6948501     845.1794     72.23734      1.559     3.83     4.867774     20.38554     91.43303        17     1.161     1.072  -1.79   0
       309    910.8894    164.7721 300.4115600 +22.7083087     282.7348     72.23734      1.478     5.03     4.924452     20.38554     34.54137         6     1.088     0.659 -86.15   0
       310   1024.0000    156.3866 300.4495786 +22.7397185     293.4942     54.08895      1.288     3.60     4.959754     20.38554     71.86227         5     1.290     0.289  90.00  24
       311    981.3873    156.1113 300.4363670 +22.7268980     905.0274     72.20052      1.450     3.12     4.959754     20.38554     124.7733        16     1.044     0.960 -69.45   0
       312      5.4397    152.7744 300.1334947 +22.4338294     398.6943     72.29255      1.411     3.23     5.669677     20.38554     53.20617         7     0.926     0.519 -30.18  16
       313    215.6148    149.0485 300.2000513 +22.4957138     637.5721     72.29255      1.474     3.59     5.438944     20.38554     77.78522        14     1.152     0.841 -24.63   0
       314     77.2624    143.5865 300.1587975 +22.4527068     2147.341     72.23734      1.668     3.30      5.31746     20.38554      262.582        31     1.382     1.246  68.76   0
       315    900.7458    141.0476 300.4160859 +22.6984488     794.4494     72.29255      1.554     3.27     4.933264     20.38554     79.69296        13     1.047     0.863 -20.82   0
       316    234.6289    137.0359 300.2098599 +22.4979565     5620.904     72.27415      1.579     3.15     5.510374     20.38554     592.9612        38     1.346     1.226  70.48   0
       317    216.2627    138.5203 300.2036653 +22.4928831     418.1951     72.34771      1.135     2.60     5.441872     20.38554     45.35221         5     0.702     0.468 -19.43   0
       318     19.1152    131.4808 300.1446464 +22.4318113      1268.36     72.40283      1.643     3.05     5.587244     20.38554     140.9243        19     1.319     0.941 -47.42   0
       319    218.0541    128.2256 300.2075592 +22.4904617     493.5209     72.27415      1.407     3.63     5.460715     20.38554     63.79399        10     0.950     0.739 -51.68   0
       320    878.8456    118.8333 300.4164539 +22.6855075      3588.23     72.29255      1.507     2.99     4.936073     20.38554     392.0843        31     1.317     1.103 -87.14   0
       321    982.5268    117.6880 300.4491776 +22.7161808     2755.079     72.40283      1.546     2.93     4.964063     20.38554     311.7061        30     1.304     1.129 -83.49   0
       322    428.4039    114.4643 300.2774836 +22.5494836     515.9249     72.25574      1.443     4.44     4.923891     20.38554     65.95637        13     1.260     0.753  59.56   0
       323    181.7205    114.2201 300.2007967 +22.4755572     286.9867     72.25574      1.459     4.49     5.169618     20.38554     43.21683         6     1.128     0.508 -46.82   0
       324    352.4512    106.0717 300.2565588 +22.5243353     738.5244     72.25574      2.169     2.98     5.367227     20.38554     78.75836         8     0.913     0.709 -17.13   2
       325    118.7881    102.6274 300.1849827 +22.4533795     673.8114     72.25574      1.777     3.24     5.291214     20.38554     88.31328        12     1.117     0.881 -16.00   0
       326    479.6836    101.1461 300.2977680 +22.5610031     1857.989     72.29255      1.487     2.67     4.827724     20.38554     223.8504        25     1.208     1.080 -51.41   0
       327    407.4571    101.9430 300.2750199 +22.5396144     542.6591     72.32933      1.568     3.35     4.991374     20.38554     66.28352         8     0.955     0.677  13.30   0
       328    541.4630    100.5790 300.3171944 +22.5793286     564.1389     72.21893      1.686     3.65     4.895108     20.38554     55.94744         9     0.965     0.801 -42.55   0
       329    223.4290     96.7542 300.2194305 +22.4830286     379.4555     72.29255      1.395     2.39     5.515232     20.38554     44.05788         5     0.705     0.445 -66.65   0
       330    696.0888     95.1179 300.3671483 +22.6240219     198.1394     72.36609      1.372     3.62     4.916966     20.38554     43.34015         5     0.928     0.407  45.95   0
       331    767.7309     91.0558 300.3908007 +22.6442835     375.2895     72.27415      1.296     5.33     4.932651     20.38554     40.49252         9     0.976     0.820  43.70   0
       332    253.6755     80.9296 300.2339683 +22.4875377     6026.307     72.32933      1.583     3.05     5.542824     20.38554     646.4219        40     1.357     1.211  68.73   0
       333    883.2462     79.1353 300.4306927 +22.6754002     411.6164     72.27415      1.317     3.00     5.096603     20.38554     54.35595         6     0.747     0.611 -13.70   0
       334    225.5577     74.8764 300.2271822 +22.4773794     371.8618     72.23734      1.548     5.27      5.51788     20.38554     34.81569         8     1.088     0.759  -4.30   0
       335    269.2164     72.1263 300.2416562 +22.4896608     368.1829     72.25574      1.416     5.06     5.566034     20.38554     42.35986         8     0.959     0.754 -79.16   0
       336     15.4476     71.6114 300.1629075 +22.4135178      271.168     72.27415      1.217     2.72     5.581376     20.38554     58.58963         5     0.737     0.461 -16.06   0
       337    499.7991     66.3919 300.3152952 +22.5570307     6276.219     72.07147      1.491     2.59     4.840235     20.38554     805.8401        37     1.249     1.156  83.28   0
       338    385.3528     66.3598 300.2796693 +22.5227694     597.3733     72.31094      1.502     3.61     5.194245     20.38554      67.2487        10     1.039     0.736 -61.21   0
       339    556.9279     61.2769 300.3347481 +22.5726546     448.4268     72.36609      1.745     4.14      4.92582     20.38554     33.11958         7     0.735     0.687 -20.64   0
       340    520.2554     60.6182 300.3235377 +22.5614919     197.8803     72.23734      1.252     3.42     4.848206     20.38554     28.85786         5     0.750     0.451 -17.51   0
       341    104.9450     80.8583 300.1877327 +22.4429799     864.3868     72.31094      1.806     3.79     5.414856     20.38554     69.96022        15     1.341     0.754 -13.47   0
       342    693.8591     57.9144 300.3785093 +22.6126533     252.7919     72.36609      1.312     3.76     5.540372     20.38554     32.34054         5     1.021     0.398  31.35   0
       343    752.3727     56.2063 300.3973050 +22.6296639     828.2673     72.25574      1.636     3.44     5.479795     20.38554     93.09013        12     1.108     0.773 -54.53   0
       344    844.9539     55.4515 300.4264221 +22.6571344     396.9007     72.29255      1.116     1.95     5.241626     20.38554     76.37763         6     0.733     0.497  -3.18   0
       345    192.5331     50.5174 300.2248020 +22.4604915     367.5141     72.36609      1.300     3.26     5.147777     20.38554     44.85151         6     0.893     0.423 -19.73   0
       346    551.0878     48.5904 300.3370394 +22.5672589     473.9499     72.18209      1.526     3.92     4.890784     20.38554     56.20531         8     1.104     0.619  50.99   0
       347    628.1467     46.4923 300.3617293 +22.5897103     6345.535     72.31094      1.461     2.69     5.459931     20.38554      789.713        37     1.286     1.102  72.43   0
       348    403.0323     45.4858 300.2919366 +22.5220602     1488.339     72.21893      1.560     3.14     5.014331     20.38554     157.2166        21     1.189     1.021  54.00   0
       349    669.3875     44.0259 300.3753815 +22.6013379     809.2783     72.25574      1.347     2.62     5.751959     20.38554     112.7361        14     1.032     0.808 -64.86   0
       350    738.8395     41.8110 300.3977498 +22.6214747     263.7019     72.25574      1.242     3.47     5.790166     20.38554     32.85222         6     0.747     0.574  48.91   0
       351    685.2501     40.1441 300.3815836 +22.6049663     553.9783     72.29255      1.222     3.40      5.84368     20.38554     70.86942        10     0.976     0.751  45.82   0
       352    955.2327     38.0479 300.4664682 +22.6850984     404.6608     72.29255      1.379     3.28     5.527445     20.38554      49.7456        10     0.932     0.704  -3.92   0
       353    152.0976     37.9464 300.2162988 +22.4447717     674.7761     72.34771      1.467     3.79     4.849751     20.38554     75.86372        10     1.077     0.824 -41.88   0
       354    723.9973     35.6780 300.3951096 +22.6152711     469.2173     72.16367      1.346     2.48     5.909222     20.38554     70.59595         7     0.804     0.581  28.42   0
       355    672.3670     31.4468 300.3803859 +22.5986107     2745.415     72.29255      1.490     2.64     5.985611     20.38554     312.8403        27     1.219     1.082 -45.73   0
       356    687.3786     30.4105 300.3854008 +22.6028029     807.1508     72.23734      1.865     5.69     6.010859     20.38554     85.40811        17     1.594     0.874  45.79   0
       357    313.1721     32.0610 300.2683156 +22.4913044     390.3124     72.25574      1.318     4.19      5.68106     20.38554     54.66144         9     0.969     0.689 -68.85   0
       358    758.7354     23.1334 300.4100048 +22.6220514     1664.905     72.31094      1.481     2.62     5.913371     20.38554     178.1113        24     1.183     1.080 -32.84   0
       359    696.7380     16.4526 300.3928404 +22.6015869     699.2242     72.31094      1.349     2.56     6.247022     20.38554     97.03986        11     0.866     0.787  57.21   0
       360    503.5129    976.0022 300.0211440 +22.8194197     378.1238     72.18209      1.543     4.15     3.657315     20.38554     34.01225         5     1.103     0.446 -27.95   0
       361     75.5229     15.4936 300.1997626 +22.4153901     488.7631     72.40283      1.531     3.59     5.510904     20.38554     58.45068         6     0.903     0.449 -16.32   0
       362    316.0047   1019.3050 299.9486900 +22.7756101     566.1844     72.16367      4.276     4.25     6.203587     20.38554     29.71053         5     0.846     0.610  89.46  16
       363    702.7766     10.3141 300.3967115 +22.6016270      87.4646     72.20052      1.009     3.50     6.349629     20.38554     41.79355         5     0.805     0.440 -12.64   0
       364    255.8279   1011.6088 299.9324721 +22.7553514      1108.11     72.25574      3.485     7.56     49.14906     20.38554      46.1774        14     1.476     1.084 -77.93   2
