#   1 NUMBER                 Running object number                                     
#   2 X_IMAGE                Object position along x                                    [pixel]
#   3 Y_IMAGE                Object position along y                                    [pixel]
#   4 ALPHA_J2000            Right ascension of barycenter (J2000)                      [deg]
#   5 DELTA_J2000            Declination of barycenter (J2000)                          [deg]
#   6 FLUX_APER              Flux vector within fixed circular aperture(s)              [count]
#   7 FLUXERR_APER           RMS error vector for aperture flux(es)                     [count]
#   8 FLUX_RADIUS            Fraction-of-light radii                                    [pixel]
#   9 FWHM_IMAGE             FWHM assuming a gaussian core                              [pixel]
#  10 BACKGROUND             Background at centroid position                            [count]
#  11 THRESHOLD              Detection threshold above background                       [count]
#  12 FLUX_MAX               Peak flux above background                                 [count]
#  13 ISOAREA_IMAGE          Isophotal area above Analysis threshold                    [pixel**2]
#  14 A_IMAGE                Profile RMS along major axis                               [pixel]
#  15 B_IMAGE                Profile RMS along minor axis                               [pixel]
#  16 THETA_IMAGE            Position angle (CCW/x)                                     [deg]
#  17 FLAGS                  Extraction flags                                          
         1    691.4316     16.2948 300.3929578 +22.6014458      777.137     72.15925      1.582     4.09      5.98826     20.36869     102.0765        15     1.312     0.874  70.52   0
         2    497.1998     15.8031 300.3325964 +22.5431865     1193.949     71.97503      1.707     3.28     5.320733     20.36869     114.1269        19     1.304     0.982 -23.89   0
         3     70.4234     15.4814 300.1999007 +22.4153158     613.7661     72.15925      2.007     4.95     6.165035     20.36869     58.52946         8     1.324     0.523 -59.54   0
         4    400.9949     13.9287 300.3032460 +22.5138529     712.2829     72.14085      1.373     3.23     5.290322     20.36869     96.22295        12     1.056     0.760 -67.43   0
         5    740.3924      4.7844 300.4119500 +22.6127796     567.4827     70.95326      1.336     2.80     6.389419     20.36869     85.92814        11     1.046     0.641  32.76  16
         6    172.3137      3.6426 300.2354180 +22.4424290     3775.217     67.42254      1.698     3.01     5.232366     20.36869     437.9479        34     1.346     1.280  52.24  24
         7    172.7825    996.6910 299.9132574 +22.7276877     3025.415     72.12244      7.245    30.18     78.52851     20.36869      63.2225       243     5.783     4.636  73.07  18
         8    969.3002   1022.9797 300.1528238 +22.9740732     201.3944     59.93798      1.341     4.21     3.356238     20.36869     33.90629         5     1.089     0.463  21.74  24
         9     87.0787   1010.7665 299.8820344 +22.7060029      4986.75     72.17764     17.428    99.53     79.43433     20.36869     162.0789      2234    19.184    15.378  55.12  27
        10    634.2089    986.7640 300.0601163 +22.8632423     8791.221     72.19604      2.108     5.23     3.812856     20.36869     431.1484        56     1.680     1.559  13.71   3
        11    639.7113    984.6553 300.0625167 +22.8642865     9621.479      72.2328      2.091     4.95     3.890551     20.36869     524.1107        52     1.635     1.495  38.05   3
        12    734.3116    988.0003 300.0909122 +22.8936053      518.949     72.10403      1.772     7.21     4.344454     20.36869     37.67204        13     1.267     1.149  61.51   0
        13     77.2210    952.3398 299.8979711 +22.6862910     5193.083     72.14085     26.693    27.11     29.05693     20.36869     1366.906      3299    20.034    13.498 -18.66  19
        14    235.4770    998.9756 299.9320124 +22.7471557     600.7261     72.21442      2.961     3.95     68.75525     20.36869     37.22816         5     0.847     0.527 -35.61   3
        15    203.0982    987.0744 299.9258126 +22.7340267     3555.616     72.32465      8.573    30.72     69.02715     20.36869     86.70927       300     6.713     4.200  28.04  19
        16    238.7644    973.4456 299.9413379 +22.7408191     7500.797      72.2328      8.704    32.35     44.02043     20.36869     178.3698       734    10.762     4.890  62.56  18
        17    928.3496    972.0000 300.1566294 +22.9471588     367.8949     72.14085      1.183     4.18     3.732743     20.36869     42.31631         5     1.729     0.289  -0.00   2
        18    927.4837    969.6050 300.1571382 +22.9462113     553.0936     72.12244      1.859     6.07     3.737735     20.36869     37.28352        11     1.426     0.794 -18.17   2
        19    220.5532    983.9924 299.9322436 +22.7383802       4884.6     72.21442      7.264    20.87     65.59064     20.36869     88.76801       330     5.242     4.800  44.08   3
        20    145.3227    956.0841 299.9179247 +22.7078018     2170.902     72.30629      9.582    14.25     43.50464     20.36869     56.41998        57     3.190     1.770  31.24   3
        21    356.3690    998.9286 299.9696403 +22.7834116     348.6702     72.19604      1.544     5.27     4.182523     20.36869      33.7184         8     1.114     0.703  34.11   0
        22    155.0773    957.2115 299.9205910 +22.7110522     672.0997     72.19604      4.748     4.53     44.81315     20.36869     32.62155         5     0.832     0.700 -47.18   1
        23    652.5760    953.9584 300.0765090 +22.8593300     6762.384     72.25118      2.013     4.69     4.009241     20.36869     363.3169        49     1.591     1.476  -3.69   0
        24    163.6373    945.7252 299.9269877 +22.7103264     991.6833     72.14085      5.546     7.48     35.50563     20.36869     41.56697        13     1.645     0.952  67.00   2
        25    244.8382    948.7759 299.9512495 +22.7355648     81.83752     72.21442      1.085     3.55     23.04156     20.36869     42.18913         6     0.752     0.575  50.66   0
        26    560.9293    944.6158 300.0509941 +22.8291725     1556.518     72.21442      2.140     5.02     3.651113     20.36869     104.7922        29     1.486     1.346  36.91   0
        27     78.5327    917.0269 299.9098605 +22.6765579     4026.092     72.17764     22.658    55.80      12.5001     20.36869     765.5512      1094    12.532     7.646 -22.70   3
        28    455.0433    941.2179 300.0191239 +22.7964470     950.4196     72.21442      1.861     4.53     3.888478     20.36869     74.87739        20     1.385     1.158 -86.59   0
        29    385.4168    939.0424 299.9981565 +22.7749414     6613.993     72.21442      1.976     4.43     4.188842     20.36869     415.3223        48     1.598     1.433  11.57   0
        30    418.2588    926.3091 300.0125199 +22.7811369      711.978     72.26955      1.908     6.34     4.203667     20.36869     47.51492        14     1.222     0.923 -79.76   0
        31    130.3010    926.0013 299.9230358 +22.6946664     999.0071     72.08562      8.015     8.14      18.8983     20.36869     46.29112        13     1.417     1.306  72.64   1
        32    931.7539    917.8764 300.1752933 +22.9326293     2264.184     72.19604      2.048     5.69     3.903347     20.36869     129.7062        33     1.556     1.321  57.35   0
        33    582.9653    915.3572 300.0673726 +22.8273794     398.2565     72.25118      1.633     4.26     3.712168     20.36869     37.26213         7     1.164     0.444  56.35   0
        34      1.4887    992.4042 299.8614067 +22.6750472     713.3036     56.98577     10.824     9.36    -11.23682     20.36869     36.84233        12     2.787     0.877  83.01  27
        35    720.7425    906.7353 300.1131102 +22.8662017     854.8082     72.25118      2.281     9.42     4.146489     20.36869     42.07536        17     1.673     1.480  33.83   0
        36      2.6743   1018.7627 299.8532025 +22.6829594     1551.444     63.21519      8.172    16.06    -13.90252     20.36869      47.0771        50     3.070     2.335 -18.70  26
        37    165.8518    969.6735 299.9198888 +22.7178595     1513.253     72.21442      9.954    12.11     55.63925     20.36869      55.9189        38     2.333     1.749  51.95   3
        38    116.4090    895.6791 299.9285751 +22.6818011     1041.687     72.15925     11.865    11.59      12.4701     20.36869     43.67656        16     2.586     1.446 -23.59   3
        39    547.7582    991.7050 300.0315771 +22.8387399     2257.199     72.21442      2.006     4.90     3.482248     20.36869     144.1116        35     1.529     1.400  11.70   0
        40    755.2687    900.8744 300.1257790 +22.8748655     1148.797     72.26955      2.055     5.82      4.08757     20.36869     68.30043        25     1.372     1.345 -21.50   0
        41    533.6834    901.7637 300.0564415 +22.8087021     225.0393     72.17764      1.447     4.04     3.999322     20.36869     37.06004         5     1.021     0.456  84.21   0
        42    167.6765    976.8704 299.9181158 +22.7204711     2306.774     72.30629      4.251    12.87     61.48047     20.36869     57.53423        48     2.372     1.944 -58.49   3
        43    777.7197    894.7126 300.1347821 +22.8798236     11294.79       72.343      1.924     4.40      4.00908     20.36869     628.3797        52     1.506     1.484  60.69   0
        44    822.6075    895.4155 300.1485507 +22.8934758     531.7563     72.12244      1.948     4.99     3.949537     20.36869     36.18177         8     1.026     0.686  -2.27   0
        45    148.7003   1006.6741 299.9025224 +22.7233237     743.7169     72.32465      1.901     6.43     86.93984     20.36869     37.82448        12     1.339     0.866 -60.34   0
        46    209.4309   1003.0341 299.9225914 +22.7405043     1013.036     72.21442      3.031     9.99     84.02655     20.36869     38.75451        17     2.208     1.259 -84.17   1
        47    969.7037    893.7910 300.1949663 +22.9370768     404.0295     72.10403      1.716     4.44     4.292888     20.36869     38.07012         7     1.053     0.533 -63.98   0
        48     89.9021    885.9703 299.9234910 +22.6710628      937.533     72.14085      3.307     4.10      9.24764     20.36869     57.40965        11     1.300     0.595 -64.07   0
        49    830.6378    882.8015 300.1551563 +22.8922583      559.738     72.21442      2.449     3.38     3.940443     20.36869      37.3423         5     0.768     0.431  70.44   0
        50    483.5839    882.7068 300.0470349 +22.7882106     479.2291     72.12244      1.830     4.01     4.127599     20.36869     34.44472         7     0.973     0.472 -80.34   0
        51    200.0232   1002.6361 299.9197950 +22.7375671     1748.573     72.21442      3.974    10.17     83.94989     20.36869     49.91707        26     1.925     1.583 -43.35   2
        52    786.2697    876.7873 300.1432760 +22.8772366     1213.033     72.19604      1.736     4.61     3.926796     20.36869     90.72327        24     1.327     1.230  13.66   0
        53    231.1072   1000.8257 299.9300514 +22.7463751     952.3945     72.14085      1.440    13.92     75.13226     20.36869     57.29118        32     2.933     1.837   5.80   3
        54    637.9055    873.9447 300.0979543 +22.8319575     412.4511     72.25118      1.710     5.23     3.888649     20.36869     38.88562         9     1.383     0.558  40.28   0
        55    824.2275    870.4151 300.1571841 +22.8867793     939.6788     72.21442      2.814     7.15     3.925363     20.36869     45.84167        15     1.278     1.121 -49.00   0
        56    164.2508    869.0999 299.9520903 +22.6885312       447.24     72.28793      3.672     5.46     9.265419     20.36869     34.74029         5     1.138     0.740  78.77   0
        57    873.0907    861.3996 300.1753551 +22.8988284     515.2158      72.0672      1.956     7.12     4.010772     20.36869     35.63244        12     1.343     1.058 -72.32   0
        58    724.0142    861.0457 300.1289845 +22.8540599     986.9282     72.21442      2.024     4.88     3.925555     20.36869     65.16631        17     1.371     0.958  -4.61   0
        59    735.3981    857.6589 300.1336343 +22.8564984     497.2606     72.15925      1.762     6.20     3.945739     20.36869     45.80579        13     1.196     0.993  64.93   0
        60    436.6372    856.6755 300.0408799 +22.7666620     4406.451     72.14085      1.834     4.06     4.258889     20.36869     302.2173        37     1.395     1.372 -46.54   0
        61    162.6159    842.6984 299.9601636 +22.6804668     724.0045     72.10403      2.121     4.30     7.417936     20.36869     61.61591        10     1.042     0.736 -75.29   0
        62     71.2248    840.2880 299.9325343 +22.6523560     432.1706     72.14085      1.569     5.82     5.309105     20.36869     38.32256         8     1.174     0.811  81.28   0
        63    139.0433    839.3190 299.9539324 +22.6724255     1616.407     72.17764      1.988     4.68     6.663094     20.36869     119.7972        25     1.445     1.211  15.60   0
        64   1011.0388    828.7997 300.2289953 +22.9307792     2037.239     72.19604      2.030     5.05      4.83975     20.36869     112.5168        34     1.527     1.410  35.54   0
        65    965.0515    827.2249 300.2151553 +22.9165540     2231.919     72.21442      2.052     4.87     4.413573     20.36869     129.7563        33     1.506     1.396 -48.22   0
        66    670.1343    827.6685 300.1230406 +22.8283268     503.4037     72.25118      2.122     6.43     4.064874     20.36869     32.49998        10     1.626     0.715 -18.51   0
        67    171.4208    821.6160 299.9697536 +22.6770597     348.2201     72.17764      1.528     4.40     6.209692     20.36869     39.16287         6     1.018     0.551 -54.09   0
        68    748.6914    821.1454 300.1496474 +22.8499932     585.0087     72.25118      1.590     5.85     4.147045     20.36869     55.14278        13     1.244     0.774  -7.67   0
        69    616.7264    814.9199 300.1105416 +22.8086594     4867.312     72.30629      1.726     3.65     4.205692     20.36869     362.2628        35     1.349     1.286 -45.72   0
        70    106.9406    815.3666 299.9517362 +22.6559232     359.6611      72.2328      1.937     4.47      5.12948     20.36869     38.22432         7     1.514     0.376  64.56   0
        71    419.2511    811.6972 300.0500866 +22.7485378     602.3148     72.26955      1.637     4.24      4.36521     20.36869     70.80312        11     1.128     0.867  27.19   0
        72    166.9902    808.6383 299.9725935 +22.6720073     1201.326     72.19604      1.771     4.28     5.669544     20.36869     112.0445        21     1.386     1.107 -25.48   0
        73    637.4927    807.5955 300.1193927 +22.8127794      811.624     72.08562      1.778     3.82     4.212284     20.36869     74.13181        15     1.082     1.011  64.56   0
        74    554.1340    797.8383 300.0965934 +22.7849938     387.2627     72.17764      1.963     4.31     4.335123     20.36869     36.87447         6     1.168     0.454  63.36   0
        75    792.8160    794.8701 300.1719449 +22.8556647     4315.326     72.21442      1.779     3.83     4.168488     20.36869     276.7447        37     1.388     1.316  27.88   0
        76   1009.7542    795.0936 300.2395501 +22.9207061       1082.8     72.21442      1.839     4.33     4.943902     20.36869     84.08279        20     1.359     0.982  44.81   0
        77    202.2992    788.9460 299.9899735 +22.6769481     341.4635     72.28793      1.601     2.63     5.044011     20.36869     51.35721         6     0.898     0.561 -69.62   2
        78    509.9146    787.3577 300.0862267 +22.7687298     615.5688     72.15925      1.545     4.27     4.368369     20.36869     61.09326        11     1.178     0.822 -42.81   0
        79    155.9888    784.5592 299.9769973 +22.6617986     1048.004     72.19604      1.900     4.41     5.185267     20.36869     110.7453        25     1.551     1.280  44.96   0
        80    305.7746    777.0775 300.0260197 +22.7045748      53788.7     72.19604      1.780     3.71     4.801755     20.36869     4172.196       102     1.552     1.516   6.54   0
        81    571.4431    780.5173 300.1076143 +22.7852076     326.5561     72.15925      1.362     3.69     4.382165     20.36869     54.97529        10     0.981     0.774   6.36   0
        82    563.6522    776.2648 300.1065692 +22.7816514      1504.39      72.2328      1.658     3.61     4.397905     20.36869     141.2167        25     1.262     1.139 -10.33   0
        83    976.6879    775.5792 300.2355724 +22.9051950     909.8448     72.12244      2.020     5.48     4.717997     20.36869     55.14712        19     1.280     1.221 -86.39   0
        84    234.7097    775.5536 300.0044061 +22.6828258     411.4288     72.17764      1.564     2.47     4.913474     20.36869     52.99515         6     0.700     0.625 -62.21   0
        85    592.5983    772.1806 300.1169139 +22.7891537      952.496     72.12244      1.715     4.54     4.410066     20.36869     79.48055        16     1.165     0.968  15.51   0
        86    604.0045    770.6378 300.1209690 +22.7921289     611.1366      72.2328      1.619     3.02     4.413628     20.36869     59.67682        10     0.917     0.755  68.47   0
        87    709.2141    766.9423 300.1549569 +22.8225939     411.5634     72.15925      1.408     4.45      4.40758     20.36869     42.28301         8     0.889     0.635  40.38   0
        88    746.5396    757.4726 300.1696696 +22.8310562     775.3777     72.23281      1.816     6.54     4.510139     20.36869     64.78854        15     1.208     0.994  39.42   0
        89    355.5284    754.3232 300.0488962 +22.7129621     31466.88     72.30629      1.722     3.53     4.764759     20.36869     2874.916        72     1.443     1.431 -27.44   0
        90    369.8301    754.9819 300.0531333 +22.7174391     1949.155     72.17764      1.657     3.64     4.696887     20.36869     170.5517        23     1.203     1.122   0.93   0
        91    878.7139    750.6530 300.2131042 +22.8686892     2827.998      72.2328      1.711     3.92     4.764388     20.36869     203.5961        29     1.269     1.221 -40.49   0
        92    366.4796    749.0178 300.0540284 +22.7147224     631.7704     72.19604      2.465     6.01     4.725634     20.36869     46.95414        13     1.360     0.807 -31.72   0
        93    636.6199    746.4539 300.1389898 +22.7949565      884.407     72.17764      1.679     4.07     4.494788     20.36869     87.59317        18     1.183     1.067  -0.10   0
        94    238.0652    746.0775 300.0150273 +22.6753729     622.9476     72.28793      1.515     4.66     4.930777     20.36869     76.11691        17     1.289     1.041   2.31   0
        95    472.9559    746.0812 300.0881299 +22.7457992     369.5037     72.17764      1.448     5.40     4.482693     20.36869     39.96427         9     1.012     0.813  -9.08   0
        96    483.7141    741.0739 300.0931069 +22.7475861     773.9625     72.32465      1.637     4.41     4.495394     20.36869     75.68917        16     1.208     0.960 -88.75   0
        97     43.0275    741.7511 299.9557896 +22.6156305     384.1963     72.21442      1.555     5.56     4.589609     20.36869     39.55702         8     1.085     0.804 -37.53   0
        98    884.8654    738.3726 300.2190134 +22.8670023     395.9849     72.17764      1.565     5.45     4.937672     20.36869     41.60262        10     1.224     0.890 -13.06   0
        99    385.8652    737.6943 300.0637412 +22.7172836     293.5485     72.32465      1.224     3.79     4.649914     20.36869     47.09921         6     1.029     0.401 -13.86   0
       100    342.5542    737.0191 300.0504806 +22.7041047     359.8213      72.2328      1.331     3.63     4.824286     20.36869     34.73244         6     0.783     0.497  88.58   0
       101    638.1965    735.8834 300.1429157 +22.7923926     408.9211     72.12244      1.536     4.51     4.538796     20.36869     32.78094         8     0.838     0.691  43.54   0
       102    429.3868    735.9357 300.0778608 +22.7298257     453.8102     72.15925      1.640     5.68     4.510636     20.36869     45.16711        10     1.349     0.674 -10.10   0
       103     71.6346    734.5886 299.9670081 +22.6221576     588.1937     72.17764      2.023     6.35      4.63723     20.36869     63.45381         9     1.761     0.743  78.24   0
       104    235.8828    730.6987 300.0193448 +22.6703047      478.721     72.36135      1.639     4.07     4.938329     20.36869     63.07033         9     1.129     0.741  32.85   0
       105    559.3352    721.0206 300.1231746 +22.7644916     457.4604     72.17764      1.755     4.23     4.576052     20.36869     34.75005         7     0.757     0.673  68.59   0
       106    528.7457    719.2388 300.1142254 +22.7548124     610.2169     72.19604      1.485     4.50     4.578435     20.36869     57.36892        12     1.096     0.869  -0.80   0
       107    437.5401    718.9225 300.0859266 +22.7273848     269.4045     72.25118      1.531     4.56     4.580797     20.36869     42.66856         7     1.286     0.459 -24.12   0
       108    945.1706    715.8919 300.2451324 +22.8786001     4500.355     72.15925      1.766     3.86      4.92994     20.36869     312.5156        39     1.376     1.344  43.82   0
       109    550.5557    716.7155 300.1218385 +22.7606241     1253.437     72.15925      1.541     3.48      4.58947     20.36869     129.0482        19     1.163     1.029  42.68   0
       110    632.1439    712.0858 300.1487613 +22.7837429     381.9226     72.28793      1.458     4.66     4.633164     20.36869     38.00207         7     1.246     0.494 -19.39   0
       111    933.4985    707.3182 300.2442760 +22.8726404     1648.578       72.343      1.729     3.82     4.938222     20.36869     121.1852        26     1.300     1.172 -15.42   0
       112    296.5737    700.9061 300.0479045 +22.6799517     868.3666     72.14085      1.730     3.50     4.917122     20.36869     103.3911        17     1.232     0.947 -55.69   0
       113    759.9421    698.4202 300.1930347 +22.8181037     2541.453     72.19604      1.731     3.48     4.900019     20.36869      211.601        33     1.487     1.224  -4.82   0
       114    964.7491    697.4518 300.2572328 +22.8791615     1684.735      72.2328      1.820     4.23     4.949049     20.36869     115.6823        28     1.424     1.264 -46.27   0
       115    841.7816    684.1725 300.2231838 +22.8385214     571.2415     72.21442      1.638     6.11     5.015956     20.36869     48.65524        13     1.262     0.831 -35.71   0
       116    146.0135    684.5964 300.0063713 +22.6301225     491.8811     72.04877      1.785     2.89     4.944358     20.36869     79.30262         9     1.087     0.708  33.74   0
       117    878.4280    675.4432 300.2374502 +22.8469870     148547.4     72.21442      1.733     3.58     5.012472     20.36869     12294.88       155     1.563     1.515 -77.31   0
       118    640.8500    679.0878 300.1621939 +22.7768718     419.0808     72.19604      1.592     5.87     4.770253     20.36869     35.28166         8     1.133     0.856 -65.27   0
       119    730.8483    676.0776 300.1912224 +22.8029685     661.5074     72.19604      1.382     3.95     4.985218     20.36869     66.15461        13     1.207     0.832  57.76   0
       120    911.0964    668.7202 300.2498254 +22.8548368     398.5416     72.30629      1.406     4.23     4.982127     20.36869     49.66005         7     0.891     0.571  22.09   0
       121    564.6118    664.2051 300.1432748 +22.7497535     1617.436      72.0672      1.455     3.06      4.82164     20.36869     174.4303        20     1.105     0.982  46.38   0
       122    745.8730    661.5162 300.2006364 +22.8032846      9548.43     72.30629      1.586     3.20      5.02603     20.36869     876.7041        45     1.315     1.278 -54.73   0
       123    227.3965    662.2152 300.0389507 +22.6481036     321.0242     72.04877      1.731     3.50     4.948406     20.36869     25.69131         5     0.795     0.444  71.80   0
       124    247.3175    656.3608 300.0470489 +22.6523961     4996.062     72.15925      1.703     3.33     4.950593     20.36869     504.4865        38     1.334     1.322  89.50   0
       125    329.5475    654.6821 300.0731791 +22.6765671     1072.066      72.2328      1.604     3.42     4.885138     20.36869     102.1145        17     1.067     0.994 -49.35   0
       126    205.2166    651.8929 300.0354043 +22.6384901     529.4843     72.12244      1.691     3.85     4.959295     20.36869     60.21903         9     1.064     0.719  84.54   0
       127    537.5980    650.2980 300.1393770 +22.7376640     687.1335     72.10403      1.463     3.02     4.885478     20.36869     78.01625        11     0.952     0.853  71.95   0
       128    529.3057    642.2532 300.1394070 +22.7328684     3187.026     72.26955      1.526     2.88     4.923217     20.36869     340.7431        31     1.229     1.170  59.10   0
       129    519.5851    636.0812 300.1383839 +22.7281827     1446.649     72.17764      1.551     2.77     4.949622     20.36869     170.0986        21     1.146     1.023  35.29   0
       130    448.3300    635.4108 300.1164122 +22.7066368     300.4881     72.17764      1.303     4.05      4.94024     20.36869     30.95614         5     0.972     0.483   6.29   0
       131    913.5489    634.2127 300.2617991 +22.8456509     464.5447      72.2328      1.376     3.90      4.94931     20.36869      48.6567         9     1.059     0.594 -22.35   0
       132    182.8146    631.7531 300.0349776 +22.6259919     650.3242     72.21442      1.577     6.61     4.985481     20.36869     74.70253        13     1.472     0.834  34.58   0
       133    197.5684    630.2436 300.0400563 +22.6299825     631.5864     72.25118      1.483     3.44     4.981175     20.36869     69.04098         9     1.161     0.554  60.12   0
       134    966.3181    627.4659 300.2804558 +22.8595099     565.3749     72.30629      1.899     5.89     4.959774     20.36869     40.13892        11     1.108     0.882  22.66   0
       135    222.7313    627.7086 300.0487060 +22.6367995       591.53     72.32465      1.519     4.57     4.971761     20.36869     62.69021         8     1.134     0.523 -16.57   0
       136    543.7702    626.2371 300.1491139 +22.7326018     474.7469     72.21442      1.853     4.36     5.015213     20.36869     56.49165         8     1.112     0.720  74.56   0
       137    444.3572    625.6658 300.1183401 +22.7026474     1850.374     72.17764      1.571     2.73     4.981962     20.36869     241.9152        24     1.239     1.019  89.38   0
       138   1020.0411    623.1570 300.2986224 +22.8743532     883.6099      71.5124      1.762     4.29     4.990351     20.36869     76.77169        19     1.239     1.101 -41.25  16
       139     98.2700    620.4050 300.0123745 +22.5973822     19742.29     72.15925      1.834     3.48     5.154744     20.36869     2051.979        66     1.536     1.448  33.75   0
       140    529.4110    621.0499 300.1463259 +22.7268092      1065.31     72.21442      1.661     3.82     5.032142     20.36869      97.0416        15     1.135     0.914 -82.99   0
       141     19.4502    622.1417 299.9873111 +22.5742411     644.5515     72.25118      1.768     2.93     5.199852     20.36869     71.42427        11     1.012     0.736  11.17   0
       142    564.7150    619.8762 300.1577040 +22.7370501     416.1465     72.30629      1.437     3.38     5.092231     20.36869     41.57984         5     0.783     0.421  75.75   0
       143    254.1375    627.0972 300.0586742 +22.6460401     338.1497     72.28793      1.504     4.47      4.96486     20.36869     43.73499         6     1.013     0.560  47.69   0
       144    901.0959    616.8911 300.2635395 +22.8369425      338.246     72.37969      1.486     4.53     4.935951     20.36869     36.19138         7     0.973     0.600  75.19   0
       145    584.7651    613.5911 300.1659914 +22.7412516     280.6675     72.17764      1.668     3.37     5.178739     20.36869     32.96046         5     0.777     0.423  22.62   0
       146    947.1927    607.5817 300.2809455 +22.8480669     1124.721     72.15925      1.933     5.37     4.938591     20.36869     89.17882        23     1.493     1.241 -83.75   0
       147    612.7176    608.7811 300.1762624 +22.7482439     210.2572     72.15925      1.233     3.85     5.278269     20.36869     34.76606         5     0.921     0.463  43.56   0
       148     44.4093    604.9332 300.0006559 +22.5767891     1704.026     72.19604      2.219     5.43      5.18259     20.36869     112.2508        29     1.603     1.293  89.73   0
       149    814.2639    605.5830 300.2401274 +22.8076915     614.5032     72.17764      1.592     3.48     4.921781     20.36869     58.18812        13     1.110     0.958  22.77   0
       150    111.0408    604.7943 300.0214137 +22.5967317     426.8435     72.21442      1.626     3.91     5.144068     20.36869     35.98146         5     0.837     0.524  52.29   0
       151    492.6307    601.5237 300.1412116 +22.7101792     489.8975     72.19604      1.450     3.64     5.069852     20.36869     53.85244        10     0.997     0.763  57.17   0
       152    285.3984    600.7405 300.0769586 +22.6478447     252.8584     72.15925      1.108     4.72     4.964157     20.36869     37.36561         6     0.991     0.831  22.72   0
       153    886.5343    599.9891 300.2644858 +22.8277234     990.1631     72.14085      2.568     7.47     4.899594     20.36869     58.52132        17     1.854     0.842   3.88   0
       154    632.2262    597.7851 300.1859120 +22.7509286     273.4618     72.21442      1.523     4.36     5.307951     20.36869     41.48636         7     1.202     0.819  87.56   0
       155    449.2731    594.0867 300.1301253 +22.6950505     785.2905       72.343      1.537     2.85     5.007339     20.36869     94.15495        11     0.935     0.810   8.59   0
       156    597.2314    592.6978 300.1766600 +22.7389835      534.937     72.17764      1.443     3.02     5.287259     20.36869     61.17205         8     0.881     0.660  63.08   0
       157    644.5069    590.8338 300.1919961 +22.7526100     411.4578     72.14085      1.491     3.67      5.32684     20.36869     47.27332         8     0.964     0.732 -61.89   0
       158    615.3176    590.7066 300.1829418 +22.7438295     539.0838     72.36135      1.318     2.66      5.32684     20.36869     71.03823         7     0.796     0.608  23.70   0
       159    493.6747    589.7920 300.1453462 +22.7071221     988.7722     72.17764      1.583     2.92     5.074246     20.36869     116.2971        17     1.088     0.929 -36.70   0
       160    927.3910    585.4617 300.2819500 +22.8357786     3334.759     72.14085      1.697     3.26     4.854023     20.36869     302.3011        35     1.391     1.219  45.11   0
       161    459.1917    585.1637 300.1361110 +22.6954598      1675.92     72.19604      1.451     3.07     5.000871     20.36869     180.5164        20     1.080     1.029 -73.65   0
       162     21.0204    578.5100 300.0019658 +22.5621918     5041.795     72.14085      1.939     3.67     5.134934     20.36869      539.871        43     1.505     1.414  49.49   0
       163    967.3315    575.4133 300.2976760 +22.8448457     326.2845     72.21442      1.319     4.33     4.913133     20.36869     44.72397         7     0.850     0.722  72.05   0
       164    488.4715    576.2915 300.1481093 +22.7016848     309.8613     72.36135      1.545     3.78     5.066938     20.36869     36.29516         6     0.906     0.454   2.11   0
       165    322.5885    571.8373 300.0979154 +22.6506932     9268.188     72.17764      1.589     3.01     4.870006     20.36869     1057.546        43     1.306     1.243  66.98   0
       166    445.0293    568.9228 300.1369744 +22.6865509     9151.978     72.17764      1.496     3.02     4.904182     20.36869     893.5327        46     1.301     1.220  60.82   0
       167    691.3096    565.9772 300.2146536 +22.7594855     284.2449     72.12244      1.551     3.23     5.296175     20.36869      36.9448         5     0.807     0.493 -31.36   0
       168    210.2427    566.1509 300.0648091 +22.6153833     295.3245      72.2328      1.263     4.38     4.992924     20.36869     45.47326         6     0.961     0.567 -28.03   0
       169    941.3914    560.5520 300.2944068 +22.8328071      12714.9     72.21442      1.699     3.40     4.816918     20.36869     1106.704        56     1.429     1.345 -82.19   0
       170    505.5951    558.5540 300.1592011 +22.7017199     11648.81     72.17764      1.506     2.76     5.112796     20.36869     1435.255        45     1.250     1.220 -86.55   0
       171    232.9339    553.9430 300.0758306 +22.6186808     1340.335      72.2328      1.526     3.31     4.978234     20.36869     148.9094        23     1.276     1.050  36.84   0
       172    675.2215    554.7758 300.2132760 +22.7514477     532.2448     72.17764      1.408     3.27     5.412153     20.36869     68.64019        10     0.966     0.702 -24.35   0
       173    479.7019    551.9142 300.1532929 +22.6920543     285.4478     72.36135      1.276     3.70     5.043827     20.36869     51.02888         7     1.005     0.596  75.87   0
       174    780.2651    546.7125 300.2486407 +22.7805878     713.7689     72.28793      1.474     4.57      4.89813     20.36869     76.58774        16     1.242     0.929 -62.89   0
       175    437.2645    546.7056 300.1417698 +22.6778423     4431.312     72.30629      1.534     2.74     4.767731     20.36869     550.1758        34     1.255     1.157  40.03   0
       176    415.6162    545.1734 300.1355274 +22.6709152     1317.448     72.21442      1.564     2.76     4.626949     20.36869     148.7975        20     1.106     1.031  29.26   0
       177    169.8319    544.5560 300.0592514 +22.5970685      706.783     72.25118      1.732     3.34     5.027462     20.36869     86.44759        12     1.074     0.945   5.87   0
       178    857.1656    542.5828 300.2739643 +22.8024257     1556.754     72.19604      1.608     3.41      4.74179     20.36869     140.2536        21     1.240     1.011 -43.00   0
       179    103.7854    542.1783 300.0394868 +22.5765837     356.3059     72.19604      1.614     5.44     5.063808     20.36869     42.81295         7     1.248     0.670 -46.66   0
       180    856.7707    563.1545 300.2671620 +22.8082220     1840.035      72.2328      1.564     3.19     4.791919     20.36869     168.6496        24     1.188     1.067 -73.67   0
       181    553.9198    534.3151 300.1821221 +22.7092335     206963.3       72.343      1.479     2.78     5.268213     20.36869     23114.36       194     1.500     1.454 -22.74   0
       182    737.7684    539.4750 300.2377404 +22.7657818     790.9246     72.19604      1.563     3.31     5.037262     20.36869     89.07423        16     1.080     0.991  74.18   0
       183    377.7869    540.6190 300.1252299 +22.6582708     410.4538     72.15925      1.393     1.94     4.659235     20.36869     58.40159         5     0.703     0.424  25.05   0
       184    831.8099    538.2407 300.2674654 +22.7935859     326.1488     72.19604      1.697     4.22      4.78264     20.36869     31.30763         5     0.748     0.707  32.06   0
       185    942.0129    536.7595 300.3023255 +22.8261512     207.6904     72.19604      1.293     4.31     4.802022     20.36869     25.87713         5     1.034     0.512 -36.51   0
       186    239.9595    534.1534 300.0844403 +22.6151047     3636.097     72.25118      1.599     3.09     4.981794     20.36869     340.8565        31     1.241     1.188  14.28   0
       187    806.0005    530.6243 300.2618889 +22.7836687     594.8004     72.14085      1.709     4.39     4.819415     20.36869      68.3311        15     1.187     0.924  -8.23   0
       188    585.3685    520.9044 300.1962727 +22.7148006     238.1343     72.14085      1.086     4.45      5.37122     20.36869     46.75729         7     1.084     0.612  50.09   0
       189    444.5036    514.5455 300.1544636 +22.6707729     2617.772     72.26955      1.595     2.84     4.879142     20.36869     302.7005        27     1.169     1.112  37.19   2
       190    288.6855    516.7509 300.1052486 +22.6247124     454.5565     72.17764      1.564     5.45     4.969695     20.36869     45.50567        10     1.250     0.671  56.87   0
       191    894.2592    515.3718 300.2943694 +22.8057061     362.8659     72.19604      1.565     3.49     4.799322     20.36869     34.09737         5     0.763     0.461  13.80   0
       192    855.9395    511.2428 300.2837560 +22.7930475     385.6493     72.17764      1.494     4.68     4.789917     20.36869       38.451         8     0.981     0.633 -64.71   0
       193    675.7448    510.3349 300.2278663 +22.7388316     220.2047     72.25118      1.319     4.88     5.430655     20.36869     28.69558         5     1.075     0.627  63.25   0
       194    761.7422    503.4580 300.2569069 +22.7626069     412.6833     72.26955      1.437     4.39     4.940947     20.36869     52.24772         8     1.100     0.659  28.21   0
       195    841.5969    500.9856 300.2826120 +22.7858044     1761.114     72.03034      1.498     3.07     4.811072     20.36869     183.8133        24     1.179     1.086 -64.73   0
       196    712.7627    498.5433 300.2432324 +22.7465278     2536.648     72.19604      1.457     2.81     5.174678     20.36869      315.545        23     1.115     1.036  38.08   0
       197    956.9520    496.3741 300.3200974 +22.8190081     435.1594     72.21442      1.498     2.50     4.937874     20.36869     54.96405         7     0.786     0.602  25.06   0
       198    921.7743    495.5168 300.3093990 +22.8082326     319.2683     72.17764      1.574     4.37     4.877938     20.36869     44.74575         6     1.275     0.494  53.04   0
       199    617.8182    495.6395 300.2145843 +22.7172594     437.0873     72.21442      1.326     2.29     5.450967     20.36869      60.9093         6     0.690     0.610 -76.42   0
       200    500.0089    494.5338 300.1782434 +22.6816529     782.9435     72.19604      1.447     2.80      5.05419     20.36869     86.08742        13     0.919     0.867 -83.92   0
       201    970.1268    492.8095 300.3253659 +22.8219260     1229.715     72.19604      1.620     3.21     4.966315     20.36869     118.2657        20     1.172     1.028 -19.10   0
       202    841.8031    491.0824 300.2858909 +22.7830186     2234.134     72.12244      1.722     4.25     4.822371     20.36869     218.6367        31     1.563     1.125  70.20   0
       203    955.8009    491.8977 300.3211912 +22.8173762      834.401      72.0672      1.630     3.49     4.944364     20.36869     83.66553        13     1.135     0.759  26.36   0
       204    595.0167    488.5019 300.2097964 +22.7083788     912.5463     72.12244      2.214     6.31     5.404448     20.36869     56.99609        13     1.612     0.695  89.82   0
       205    381.3236    489.0000 300.1430860 +22.6445037     293.3193      72.0672      1.297     4.19     4.824027     20.36869       39.472         6     0.838     0.646 -53.41   0
       206    880.0908    486.1225 300.2994438 +22.7930539     4389.505       72.343      1.558     3.19     4.847059     20.36869     441.0715        35     1.289     1.252 -62.31   0
       207    433.5677    488.0051 300.1596731 +22.6598718     373.5133     72.17764      1.560     2.30     4.932458     20.36869     64.88899         8     0.824     0.651   3.91   0
       208    540.5275    482.1766 300.1948744 +22.6902400     350.2809      72.2328      1.579     4.14      5.22077     20.36869     38.23202         7     1.047     0.468 -41.69   0
       209    971.8569    476.7635 300.3311141 +22.8178285     766.4532     72.19604      1.562     3.18     4.989106     20.36869     80.14294        13     1.001     0.890  -8.51   0
       210    111.9300    475.8614 300.0635435 +22.5599880     1058.306      72.2328      1.800     4.05     5.022246     20.36869     100.7368        19     1.346     0.989  56.21   0
       211    773.0326    470.1674 300.2712328 +22.7564164     287.6482     72.26955      1.434     4.59     4.903447     20.36869     29.24757         7     0.869     0.689  55.39   0
       212    968.0642    465.9318 300.3334461 +22.8135779     368.6293     72.25118      1.542     4.45       4.9891     20.36869     43.49847         6     0.994     0.568 -12.46   0
       213    105.3175    465.9751 300.0646960 +22.5551674     429.9828     72.17764      1.476     2.75     5.019928     20.36869     44.50785         7     0.735     0.632 -80.93   0
       214    712.4449    460.4550 300.2554955 +22.7354835     495.4349      72.2328      1.466     4.78     5.167551     20.36869      55.9663        11     1.147     0.782  43.31   0
       215    601.1013    458.3455 300.2214795 +22.7015342     369.7333     72.28793      1.375     2.86     5.392573     20.36869     42.08646         7     0.733     0.647   0.46   0
       216    653.7175    456.6896 300.2384128 +22.7168156      772.097     72.30629      1.467     3.07     5.430686     20.36869     100.7631        15     1.031     0.963  69.73   0
       217    967.8229    449.3593 300.3387495 +22.8087387     575.7209      72.2328      1.393     3.71     4.997029     20.36869       62.518         9     0.897     0.705   9.51   0
       218    714.2885    448.7955 300.2598541 +22.7326836     822.1765     72.10403      1.306     2.79     5.151148     20.36869     131.7873        12     0.960     0.873 -67.96   0
       219    871.4742    444.8724 300.3101438 +22.7786120     1074.648     72.25118      1.601     3.47     4.788591     20.36869      100.764        18     1.187     0.960 -74.44   0
       220    855.6589    441.6009 300.3062721 +22.7729372     631.1894     72.15925      1.583     3.81     4.777143     20.36869     66.71288         9     0.905     0.782  22.62   0
       221    835.6101    441.8675 300.2999322 +22.7670126     379.0119     72.19604      1.792     3.88     4.796234     20.36869     40.27607         9     1.032     0.642 -18.12   0
       222    599.9951    439.2653 300.2273267 +22.6957189     3348.889     72.19604      1.407     2.59     5.362574     20.36869      398.338        28     1.145     1.069  52.59   0
       223    960.5991    438.5449 300.3400047 +22.8034662     524.2769     72.12244      1.642     3.91     4.989521     20.36869     50.31931         9     0.932     0.762  -5.62   0
       224     76.2787    431.0335 300.0670065 +22.5364302      366.802     72.17764      1.597     4.47     5.196138     20.36869     39.88816         6     0.942     0.602 -28.40   0
       225    439.8597    426.3244 300.1816489 +22.6440353     463.0642     72.25118      1.642     4.31     5.146896     20.36869     40.02954         7     0.849     0.623  20.46   0
       226    371.5687    426.6957 300.1602685 +22.6236826     290.3826     72.14085      1.477     3.32     5.252078     20.36869     43.72388         5     1.076     0.296  19.90   0
       227   1011.3197    418.4140 300.3623673 +22.8128526     1398.648     72.17764      1.691     3.38     5.097067     20.36869     132.6565        22     1.205     1.104 -89.63   0
       228    969.8387    417.0767 300.3498547 +22.8000556      1008.08     72.17764      1.562     3.38      5.01596     20.36869     100.2735        20     1.136     1.081 -70.32   0
       229    883.2006    418.2509 300.3224408 +22.7744653     565.7867     72.15925      1.461     3.56     4.786247     20.36869     53.04998        10     1.026     0.770  11.52   0
       230    619.7688    415.4082 300.2412294 +22.6947830     236.8156     72.19604      1.105     3.43     5.374285     20.36869     28.89411         5     0.737     0.461 -17.33   0
       231    710.6309    413.4560 300.2701816 +22.7214283     946.2798     72.21442      1.371     2.75     5.173814     20.36869     121.6837        15     0.992     0.891  24.97   0
       232    506.0549    413.5800 300.2063976 +22.6602016     414.9285     72.17764      1.687     5.77     5.026377     20.36869     44.26377         7     1.122     0.837   6.52   0
       233    214.7569    411.3192 300.1164639 +22.5722767     619.5965     72.17764      1.529     3.32     4.982648     20.36869     76.17569        10     0.956     0.811 -64.69   0
       234   1010.1617    405.8337 300.3660880 +22.8088867     4392.808      72.2328      1.638     3.34     5.108404     20.36869     364.7538        35     1.319     1.244 -72.47   0
       235    276.9962    406.9821 300.1372335 +22.5896826     3673.214     72.12244      1.496     3.05      5.12385     20.36869     372.2943        29     1.242     1.110  83.61   0
       236    224.1439    401.6842 300.1225098 +22.5723227     7529.286     72.28793      1.582     2.98     4.988984     20.36869      881.926        43     1.349     1.259  46.66   0
       237    729.1430    402.2638 300.2795841 +22.7237527     165.4908     72.25118      1.279     3.04     5.110271     20.36869     35.72016         5     0.828     0.635  43.90   0
       238    990.0912    396.7863 300.3627592 +22.8002785     1981.873     72.14085      1.641     3.24     5.082811     20.36869     164.2123        28     1.329     1.150  71.23   0
       239    364.9738    395.9996 300.1681752 +22.6128879     4764.456     72.15925      1.424     2.89     5.338839     20.36869      498.175        30     1.196     1.080  76.54   0
       240    609.2184    392.8221 300.2452702 +22.6851312     18607.54     72.19604      1.429     2.78      5.36721     20.36869     2139.229        52     1.302     1.166  86.71   0
       241    626.8234    392.8550 300.2507453 +22.6904123     783.7247     72.21442      1.880     4.70     5.374611     20.36869     60.28645        16     1.312     0.866 -37.45   0
       242    852.6959    389.2688 300.3223289 +22.7569997     277.6415     72.32465      1.285     4.40     4.848984     20.36869     33.33724         6     1.014     0.543 -55.48   0
       243    806.1069    382.9388 300.3098520 +22.7412347     379.3626     72.28793      1.737     6.44     4.879172     20.36869     40.47515         9     1.150     1.012   6.76   0
       244    229.0896    379.9311 300.1311054 +22.5675569      351.692     72.36135      1.562     5.12     5.016829     20.36869     45.17649         7     0.940     0.788 -86.61   0
       245    942.8405    375.6678 300.3548653 +22.7800644     787.2905     72.15925      1.542     3.63     5.037763     20.36869     83.58073        16     1.127     0.979 -78.96   0
       246    479.5383    373.9210 300.2110063 +22.6408620     447.5525     72.26955      1.684     5.87     5.141042     20.36869     48.32933         8     1.698     0.572  65.60   0
       247    163.7725    372.7803 300.1131094 +22.5459287     2038.843     72.19604      1.555     3.12     4.961837     20.36869     220.5811        21     1.193     0.997  56.49   0
       248    549.8973    362.2631 300.2367025 +22.6585830     6715.216     72.28793      1.423     2.62     5.135579     20.36869      788.348        36     1.233     1.134  77.53   0
       249    963.6744    362.9271 300.3655001 +22.7826329     1197.515     72.25118      1.618     4.02      5.09156     20.36869     105.3088        18     1.211     1.039 -41.97   0
       250    264.5777    361.3322 300.1481791 +22.5728484     694.9303     72.19604      1.596     5.10     5.177976     20.36869     71.32128        15     1.342     0.838  64.41   0
       251    809.8806    354.2040 300.3203509 +22.7341000     439.5788     72.10403      1.513     5.13      4.93438     20.36869     50.33305         9     1.208     0.660 -49.10   0
       252    122.7526    354.6901 300.1062219 +22.5284395     529.6974     72.17764      1.432     2.60     5.304817     20.36869     58.64186         9     0.819     0.724 -85.20   0
       253    754.0323    351.6004 300.3037804 +22.7166350     1264.552     72.15925      1.563     3.09     5.210154     20.36869     123.4683        17     1.256     0.840 -69.57   0
       254    663.4581    352.8560 300.2751385 +22.6898817     614.9849     72.26955      1.249     3.13     5.367094     20.36869     74.51616         9     0.910     0.649  20.26   0
       255    456.4695    348.4579 300.2120826 +22.6266347     6248.431     72.21442      1.439     2.50     5.283185     20.36869       810.48        35     1.239     1.088  64.59   0
       256    945.7781    343.2571 300.3662964 +22.7716191     575.1729     72.21442      1.479     3.60     5.084243     20.36869     74.13359        14     1.185     0.798  70.59   0
       257    848.3143    343.0290 300.3359632 +22.7423884     1448.705     72.19604      1.500     2.95      4.96881     20.36869     139.6927        20     1.156     1.011  48.05   0
       258    441.5457    336.9947 300.2111540 +22.6188704     242.7329     72.19604      1.235     4.13     5.322652     20.36869     49.92412         7     1.052     0.462  42.48   0
       259    523.7079    335.3982 300.2372590 +22.6430181      422.824     72.10403      1.309     2.14     5.206506     20.36869     66.05281         5     0.679     0.459 -19.93   0
       260    504.1966    332.9420 300.2319786 +22.6364691      266.823     72.15925      1.302     3.11     5.248971     20.36869     50.26602         7     0.865     0.627  71.02   0
       261    820.9705    331.0208 300.3313298 +22.7307511     555.0248     72.19604      1.300     3.56      4.94068     20.36869     77.13435         7     0.819     0.689 -65.66   0
       262    344.1086    327.5445 300.1838869 +22.5869685     2609.546     72.25118      1.519     3.07     5.337918     20.36869     287.2739        30     1.302     1.133  42.95   0
       263     62.6103    324.8288 300.0972094 +22.5018384     956.7773     72.19604      1.588     4.27     5.602726     20.36869     102.2114        17     1.175     1.097  83.47   0
       264    691.9261    322.4239 300.2938829 +22.6896537     252.6605     72.25118      1.088     3.02     5.358655     20.36869     45.23468         6     0.746     0.616  61.54   0
       265    313.3791    317.0361 300.1777316 +22.5747435     30389.06     72.21442      1.504     2.79     5.314805     20.36869     3344.244        75     1.404     1.296  63.90   0
       266    848.0488    314.7309 300.3450593 +22.7341690     1511.905     72.19604      1.492     3.53     4.947009     20.36869     165.2941        22     1.182     1.011  84.90   0
       267      9.6967    304.6745 300.0872991 +22.4801909     4888.771       72.343      1.765     3.74     5.608081     20.36869     465.0527        40     1.462     1.327  59.47  16
       268    763.4167    303.9959 300.3221475 +22.7057530     605.7625     72.12244      1.552     2.91     5.180599     20.36869     80.29765        11     0.941     0.805 -21.63   0
       269    411.8854    302.5760 300.2130824 +22.6000951     432.9115     72.15925      1.314     3.23     5.365215     20.36869     59.01209         9     0.861     0.778  -9.20   0
       270    187.6276    303.0770 300.1431363 +22.5330569     535.9505     72.21442      1.839     4.69     4.988457     20.36869     53.89183         8     1.103     0.752  57.47   0
       271    723.8597    296.9986 300.3120839 +22.6919009     1845.398     72.15925      1.392     2.83     5.361715     20.36869     218.8048        20     1.069     0.962 -81.92   0
       272    531.4737    291.7490 300.2538347 +22.6327961     868.8339     72.21442      0.881     0.24     5.321878     20.36869     441.5788        10     0.829     0.701 -34.56   0
       273    938.8195    290.1683 300.3813445 +22.7542625     568.0499     72.19604      1.397     3.06     5.075088     20.36869     70.29463        12     1.058     0.711  -6.04   0
       274    385.6040    281.4519 300.2117512 +22.5861526     2102.303     72.19604      1.644     3.33     5.360108     20.36869     249.1107        23     1.373     0.966  67.41   0
       275    824.6888    274.6848 300.3507610 +22.7156587     762.7526     72.32465      1.565     3.49     5.016657     20.36869      96.1909        14     1.149     0.848 -26.97   0
       276    817.0015    275.5551 300.3480812 +22.7136086     390.5844     72.19604      1.408     3.03     5.009188     20.36869     41.45604         6     0.780     0.496  -3.18   0
       277    707.0112    272.2646 300.3148528 +22.6797444     432.6267     72.12244      1.209     4.15     5.396484     20.36869      55.7459         7     0.778     0.632  20.53   0
       278    675.3983    271.2293 300.3053344 +22.6699843     375.5812     72.15925      1.604     3.96     5.382476     20.36869     44.48011         7     0.968     0.598 -42.86   0
       279    737.4183    267.7438 300.3257982 +22.6875450     222.3176     72.17764      1.345     3.86     5.420568     20.36869     34.37897         5     0.848     0.596  39.58   0
       280    461.5376    260.8942 300.2420590 +22.6029846     1231.467     72.28793      1.456     2.56     5.414507     20.36869     156.5192        17     1.010     0.931  79.58   0
       281    268.9665    261.0231 300.1820761 +22.5453447     259.8207     72.21442      1.260     3.59     5.257426     20.36869     33.59192         5     0.977     0.379  59.52   0
       282    201.7267    255.9140 300.1628149 +22.5237328       183.81     72.32465      1.284     3.36     5.198994     20.36869     38.30567         5     0.972     0.337 -47.65   0
       283    844.6560    254.8149 300.3634322 +22.7159172     278.0654     72.17764      1.251     2.51     5.151925     20.36869     48.98806         6     0.704     0.618 -42.70   0
       284    706.4193    252.7466 300.3209973 +22.6739538     2366.775     72.17764      1.547     3.03     5.428242     20.36869     256.8461        28     1.290     1.125 -80.26   0
       285    967.7127    247.3227 300.4042554 +22.7505770     3162.105       72.343      1.540     2.73     5.299592     20.36869       396.59        28     1.266     1.112 -79.12   0
       286    514.8317    246.1367 300.2634417 +22.6147002       135.58     72.19604      1.111     3.82     5.404466     20.36869     28.70298         5     0.951     0.441 -44.12   0
       287    414.7291    236.4546 300.2354086 +22.5819424     567.5306     72.21442      1.354     3.33     5.372803     20.36869     81.94999        13     1.036     0.915  71.72   0
       288     89.6520    230.6031 300.1361692 +22.4828810     1525.218     72.19604      1.888     3.77     5.438539     20.36869     140.0009        28     1.623     1.086 -28.57   0
       289    120.0621    231.0165 300.1454901 +22.4921120     486.6692     72.17764      1.411     3.47     5.359631     20.36869     72.85846         9     1.056     0.630 -15.28   0
       290    983.4297    228.3662 300.4153072 +22.7498228       506.85     72.21442      1.317     2.83     5.412444     20.36869     56.51613         9     0.947     0.621   8.20   0
       291    173.6823    222.7197 300.1648543 +22.5057941     567.8816       72.343      1.570     2.86     5.284594     20.36869     80.08108         9     1.019     0.695 -30.91   0
       292    969.0847    219.9969 300.4135437 +22.7431233     243.6655     72.12244      1.344     4.87     5.411231     20.36869     44.14632         8     1.115     0.603 -62.35   0
       293    778.0113    214.4117 300.3557476 +22.6843519     765.3258     72.08562      1.672     4.10     5.406644     20.36869     68.12214        14     1.115     0.887  53.81   0
       294    368.1906    213.8485 300.2282499 +22.5615077     439.8235     72.21442      1.226     3.04     5.380913     20.36869     49.84475        11     0.859     0.851 -71.66   0
       295    868.3901    207.3558 300.3862234 +22.7093633     371.4956     72.21442      1.385     3.54     5.376131     20.36869     52.77645         5     0.816     0.442  72.48   0
       296    876.2476    203.3514 300.3899729 +22.7105618     2081.136      72.2328      1.497     2.63     5.377431     20.36869      279.659        24     1.176     1.065 -73.87   0
       297    294.7325    200.4430 300.2097336 +22.5356544     2333.843     72.17764      1.598     2.97     5.261712     20.36869     279.4024        26     1.167     1.137  71.56   0
       298    372.6956    195.4633 300.2356122 +22.5575723     1165.969     72.28793      1.708     4.42     5.419004     20.36869     98.20318        17     1.182     1.039  88.76   0
       299    124.8651    196.3775 300.1582126 +22.4836003      311.238     72.17764      1.279     2.35      5.43675     20.36869     47.02153         5     0.827     0.477  -7.42   0
       300    774.5052    195.1472 300.3608997 +22.6777606     554.0659     72.26955      1.521     3.47     5.431436     20.36869      68.4491         8     1.069     0.582  47.87   0
       301    531.1098    195.3236 300.2849858 +22.6049641     211.4493       72.343      1.156     4.32     5.428761     20.36869     30.41378         6     0.800     0.663 -64.10   0
       302    881.6395    192.0832 300.3953080 +22.7089323     327.2616     72.15925      1.550     4.86     5.387701     20.36869     42.48065         8     0.973     0.688 -15.06   0
       303    189.4883    187.9843 300.1810302 +22.5005494     749.1178     72.14085      1.567     3.75     5.508024     20.36869     89.56544        14     1.173     0.952 -42.31   0
       304    307.4081    187.2255 300.2179626 +22.5356522     326.6134     72.19604      1.335     4.13     5.329287     20.36869     36.89825         6     0.732     0.665 -43.15   0
       305    727.3552    184.7722 300.3495620 +22.6606671     1595.976      72.2328      1.402     2.83     5.523156     20.36869     181.8366        16     1.005     0.901 -79.18   0
       306    791.9796    184.1275 300.3699212 +22.6798188     509.9511      72.2328      1.373     4.81     5.400713     20.36869     69.61089         9     1.013     0.783  65.15   0
       307    210.7314    180.9436 300.1899200 +22.5048899     405.2275     72.21442      1.454     5.43     5.554649     20.36869     62.75565        11     1.011     0.960  54.17   0
       308    998.9407    177.5371 300.4366272 +22.7398323     761.5034      72.2328      1.494     3.14     5.586255     20.36869     103.1109        17     1.156     0.944 -36.78   0
       309    731.4856    175.9499 300.3537095 +22.6593651     792.1717     72.17764      1.714     3.96     5.527235     20.36869     72.07755        14     1.135     1.053 -62.37   0
       310    500.7714    177.1407 300.2814302 +22.5906534     352.4238     72.19604      1.283     3.83     5.456347     20.36869     42.14421         6     0.776     0.543 -57.52   0
       311    651.7735    175.4925 300.3290104 +22.6353789      1212.01     72.14085      1.367     3.02     5.506289     20.36869     159.9283        18     1.039     0.980  48.29   0
       312    847.3911    167.0289 300.3927459 +22.6914770     1438.494     72.19604      1.445     2.86     5.406183     20.36869     153.9249        18     1.028     1.012 -63.06   0
       313    578.1367    167.2086 300.3087495 +22.6109566     929.6047     72.15925      1.299     2.85     5.473458     20.36869     121.0024        11     0.907     0.747  86.95   0
       314    859.5299    166.2322 300.3967907 +22.6948792     825.5026     72.19604      1.459     2.69     5.407774     20.36869     105.0907        13     0.938     0.839 -67.17   0
       315    905.7656    165.4352 300.4114733 +22.7084807     363.1399     72.26955      1.435     4.14     5.427344     20.36869     40.96149         6     0.729     0.670  46.79   0
       316   1020.2083    157.1340 300.4498795 +22.7403193     1692.062     71.06544      1.589     3.74     5.707811     20.36869     192.1779        24     1.198     1.128  76.40  16
       317    976.1672    156.5958 300.4363074 +22.7269935     1092.622     72.17764      1.610     2.74     5.590281     20.36869     136.5021        20     1.170     0.983 -82.71   0
       318    210.3372    149.5725 300.1999651 +22.4957572     679.0396     72.19604      1.337     2.69     5.616324     20.36869     75.77799        10     0.981     0.621 -45.85   0
       319     72.0317    143.8755 300.1588026 +22.4526881     2055.892     72.19604      1.659     3.52     5.620897     20.36869     219.1405        28     1.320     1.185  56.48   0
       320    895.1220    141.5988 300.4158786 +22.6984369     759.8516     72.08562      1.411     3.64     5.515824     20.36869     85.29305        11     1.011     0.814  15.63   0
       321     21.6240    141.0087 300.1440628 +22.4367613     524.8182     72.19604      1.635     5.18     5.687943     20.36869     55.93836        12     1.342     0.766 -37.30   0
       322    229.3992    137.3338 300.2098612 +22.4979496     5658.945     72.17764      1.594     2.74     5.543159     20.36869     690.2808        37     1.292     1.221  84.20   0
       323    211.3452    138.2923 300.2039344 +22.4928175     385.1102     72.25118      1.386     3.42     5.552913     20.36869     39.87649         8     0.902     0.654  -4.83   0
       324     13.6044    131.6341 300.1446083 +22.4316655      1225.81     72.19604      1.721     3.99      5.81356     20.36869     131.8159        20     1.187     1.126 -15.13   0
       325    213.0416    128.1850 300.2077375 +22.4904210     674.4349     72.21442      1.841     4.43     5.501309     20.36869     69.20513        12     1.258     0.706 -37.54   0
       326    873.6244    119.0568 300.4164776 +22.6855190     3688.918     72.19604      1.590     3.02     5.607066     20.36869     393.9776        34     1.415     1.179  88.08   0
       327    977.2386    117.7697 300.4492257 +22.7161376     2827.792     72.19604      1.681     3.39     5.777158     20.36869     261.0442        35     1.444     1.219  87.59   0
       328    422.8412    114.1297 300.2775842 +22.5492053      701.678     72.15925      1.563     3.25     5.380102     20.36869     81.02563        13     1.040     0.911  61.29   0
       329    347.2913    105.6522 300.2568124 +22.5241481     688.7046     72.25118      2.090     3.57     5.586956     20.36869     69.27135        11     1.105     0.917 -55.22   0
       330    474.3510    101.4442 300.2977344 +22.5609778     1813.347      72.2328      1.534     3.02     5.370816     20.36869     207.2313        23     1.252     1.011  77.27   0
       331    113.2783    103.2068 300.1848050 +22.4533605     605.5556     72.12244      1.326     2.90     5.859525     20.36869     91.29745         9     1.071     0.516  -7.47   0
       332    402.3568    101.9876 300.2751411 +22.5395814      493.452     72.19604      1.556     5.00     5.414028     20.36869     42.11067         9     0.972     0.818 -61.21   0
       333    536.1313    100.8797 300.3171597 +22.5793079     414.6672     72.30629      1.427     3.63     5.370241     20.36869     52.76644         7     1.096     0.560   3.71   0
       334    298.1086     97.5555 300.2441294 +22.5070936     192.7045     72.17764      1.180     3.95     5.393755     20.36869      33.5032         5     0.900     0.495  -3.01   0
       335    218.2041     96.7146 300.2195411 +22.4829229     466.8774     72.12244      1.601     4.24     5.345208     20.36869     53.78887         8     1.058     0.676  -9.15   0
       336    763.2208     91.1881 300.3910751 +22.6444731     386.7118     72.17764      1.545     4.46     5.758889     20.36869     51.35264         7     1.041     0.578 -68.27   0
       337    610.4302     87.6449 300.3445966 +22.5977374     267.3389      72.2328      1.252     4.48       5.5744     20.36869     32.92569         5     1.096     0.607 -55.83   0
       338    712.3566     82.8195 300.3779283 +22.6268478     208.8016     72.21442      1.025     3.40     5.794691     20.36869     33.66115         5     0.775     0.432 -71.23   0
       339    248.3906     81.1623 300.2339711 +22.4874931     6167.765     72.21442      1.624     2.83      5.30875     20.36869     657.1597        42     1.407     1.211  63.24   0
       340     99.7192     80.6963 300.1878827 +22.4428307      739.027     72.32465      2.137     3.45     6.069194     20.36869     85.37639        10     1.043     0.740 -79.12   0
       341    220.7808     75.1644 300.2273251 +22.4775007     421.8681     72.21442      1.369     2.61      5.28976     20.36869     44.68757         6     0.741     0.546 -46.24   0
       342    264.2472     72.8904 300.2415847 +22.4898638     328.4794     72.17764      1.392     4.59     5.285635     20.36869     41.34111         7     0.864     0.694 -32.81   0
       343    890.6512     71.2007 300.4372971 +22.6768375     256.4583     72.15925      1.461     3.43     5.829676     20.36869     31.27186         5     0.748     0.453 -75.74   0
       344    494.5251     66.5920 300.3153099 +22.5569937     6328.667     72.17764      1.510     2.67     5.348591     20.36869     815.7728        41     1.373     1.135  79.69   0
       345    379.8137     66.2761 300.2796941 +22.5225646     670.9785     72.21442      1.646     4.17      5.41624     20.36869     69.52567        13     1.099     0.900  75.15   0
       346    551.7527     61.6570 300.3347348 +22.5727020     358.8069      72.2328      1.294     2.23     5.401903     20.36869     49.98659         5     0.708     0.444  17.80   0
       347    747.1381     56.4230 300.3973247 +22.6296579     935.2905     72.17764      2.094     3.64     6.005068     20.36869     90.95087        14     1.169     0.891 -89.93   2
       348    688.3702     58.1213 300.3784534 +22.6125650      255.702     72.19604      1.303     2.58     5.839929     20.36869     46.12804         5     0.736     0.429  68.31   0
       349    839.5229     55.6285 300.4263929 +22.6570637     357.3291     72.19604      1.177     2.68     5.887409     20.36869     63.70104         9     0.932     0.616   4.46   0
       350    862.5939     51.8059 300.4348281 +22.6628636     173.5966     72.04877      1.377     3.51      5.90241     20.36869     26.08548         5     1.235     0.288 -35.80   0
       351    187.6676     50.5041 300.2250141 +22.4604962      613.947       72.343      1.732     3.60     5.246419     20.36869     62.88476        12     1.134     0.812 -20.79   0
       352    545.9374     49.1655 300.3369701 +22.5673687     444.4927     72.19604      1.335     5.58     5.372158     20.36869     60.53392        12     1.322     0.952  61.55   0
       353    622.8665     46.7519 300.3617212 +22.5896949     6242.752     72.19604      1.506     2.97     5.772958     20.36869     793.3155        35     1.287     1.139 -89.11   0
       354    397.8721     45.6623 300.2919941 +22.5220434     1320.982      72.2328      1.496     3.21     5.340229     20.36869     173.9267        20     1.125     1.069  38.22   0
       355    664.0770     44.0091 300.3754532 +22.6012363     1014.531     72.15925      1.570     3.67     5.806245     20.36869     113.7568        14     1.147     0.834 -78.92   0
       356    734.0119     42.2647 300.3978192 +22.6216569     471.8822     72.14085      1.920     3.15     6.114773     20.36869     37.50578         7     0.754     0.645 -10.02   0
       357    680.1462     40.5133 300.3815944 +22.6050382     708.1594      72.2328      1.610     2.85     5.851027     20.36869     87.59637        12     0.954     0.856  71.86   0
       358    146.7659     38.3776 300.2162215 +22.4447614     646.5536     72.21442      1.561     2.86     5.448607     20.36869     86.00094        11     0.988     0.748 -28.52   0
       359    949.8901     38.1550 300.4664879 +22.6850396     448.4571     72.17764      1.653     2.94     6.027529     20.36869     46.33032         8     0.789     0.681  40.61   0
       360    718.5508     35.9863 300.3950329 +22.6152250     521.7069      72.2328      1.513     3.23     6.075614     20.36869     72.04032        10     1.009     0.684  39.78   0
       361    667.0796     31.6200 300.3804027 +22.5985700     2766.761     72.19604      1.485     2.80     5.831223     20.36869     341.1331        25     1.325     0.949  74.43   0
       362    682.0908     30.7015 300.3853791 +22.6027968     792.0085      72.3797      1.702     6.16     5.885819     20.36869     80.51902        15     1.551     0.686  49.07   0
       363    308.3944     32.3839 300.2684446 +22.4914380      422.551     72.12244      1.395     3.31      5.21059     20.36869      45.6275         6     0.809     0.544 -50.90   0
       364    753.5010     23.1102 300.4101009 +22.6219746     1437.984     72.36135      1.449     2.84     6.206241     20.36869       194.14        22     1.203     1.054  67.49   0
       365      2.6246    987.7840 299.8632622 +22.6740636     905.0938     63.06801      7.054     7.04    -8.816917     20.36869     44.74086         9     1.980     0.702  66.27  27
       366    732.4847   1014.9664 300.0815712 +22.9008006     324.9431     72.15925      1.701     4.40     4.365797     20.36869     36.90262         5     0.779     0.709  -9.76   0
       367    295.9597   1012.3314 299.9464836 +22.7691337     1522.483     72.17764      3.233     7.13     6.829165     20.36869     64.01584        33     1.683     1.539 -80.23   0
       368      3.9219   1003.9814 299.8583976 +22.6790965     1574.947     68.41942      8.373    11.34    -10.42494     20.36869     42.06487        31     2.969     1.207  45.54  27
       369    783.4178     13.0629 300.4226844 +22.6280316     312.8248     72.17764      1.300     3.19     6.147765     20.36869     48.47466         8     1.003     0.565 -31.48   0
       370    132.4088   1007.2734 299.8972623 +22.7186062      1764.35     72.17764      3.668    12.71     86.89976     20.36869     54.89957        47     2.603     1.727 -21.80   2
