#   1 NUMBER                 Running object number                                     
#   2 X_IMAGE                Object position along x                                    [pixel]
#   3 Y_IMAGE                Object position along y                                    [pixel]
#   4 ALPHA_J2000            Right ascension of barycenter (J2000)                      [deg]
#   5 DELTA_J2000            Declination of barycenter (J2000)                          [deg]
#   6 FLUX_APER              Flux vector within fixed circular aperture(s)              [count]
#   7 FLUXERR_APER           RMS error vector for aperture flux(es)                     [count]
#   8 FLUX_RADIUS            Fraction-of-light radii                                    [pixel]
#   9 FWHM_IMAGE             FWHM assuming a gaussian core                              [pixel]
#  10 BACKGROUND             Background at centroid position                            [count]
#  11 THRESHOLD              Detection threshold above background                       [count]
#  12 FLUX_MAX               Peak flux above background                                 [count]
#  13 ISOAREA_IMAGE          Isophotal area above Analysis threshold                    [pixel**2]
#  14 A_IMAGE                Profile RMS along major axis                               [pixel]
#  15 B_IMAGE                Profile RMS along minor axis                               [pixel]
#  16 THETA_IMAGE            Position angle (CCW/x)                                     [deg]
#  17 FLAGS                  Extraction flags                                          
         1    549.7928     30.5575 300.3326243 +22.5431720      1107.34     72.49998      1.354     2.35      4.33216     20.44924     157.0038        15     0.997     0.828  67.31   0
         2    224.9647     18.4772 300.2354905 +22.4424093     4069.414     72.44458      1.552     2.77     4.005391     20.44924      489.943        37     1.391     1.178  78.61   0
         3    786.2562     11.1323 300.4125691 +22.6083695     944.0699     72.49998      1.360     2.96     5.048193     20.44924     123.7296        15     1.087     0.860 -55.09   0
         4    341.0862     10.6446 300.2741358 +22.4749451     1204.024     72.46305      1.443     2.78     4.196716     20.44924     159.5561        19     1.205     0.999 -63.21   0
         5    273.1000     10.6142 300.2530036 +22.4545709     364.4157     72.38914      2.182     4.90      4.03249     20.44924     37.27921         6     1.045     0.651  54.32   0
         6    751.9081     10.1344 300.4021896 +22.5978029     308.0345     72.61063      1.340     3.01     5.034934     20.44924     49.42242         5     0.763     0.523  38.34   0
         7    823.9796      6.0159 300.4259836 +22.6181865     700.7044     72.46305      1.562     3.35     5.099432     20.44924     74.47072        13     1.172     0.682  73.83  16
         8    747.6877      5.9513 300.4022303 +22.5953365     502.4581     72.48151      1.270     2.71     5.055831     20.44924     74.16316         9     0.799     0.755 -11.52   0
         9    844.1680      2.5724 300.4333919 +22.6232368     2007.061     63.02082      1.259     2.38     5.128403     20.44924     328.3078        20     1.047     0.936  10.42  24
        10    549.9002      1.3256 300.3421308 +22.5347995     307.6968     56.43397      0.971     2.41     4.215601     20.44924      73.7832         6     0.797     0.461   7.57  24
        11    692.7611    999.4028 300.0625066 +22.8643061     9325.308     72.51843      1.919     4.44     2.479123     20.44924     557.6074        46     1.516     1.415  12.85   3
        12    252.6206   1018.7817 299.9192548 +22.7377863     2522.046     72.48151      6.454    23.36     72.07848     20.44924     68.08867       118     4.343     3.490  32.74  27
        13    291.7858    988.7253 299.9412100 +22.7409266     7102.334     72.49998      7.419    30.48     47.48214     20.44924     159.4149       619     9.609     4.723  62.41  18
        14    254.3824   1000.9651 299.9255999 +22.7332076     4181.889     72.48151      8.066    23.51     60.02158     20.44924     90.70614       250     4.928     4.783 -70.10  19
        15    220.3931    990.6098 299.9184048 +22.7200348     2456.495     72.33367     41.339    25.98      55.2909     20.44924     64.99969       143     6.890     2.719  59.84  19
        16    226.4557   1013.9465 299.9126957 +22.7285448     3823.776     72.51843      7.345    23.26     70.07605     20.44924     74.83798       245     5.856     3.711  27.03  19
        17    201.4862   1021.3513 299.9025259 +22.7231705     1256.919     67.72867      2.806    10.18     74.64014     20.44924     48.09312        31     2.229     1.295  34.66  24
        18    185.4796   1021.8167 299.8974003 +22.7184979     2088.152     65.82495      3.820    15.14     75.28512     20.44924     69.40012        64     3.263     1.954 -11.83  26
        19    134.8221   1013.1943 299.8844662 +22.7008155     5338.312     72.46305     13.963    58.83     53.90678     20.44924     124.1844      1274    13.473     8.001  24.53  27
        20    130.5251    969.8544 299.8972325 +22.6871032     5188.494     72.51843     24.652    81.76     30.44726     20.44924     105.4054      3596    19.807    15.727 -15.21  19
        21    215.6009   1014.4821 299.9091478 +22.7254394     1540.677     72.37066      4.542    11.18     70.12532     20.44924     48.69138        33     2.303     1.513 -84.26  19
        22    614.0093    959.5521 300.0509509 +22.8292490     1470.996     72.49998      1.735     4.28     2.707883     20.44924      108.769        21     1.286     1.080  -0.67   0
        23    507.7150    955.7906 300.0190890 +22.7962819     1011.369     72.42611      1.729     4.19     2.728674     20.44924     80.49493        19     1.170     1.108   6.24   0
        24    438.5297    953.8625 299.9981896 +22.7749699     6711.471     72.51843      1.798     3.80     3.182665     20.44924     527.3755        41     1.417     1.341  10.20   0
        25      1.9213   1022.3268 299.8402176 +22.6635187     567.7061     51.96521      3.731     5.80     -11.6081     20.44924     34.89946         8     1.434     0.661 -69.48  24
        26    130.0767    931.9108 299.9094367 +22.6760923     3776.549     72.62906     17.563    49.47     11.65278     20.44924     85.23655       811    10.690     6.353 -39.36   3
        27    979.7787    985.4578 300.1564906 +22.9463652      740.284     72.48151      1.946     6.30     3.320823     20.44924     49.58335        16     1.355     1.088 -20.00   0
        28    168.5681    933.8119 299.9207776 +22.6881934     1496.846     72.48151      9.550     9.88     18.52734     20.44924      49.2069        19     2.016     1.351  49.32   3
        29    469.5930    941.6988 300.0118112 +22.7808015     464.6266     72.37066      1.903     6.63     2.924654     20.44924     50.64328         9     1.678     0.735 -80.79   2
        30    984.8821    932.6626 300.1752604 +22.9327337     2084.814     72.57377      1.918     4.98     3.041158     20.44924     116.2411        31     1.465     1.307 -13.46   0
        31    667.5491    927.0887 300.0781834 +22.8359918     190.7651     72.49998      1.502     4.75     2.585182     20.44924     42.89626         7     1.085     0.589   2.51   0
        32    773.8517    921.8391 300.1130030 +22.8663628     781.2029     72.46305      2.191     5.58     2.582499     20.44924     47.77327        16     1.436     1.032  67.56   0
        33    808.4169    915.9253 300.1256967 +22.8750289     999.2798     72.48151      1.796     6.46     2.656061     20.44924     64.43399        17     1.154     1.104  35.26   0
        34    586.4084    916.6272 300.0563227 +22.8086528     319.6871     72.48151      1.459     4.05     2.912035     20.44924     41.00249         6     1.076     0.437  55.46   0
        35     18.8489    912.5752 299.8811784 +22.6371525     716.7859     72.48151      1.905     3.50     3.126782     20.44924     54.99717        10     1.020     0.710 -86.82   0
        36    830.6801    909.4276 300.1347481 +22.8798381     11377.72     72.49998      1.811     3.95      2.82599     20.44924     646.3893        50     1.437     1.404 -39.40   0
        37    787.3973   1002.4180 300.0910053 +22.8935542      660.252     72.38914      1.814     7.02     2.554845     20.44924     45.93622        14     1.320     1.079   2.42   0
        38   1021.8040    909.4179 300.1943375 +22.9371232     383.9178     65.82495      1.837     6.59     2.948266     20.44924     35.99281         8     1.339     0.912  21.77  24
        39    876.2336    909.4082 300.1489520 +22.8934889     414.0506     72.48151      1.762     7.05     3.053472     20.44924     39.44543        10     1.427     0.975  31.28   0
        40    198.7016    970.6351 299.9181624 +22.7077964     1889.517     72.46305     10.411    15.50     42.39141     20.44924     56.93877        61     3.429     1.948  29.96   3
        41    194.9550    905.4589 299.9381997 +22.6879861     716.2691     72.51843      4.028     4.59     11.50146     20.44924     39.77666         5     1.116     0.537 -76.41   0
        42    141.9297    900.5739 299.9233120 +22.6706675     1056.681     72.48151      4.248     5.65      8.81109     20.44924     65.25868        20     1.453     1.220  40.47   0
        43    535.5922    897.5836 300.0466998 +22.7879453     424.0342     72.40763      1.624     5.35     2.861403     20.44924      49.4768         9     1.242     0.752  14.13   0
        44    132.8271    892.4736 299.9231184 +22.6656126     438.9015     72.48151      1.568     3.28     7.028561     20.44924     53.28511         5     1.108     0.282 -53.62   0
        45    839.2028    891.4906 300.1432389 +22.8772431      1567.57     72.38914      1.770     4.06     2.897032     20.44924     103.6155        20     1.220     1.084 -48.77   0
        46   1022.2766    890.7416 300.2005603 +22.9319004     437.3379     63.80162      1.802     5.23     2.908284     20.44924     36.24443         8     1.237     0.624  -9.60  24
        47    690.9504    888.8490 300.0979103 +22.8320343     644.8333     72.51843      1.976     7.23     2.764138     20.44924      45.7802        16     1.389     1.054   9.11   0
        48    554.6030    889.7473 300.0551657 +22.7913993     414.3612     72.48151      1.782     3.43     2.872795     20.44924     28.37369         5     0.753     0.451  71.74   0
        49    877.4305    884.8893 300.1573008 +22.8868072     860.9891     72.44458      1.942     6.99     3.050206     20.44924     51.99584        17     1.328     1.031  -0.69   0
        50    985.5674    881.6459 300.1920703 +22.9182868     419.6139     72.51843      1.981     3.45     2.940789     20.44924     28.93426         5     1.063     0.325 -20.31   0
        51    925.4691    876.2244 300.1750945 +22.8987180     399.4621     72.48151      1.592     5.82     3.022084     20.44924     39.19094        12     1.072     0.888  58.75   0
        52    777.2618    875.2500 300.1292201 +22.8540104     829.3373     72.53688      1.767     5.21     2.716818     20.44924     61.92822        19     1.382     1.067 -72.87   0
        53    381.3658    875.2130 300.0059913 +22.7352573     172.1503     72.46305      1.406     5.19     3.464791     20.44924     25.92218         5     1.018     0.747 -10.07   0
        54    788.4841    872.5085 300.1336083 +22.8565879     591.8992     72.64748      1.612     5.34     2.715271     20.44924     45.18556        11     0.975     0.835  15.51   0
        55    489.6717    871.5998 300.0408603 +22.7667146     4305.196     72.35217      1.654     3.44     2.866502     20.44924     370.1019        33     1.269     1.225 -13.70   0
        56    268.1497    860.7874 299.9754784 +22.6971456     383.6743     72.53688      1.640     4.63     4.485994     20.44924     44.05588         8     1.221     0.770  -6.91   0
        57      8.5364    974.4612 299.8578453 +22.6517905     763.0728     72.51843      2.646     3.65    -2.596793     20.44924     39.69497         6     0.924     0.415  70.47   0
        58    533.1863    859.3890 300.0583735 +22.7762639     337.4469     72.38914      1.599     4.99     2.878783     20.44924     37.22332         5     0.938     0.793  86.76   0
        59    215.0555    856.9924 299.9602090 +22.6801224     772.6716     72.48151      1.759     3.67     5.188532     20.44924     70.48441        14     1.065     1.002  84.70   0
        60    123.9029    855.2426 299.9324536 +22.6522597     343.8837     72.48151      1.689     4.62      4.15167     20.44924      43.8304         5     1.078     0.562  67.91   0
        61    192.0859    854.1231 299.9540035 +22.6724054     1662.157      72.5922      1.740     3.51     4.893695     20.44924     164.8498        26     1.276     1.233 -66.43   0
        62   1017.9184    842.0214 300.2150474 +22.9165993     1963.565     72.44458      1.821     4.12     2.788743     20.44924     133.4312        27     1.337     1.233 -11.35  16
        63    723.6094    842.3489 300.1232060 +22.8284788     468.1898     72.48151      2.033     6.40     2.891724     20.44924     33.14165         9     1.509     0.762 -41.00   0
        64    801.5336    835.6887 300.1496491 +22.8499282     727.5452      72.5922      1.717     4.19     2.986206     20.44924     55.11566        15     1.061     0.974  33.45   0
        65    224.0730    835.5944 299.9699698 +22.6766925      394.249     72.42611      1.588     5.27     4.675679     20.44924     47.48964        10     1.284     0.884  29.87   0
        66    669.6870    829.7553 300.1105068 +22.8086955     5015.282     72.46305      1.598     3.32     3.012395     20.44924     463.8032        36     1.275     1.228 -30.09   0
        67    159.7044    830.4938 299.9516245 +22.6559103     514.0066     72.64748      1.740     5.53     4.244515     20.44924     39.37012        10     1.050     0.820 -60.17   0
        68    471.8637    826.8724 300.0498644 +22.7485390     642.7206     72.51843      1.568     3.77      2.90774     20.44924     67.33574        13     1.089     0.862  -2.77   0
        69    219.8568    823.3395 299.9726441 +22.6719127     1333.246     72.55533      1.648     3.72     4.292737     20.44924     130.2872        20     1.243     1.058  55.26   0
        70    690.5513    822.2048 300.1194600 +22.8127839     698.3472     72.46305      1.540     2.98     3.004758     20.44924     90.55136        12     1.020     0.767  -7.43   0
        71    488.6838    821.2112 300.0569390 +22.7519599     315.0422     72.44458      1.458     4.14     2.899273     20.44924      39.5108         6     0.773     0.632  45.09   0
        72    705.5681    968.7153 300.0764809 +22.8593407     6673.031     72.46305      1.833     4.00     2.506171     20.44924     396.3389        42     1.421     1.390 -11.35   0
        73    607.1157    812.6390 300.0965890 +22.7850194     365.4752     72.46305      1.484     4.14     3.033535     20.44924     40.77257         6     0.801     0.611  39.66   0
        74    845.7961    809.5192 300.1719526 +22.8556810     4285.315     72.38914      1.629     3.27     3.247434     20.44924     375.0955        34     1.296     1.210 -29.58   0
        75    254.1649    803.4321 299.9897806 +22.6764990     424.7224     72.51843      1.493     3.81     3.767162     20.44924     67.33752        11     1.082     0.915 -11.66   0
        76    562.6902    801.9684 300.0862286 +22.7686340     533.0815     72.42611      1.312     2.73      3.05217     20.44924      72.3455        12     0.960     0.776 -38.74   0
        77    209.1521    799.9413 299.9769244 +22.6619898     923.7342     72.53688      1.619     4.01     3.705886     20.44924     90.01464        18     1.247     1.029 -11.22   0
        78    358.7184    791.9688 300.0260162 +22.7045819      53491.5     72.48151      1.593     3.23     3.546954     20.44924     5260.416        97     1.450     1.371  38.34   0
        79    624.5018    795.3441 300.1076255 +22.7852685     526.3165     72.57377      1.657     4.47     3.065417     20.44924     41.64346         8     0.851     0.770   1.09   0
        80    616.6100    791.0425 300.1065670 +22.7816673     1665.295     72.48151      1.548     3.22     3.066962     20.44924     179.4768        21     1.132     1.050  53.98   0
        81    287.1548    789.9817 300.0044094 +22.6825403     585.3334     72.49998      1.495     3.60     3.780484     20.44924     50.92895        10     0.877     0.789  -3.89   0
        82    645.5955    787.2172 300.1168359 +22.7892604      938.702     72.42611      1.542     3.41     3.083658     20.44924     85.74984        16     1.087     0.960  86.60   0
        83     44.8815    786.5642 299.9302373 +22.6088477     748.3452     72.42611      1.827     5.21     3.652126     20.44924     52.57763        15     1.179     1.123  13.57   0
        84     11.9691    786.7319 299.9199619 +22.5990153     687.5115     72.46305      1.890     5.09     3.591377     20.44924     66.55406        16     1.310     1.179  22.93   0
        85    656.3331    785.4626 300.1207500 +22.7919762     614.6832     72.53688      1.527     3.29      3.09116     20.44924     66.65842        14     0.977     0.933  49.23   0
        86    977.4490    783.1631 300.2215657 +22.8875645      287.178     72.48151      1.412     3.55     3.312031     20.44924     46.97696         6     1.101     0.528 -42.14   0
        87    761.8448    781.6898 300.1548414 +22.8225252     478.5245     72.48151      1.544     4.51     3.159604     20.44924     52.17668         9     0.897     0.784  70.53   0
        88    799.4859    772.0503 300.1697034 +22.8310399     892.4705     72.48151      1.555     3.25     3.288699     20.44924     92.54287        14     1.072     0.881 -48.36   0
        89    408.4687    769.2010 300.0488919 +22.7129742     31420.36     72.44458      1.554     2.95     3.604841     20.44924     3209.628        70     1.329     1.323  21.23   0
        90    422.7869    769.7511 300.0531672 +22.7174271     2066.948     72.51843      1.583     3.20     3.529232     20.44924     206.9617        24     1.208     1.090 -18.24   0
        91    298.1495    767.6475 300.0150884 +22.6794324     327.7523     72.51843      1.354     4.10     3.727966     20.44924     46.90619         5     1.027     0.468  58.54   0
        92    931.6222    765.1384 300.2131365 +22.8686548     2825.116     72.46305      1.672     3.49     3.689793     20.44924     224.9983        28     1.228     1.205 -71.66   0
        93    419.6516    763.5771 300.0541989 +22.7147150     687.6276     72.48151      1.759     4.17     3.631123     20.44924     66.65461        13     1.155     0.839 -67.26   0
        94    689.5672    761.5403 300.1388775 +22.7950722     1012.457     72.51843      1.493     3.07     3.136256     20.44924     114.1102        17     1.070     0.965  85.53   0
        95    291.0862    760.8594 300.0150989 +22.6753659     888.3682      72.5922      1.578     3.74     3.720618     20.44924      96.9712        12     1.159     0.749  55.48   0
        96    583.5707    759.4590 300.1065488 +22.7626940     260.1726     72.48151      1.450     3.93      3.09319     20.44924     39.66988         6     1.216     0.496  -2.63   0
        97    536.7141    756.1838 300.0930281 +22.7477029     1036.646     72.44458      1.549     3.08     3.095432     20.44924     97.25397        17     1.021     0.989  23.90   0
        98     95.9518    756.7048 299.9558063 +22.6156162      419.704     72.51843      1.418     4.13     3.793289     20.44924     56.26592         8     1.120     0.561 -40.62   0
        99    937.6870    753.0595 300.2189543 +22.8670022      406.727     72.57377      2.016     5.69     3.759728     20.44924      39.1195        10     1.395     0.655  65.29   0
       100    438.9629    751.9065 300.0640004 +22.7171584     374.9097     72.44458      1.366     3.30     3.573428     20.44924      46.9217         7     0.832     0.690 -65.51   0
       101    482.4084    750.6885 300.0779140 +22.7298394     392.9543     72.40763      1.346     3.53     3.113551     20.44924     53.94137        11     1.029     0.755  27.17   0
       102    394.4388    751.2755 300.0503549 +22.7036221     329.5185     72.44458      1.466     4.32     3.800599     20.44924     32.59259         7     0.961     0.554  34.21   0
       103    124.2019    750.1766 299.9667045 +22.6222230     647.9108     72.42611      1.852     4.54     3.761464     20.44924     59.87364        12     1.155     1.078 -49.73   0
       104    691.1516    750.2297 300.1430479 +22.7922996     272.7299     72.49998      1.715     3.82     3.160208     20.44924     27.95184         5     1.200     0.349 -11.83   0
       105    915.0163    747.8820 300.2135693 +22.8587217     465.5797     72.46305      1.564     5.39     3.725681     20.44924      32.9339        10     1.127     0.726  71.20   0
       106    288.8362    745.4464 300.0194094 +22.6702692      497.833     72.51843      1.402     3.46      3.68596     20.44924     60.60373        12     1.147     0.724  16.43   0
       107    611.8749    735.7592 300.1230647 +22.7643773     474.8151     72.46305      1.435     3.86        3.121     20.44924     55.41653         9     0.937     0.710  13.35   0
       108    581.3575    733.9651 300.1141469 +22.7547121     612.6512     72.53688      1.417     3.29     3.128407     20.44924     78.26713        10     0.927     0.720  14.14   0
       109    491.0369    733.1033 300.0863151 +22.7273801     426.5242     72.48151      1.474     4.92     3.194898     20.44924      36.5761         9     0.985     0.695  68.03   0
       110    997.9932    730.5304 300.2450836 +22.8785979     4505.084     72.44458      1.652     3.55     4.033631     20.44924     357.5384        36     1.309     1.249 -40.50   0
       111    603.4062    731.5825 300.1217857 +22.7606390     1313.115     72.44458      1.420     2.72     3.135526     20.44924     166.8106        17     1.002     0.975  63.54   0
       112    523.4456    731.2222 300.0970124 +22.7365591     266.6761     72.51843      1.258     3.38      3.17393     20.44924     43.87589         5     0.786     0.421  66.50   0
       113    685.0206    726.3165 300.1489116 +22.7835953      323.425     72.42611      1.424     3.34     3.227344     20.44924     40.68087         7     0.728     0.679  -1.83   0
       114    986.2261    722.1865 300.2441261 +22.8726752     1648.219     72.48151      1.613     3.42     4.006407     20.44924     138.7029        25     1.239     1.187 -66.22   0
       115    349.4211    715.4590 300.0479949 +22.6798410     967.5139     72.44458      1.555     3.68     3.870455     20.44924     110.0186        18     1.195     1.035  79.78   0
       116    812.9727    713.1465 300.1930541 +22.8181647     2527.231     72.49998      1.544     3.21     3.350751     20.44924     239.3185        30     1.533     1.030  -0.62   0
       117   1017.6312    712.2385 300.2571544 +22.8792249     1706.512     72.48151      1.630     3.69     4.065391     20.44924      141.078        22     1.217     1.087  10.11  16
       118    322.5962    711.8448 300.0408278 +22.6707571     237.1236     72.49998      1.406     4.35     3.824461     20.44924     31.88903         5     0.989     0.546 -42.15   0
       119     35.1854    703.2857 299.9542937 +22.5820593     936.6281     72.42611      1.825     5.57     4.030351     20.44924     74.77076        17     1.440     1.020  83.33   0
       120    895.1298    699.1724 300.2232029 +22.8387697     503.1028     72.46305      1.537     4.60     3.726096     20.44924     58.55868        13     1.220     0.904  24.52   0
       121    198.2647    699.7852 300.0060959 +22.6299956     506.4221     72.46305      1.432     3.42     3.639062     20.44924     58.52834        11     1.100     0.733 -24.52   0
       122    931.2673    690.1517 300.2374010 +22.8470054     149031.1     72.48151      1.578     3.12     3.962221     20.44924     13009.48       161     1.481     1.455 -38.57   0
       123    693.8943    693.7957 300.1622453 +22.7769169     414.3011     72.38914      1.563     3.38     3.335167     20.44924     36.98355         6     0.874     0.491  34.82   0
       124    783.7446    690.4719 300.1913161 +22.8028925     782.6216     72.49998      1.410     3.11     3.311996     20.44924      103.261        15     1.211     0.780 -17.15   0
       125    964.2896    682.9681 300.2500324 +22.8548345     580.8138     72.44458      1.691     3.51     4.001147     20.44924     48.66332         9     0.902     0.693  23.09   0
       126    617.4379    678.9307 300.1432668 +22.7497292     1651.281     72.44458      1.363     2.62      3.36934     20.44924     213.5957        19     1.142     0.913  64.05   0
       127    798.7534    676.2343 300.2006199 +22.8033008      9583.48     72.51843      1.448     2.75     3.326871     20.44924     990.6093        45     1.219     1.208  45.52   0
       128    300.1085    671.3328 300.0470007 +22.6523872     4956.869     72.61063      1.490     2.90     3.907666     20.44924     533.9606        33     1.247     1.160  36.71   0
       129    140.9348    672.0443 299.9972953 +22.6048359      6257.07     72.46305      0.443     1.75      3.78057     20.44924     5066.533         8     0.339     0.290 -31.66   0
       130     13.8536    669.5614 299.9586277 +22.5659862     1567.618     72.48151      1.714     4.17     4.411561     20.44924     162.7634        26     1.376     1.229  18.18   0
       131    382.0997    669.1409 300.0732109 +22.6763513     1184.964     72.57377      1.520     4.84     4.017236     20.44924     126.0784        19     1.352     0.960  48.94   0
       132    258.1107    667.0640 300.0353307 +22.6385637     509.5241      72.5922      1.532     5.73     3.786185     20.44924      43.4727        10     1.204     0.768 -52.47   0
       133    590.5726    664.8676 300.1394725 +22.7376373     752.7021     72.46305      1.454     2.89     3.500671     20.44924     84.00801        12     0.922     0.822 -51.28   0
       134    582.1981    657.0736 300.1393980 +22.7328888     3249.683     72.38914      1.355     2.63     3.594177     20.44924     377.6517        27     1.137     1.039 -42.89   0
       135    572.5101    650.8101 300.1384173 +22.7281860     1378.208     72.42611      1.313     2.28     3.663993     20.44924     209.2861        17     0.969     0.905  56.94   0
       136    501.0606    650.5526 300.1162622 +22.7066901     336.6116     72.53688      1.324     4.41     3.770324     20.44924     38.44081         7     0.946     0.613 -56.46   0
       137    767.7320    649.5365 300.1996298 +22.7863357      383.841     72.53688      1.459     3.84     3.493119     20.44924     35.54751         5     1.351     0.313 -45.87   0
       138    966.3020    648.5329 300.2618505 +22.8455422     478.1383     72.57377      1.751     5.22     4.007927     20.44924     47.40105         8     1.013     0.771 -40.24   0
       139    482.9905    647.8412 300.1115200 +22.7004936     287.8974     72.48151      1.590     4.32     3.820612     20.44924     36.32707         6     1.032     0.516 -78.59   0
       140    235.7336    646.8188 300.0349528 +22.6260421     527.3858     72.46305      1.381     3.90     3.794938     20.44924     72.61678        12     1.073     0.859  45.51   0
       141    249.8153    645.4761 300.0397663 +22.6298812     609.2537     72.48151      1.446     4.30     3.837146     20.44924     66.89388        12     1.062     0.871  53.42   0
       142    275.6815    642.3746 300.0488153 +22.6367506     567.2933     72.46305      1.486     3.58     3.906996     20.44924     70.26034        11     1.004     0.820 -47.64   0
       143   1019.3033    642.1351 300.2804592 +22.8595794     491.4694      72.5922      1.637     5.40     4.015556     20.44924     38.88987        11     1.090     0.754  10.14  16
       144    306.9947    642.2160 300.0586026 +22.6460978     411.6812     72.40763      1.266     4.24     3.967471     20.44924     46.70523         6     1.187     0.520  19.63   0
       145    596.3694    641.1769 300.1489752 +22.7325728     468.1369     72.46305      1.235     2.11      3.74336     20.44924     70.27344         7     0.736     0.595 -66.42   0
       146    497.1364    640.5128 300.1183031 +22.7026313      1738.23      72.5922      1.351     2.51     3.846892     20.44924     211.2081        19     1.039     0.949   4.29   0
       147    151.1334    635.3852 300.0123751 +22.5973803     19705.49     72.46305      1.563     2.93     3.906747     20.44924     2185.109        58     1.351     1.302  24.76   0
       148     72.0483    637.0349 299.9872696 +22.5741231     694.0008     72.51843      1.500     3.17     4.164734     20.44924     91.81313        12     1.058     0.763  -3.35   0
       149    582.1185    635.8593 300.1462664 +22.7267738     999.6453     72.57377      1.367     2.49       3.8045     20.44924     122.6882        12     0.906     0.783  38.82   0
       150    499.5453    632.3247 300.1217132 +22.7010030     281.7343     72.51843      1.233     3.47     3.906739     20.44924     38.22433         5     0.783     0.443 -69.44   0
       151    953.8032    631.6525 300.2634382 +22.8369472     191.9253     72.48151      1.303     3.29     4.003293     20.44924     45.62733         5     0.889     0.476   0.29   0
       152    335.4454    627.5009 300.0722305 +22.6504084     183.7359     72.49998      1.249     3.42     4.033355     20.44924     43.89335         6     1.031     0.486  -7.39   0
       153   1000.1171    622.2121 300.2809487 +22.8481068     969.9481     72.44458      1.428     3.02     4.005075     20.44924     94.61365        17     1.087     0.931   4.29   0
       154    665.5643    623.3011 300.1763293 +22.7481806     209.9888     72.46305      1.226     3.43     4.114527     20.44924     34.70092         5     0.745     0.457 -70.88   0
       155     97.0010    619.2921 300.0007849 +22.5765216     1562.347     72.37066      1.935     4.61     4.136534     20.44924     122.7708        28     1.531     1.197 -83.93   0
       156    866.8375    620.1913 300.2400496 +22.8076011     519.4902     72.49998      1.418     2.86     3.790227     20.44924     61.36019         8     0.813     0.658  42.38   0
       157    163.7102    620.1648 300.0212279 +22.5967874       451.24     72.46305      1.401     2.81     3.941668     20.44924      56.6561         6     0.869     0.540 -24.93   0
       158    545.5538    616.6142 300.1411369 +22.7102863     473.1807     72.49998      1.110     2.13     3.998158     20.44924     76.14861         5     0.670     0.458  19.71   0
       159    940.4581    614.8801 300.2647267 +22.8281298     780.1188     72.51843      1.686     3.83     4.000687     20.44924     72.77995        14     1.142     0.824 -10.39   2
       160    936.1658    614.5281 300.2635027 +22.8267429     389.7305     72.48151      2.117     3.53     4.000564     20.44924      35.3048         5     0.811     0.443 -18.91   3
       161    684.8267    613.2624 300.1855899 +22.7510706     292.0478     72.48151      1.279     4.32     4.178589     20.44924     41.12053         9     1.018     0.642 -31.18   0
       162    502.4543    608.7765 300.1302690 +22.6951146     664.6375     72.49998      1.329     2.68     4.069781     20.44924     96.66705        13     0.948     0.846  48.47   0
       163    650.3344    607.5214 300.1767131 +22.7390839     424.1242      72.5922      1.139     3.16     4.243371     20.44924     54.04324        10     0.998     0.698 -15.50   0
       164    697.6341    606.0214 300.1919315 +22.7528293     472.8588     72.49998      1.165     2.56     4.131039     20.44924     79.09111         9     0.942     0.666  18.82   0
       165    667.8052    605.5683 300.1827884 +22.7437593     609.9026     72.46305      1.429     2.79     4.316895     20.44924     73.38995        11     0.888     0.795  46.81   0
       166    546.6096    604.6285 300.1453594 +22.7071613     1010.757     72.48151      1.442     2.61     4.088997     20.44924       126.84        14     0.983     0.835 -15.20   0
       167    980.3956    600.1838 300.2819552 +22.8358688     3347.818     72.38914      1.522     3.00     3.999785     20.44924     334.9683        32     1.296     1.166  -3.07   0
       168    511.9268    600.0397 300.1360553 +22.6954461     1756.207     72.46305      1.378     2.71     4.077089     20.44924      210.102        18     1.032     0.923  45.32   0
       169    877.2206    597.2700 300.2507331 +22.8041257     345.1774     72.48151      1.502     4.53     3.864848     20.44924     39.45459         6     1.006     0.578  37.42   0
       170    487.4371    595.2490 300.1299903 +22.6867284     341.9946     72.48151      1.562     2.84     4.039903     20.44924     37.94883         5     0.717     0.452  68.51   0
       171     73.9535    593.5325 300.0019933 +22.5622170     5046.383     72.46305      1.639     3.22     4.180244     20.44924     523.8574        39     1.323     1.272  18.89   0
       172   1019.6530    590.6954 300.2972816 +22.8448992     369.8102     72.40763      1.523     3.57     4.002689     20.44924     47.26988         6     0.892     0.695 -76.65  16
       173    541.2474    591.0528 300.1481006 +22.7016557     294.0522     72.51843      1.391     2.46     4.145915     20.44924     41.21698         5     0.756     0.482 -33.81   0
       174    375.4046    586.7538 300.0978953 +22.6506973     8940.796     72.46305      1.411     2.51     4.013255     20.44924     1264.913        39     1.198     1.135  33.33   0
       175    633.2976    588.3762 300.1776275 +22.7284792     175.4668     72.40763      1.093     3.46     4.261207     20.44924     36.79282         5     0.737     0.469  12.18   0
       176    497.8642    583.7932 300.1369565 +22.6865654     9077.398     72.44458      1.364     2.46     4.048835     20.44924      1289.15        41     1.171     1.113  37.40   0
       177    263.5429    580.5598 300.0651228 +22.6153715     213.7459     72.46305      1.348     5.19      3.93415     20.44924     34.86665         7     1.011     0.754 -40.10   0
       178    744.2095    580.1461 300.2148460 +22.7593539     331.4292     72.48151      1.354     4.12     4.015146     20.44924     38.00776         6     0.774     0.626  -6.24   0
       179    909.5025    577.8568 300.2671034 +22.8082175     1969.831     72.57377      1.497     2.95     3.944406     20.44924     207.2463        24     1.194     0.995  60.17   0
       180    994.2330    575.2260 300.2943787 +22.8328397     12610.11     72.48151      1.523     2.91     4.000512     20.44924     1317.907        50     1.302     1.274 -86.93   0
       181    558.4661    573.4017 300.1591941 +22.7017488     11448.91     72.46305      1.290     2.33      4.24866     20.44924     1562.706        39     1.129     1.079  61.83   0
       182    285.8733    568.8685 300.0758627 +22.6187138     1332.657     72.55533      1.480     2.81     3.923259     20.44924     178.0088        21     1.236     0.982 -22.94   0
       183    728.1903    569.2647 300.2133903 +22.7514278     571.1105     72.46305      1.499     3.12     4.164156     20.44924     63.67068         9     0.852     0.738   2.11   0
       184    443.7253    567.7883 300.1253091 +22.6657389     463.3444     72.49998      1.654     5.15     3.953588     20.44924     49.65182        11     1.273     0.829 -51.67   0
       185    532.7925    566.4036 300.1534758 +22.6920433     496.2361     72.29666      1.491     4.04     4.211116     20.44924     53.16122         8     0.961     0.636   1.05   0
       186    490.1360    561.5248 300.1417848 +22.6778548     4452.472     72.51843      1.340     2.53     3.986091     20.44924     542.1674        29     1.114     1.023  45.36   0
       187    833.0096    561.8029 300.2484746 +22.7806897     824.7397     72.29666      1.277     2.71     3.877103     20.44924     114.2895        13     0.994     0.783  -2.13   0
       188    468.4056    559.9787 300.1355250 +22.6708962     1324.219     72.46305      1.389     2.54     3.930196     20.44924     189.2259        16     0.963     0.907  77.07   0
       189    222.6787    559.4085 300.0592899 +22.5970448     734.3054     72.42611      1.402     3.90     3.896244     20.44924     70.45992        11     0.952     0.860  15.78   0
       190    910.1259    557.3060 300.2739734 +22.8024982     1504.596     72.62906      1.501     3.22      3.93989     20.44924     146.2691        23     1.177     1.075 -20.61   0
       191    606.7523    549.1365 300.1821081 +22.7092533     201456.9     72.49998      1.340     2.49     4.422747     20.44924     26740.85       190     1.416     1.354 -19.74   0
       192    430.2133    555.0723 300.1252355 +22.6580370     321.0024     72.49998      1.377     4.37     3.913786     20.44924     41.66725         7     0.759     0.715  33.99   0
       193    790.4212    554.2233 300.2376647 +22.7657526     748.4028     72.48151      1.152     2.23     3.995895     20.44924     110.6337        11     0.890     0.683  13.60   0
       194    292.8223    549.0850 300.0844489 +22.6151200     3422.953     72.42611      1.409     2.79     3.889246     20.44924      407.035        27     1.120     1.072  86.58   0
       195    567.9384    549.4863 300.1699107 +22.6977203       194.76     72.57377      1.131     3.80     4.378146     20.44924     28.95552         6     0.832     0.498  -3.37   0
       196    858.4707    545.3281 300.2617615 +22.7835830     596.1422     72.55533      1.954     4.71     3.849284     20.44924     58.09506        13     1.222     1.014 -88.62   0
       197    156.1050    557.2489 300.0393013 +22.5764552     323.6208     72.53688      1.327     3.95     4.000851     20.44924      38.9239         6     0.849     0.638  29.39   0
       198    472.4710    545.0650 300.1416339 +22.6678330     253.9623     72.51843      1.263     3.77     3.887082     20.44924     36.33668         6     0.828     0.494 -83.57   0
       199    497.4087    529.3635 300.1544936 +22.6708003     2706.854     72.48151      1.377     2.32     4.113253     20.44924     311.8134        23     1.068     0.986  80.68   2
       200    341.5195    531.9402 300.1051598 +22.6248022     333.8665     72.53688      1.176     2.98     3.886814     20.44924       61.702         8     0.862     0.652  29.64   0
       201    908.9377    526.0552 300.2837534 +22.7931608     424.4799     72.55533      1.348     3.71     3.933149     20.44924     52.16292         9     1.084     0.585  63.93   0
       202    728.3933    525.2524 300.2277488 +22.7388446     284.9962     72.46305      1.267     3.97     4.345914     20.44924     35.34944         6     0.733     0.660 -21.62   0
       203    814.6484    518.0223 300.2569722 +22.7626088     440.5736     72.48151      1.338     4.57     3.939395     20.44924      54.1659         8     1.060     0.558  63.00   0
       204    894.3652    515.6431 300.2825919 +22.7858035     1750.946     72.53688      1.442     2.90     3.900188     20.44924     205.5098        21     1.147     0.998 -22.08   0
       205    780.9428    515.5390 300.2472755 +22.7517978      334.256     72.55533      1.317     2.66     4.081262     20.44924     42.77607         6     0.765     0.495  -5.67   0
       206     24.3437    514.4333 300.0122738 +22.5246417     772.8566     72.49998      1.610     3.36     4.040281     20.44924     81.47594        16     1.182     0.901 -34.47   0
       207    765.6277    513.3205 300.2432241 +22.7465721     2538.742     72.49998      1.278     2.40     4.166395     20.44924     347.4935        21     1.024     0.993 -76.99   0
       208   1009.8162    510.7264 300.3201890 +22.8189654     462.9753     72.48151      1.389     3.92     3.994139     20.44924      56.4745         7     0.861     0.601 -18.83   0
       209    975.3190    510.0908 300.3096365 +22.8084524      227.974      72.5922      1.416     4.27     3.985065     20.44924     39.03496         7     0.774     0.671 -86.09   0
       210    670.6295    509.9742 300.2147182 +22.7171471     426.5698     72.48151      1.300     2.83     4.442929     20.44924     57.01699         9     0.925     0.634  39.04   0
       211    552.8258    509.2808 300.1782638 +22.6816439     728.5351     72.46305      1.344     2.45     4.421412     20.44924     104.4063        11     0.893     0.754 -35.97   0
       212   1022.7230    507.4627 300.3252748 +22.8218919     1112.671     61.60348      1.323     2.81     3.995973     20.44924     139.7928        16     1.020     0.896  40.66  24
       213   1008.6387    506.3948 300.3212286 +22.8173675     784.5079     72.49998      1.861     3.75     3.992213     20.44924     66.19747        17     1.206     0.929  40.47   0
       214    894.6625    505.6663 300.2859246 +22.7830251     2321.146     72.51843      1.702     3.76     3.902044     20.44924     224.9376        30     1.618     1.051  74.81   0
       215    647.8969    503.6304 300.2096988 +22.7085128      660.653     72.42611      1.350     2.81     4.447459     20.44924     89.22932        13     0.959     0.866  74.04   2
       216    647.5397    499.5927 300.2108987 +22.7072459     366.2592     72.44458      1.159     3.24     4.448486     20.44924     51.61826         8     0.970     0.582  45.73   3
       217    486.2038    502.3015 300.1597950 +22.6596704     1039.677     72.37066      0.609     2.78     4.258569     20.44924     607.2243         7     0.821     0.277  53.93   0
       218    433.2881    503.4756 300.1429487 +22.6441448     291.9253     72.61063      1.335     3.24     4.068959     20.44924     50.87059         6     0.702     0.660  59.62   0
       219    932.8402    500.8128 300.2994036 +22.7930642     4210.844     72.48151      1.421     2.67      3.97271     20.44924     513.9489        29     1.163     1.117 -11.72   0
       220    593.8136    495.7941 300.1954033 +22.6900545      321.774     72.35217      1.517     4.62      4.44788     20.44924     52.39684         7     1.464     0.415 -63.83   0
       221   1023.7850    491.4559 300.3308043 +22.8176079     329.1515     55.74209      0.981     2.68     3.990454     20.44924     81.27855         6     0.878     0.410 -88.78  24
       222    109.4541    488.5456 300.0471166 +22.5427480     4488.862     72.51843      0.938     3.51     4.155075     20.44924     1172.873        10     0.950     0.452  68.41   0
       223    157.3008    481.3304 300.0643258 +22.5550294     397.0933      72.5922      1.405     2.73     4.171719     20.44924     48.24228         7     0.783     0.615 -26.87   0
       224    164.6874    491.2338 300.0634057 +22.5600869     1042.826     72.44458      1.558     3.33     4.128714     20.44924     93.58102        16     1.086     0.948   7.56   0
       225    764.7677    475.4158 300.2552650 +22.7354228     483.4365     72.46305      1.350     3.43     4.180055     20.44924      62.9211         9     0.887     0.803  32.53   0
       226    654.0389    473.2847 300.2214653 +22.7016357     368.3695     72.46305      1.232     2.73     4.453169     20.44924     55.11478         7     0.740     0.643   2.33   0
       227    373.6394    473.6192 300.1340876 +22.6176899     305.4175     72.49998      1.523     3.49     3.987826     20.44924     35.53862         5     1.022     0.345 -20.82   0
       228    706.2945    471.2972 300.2383860 +22.7167215       779.41      72.6659      1.227     2.65     4.402461     20.44924     97.99561        13     1.000     0.750  56.49   0
       229   1020.7169    464.1346 300.3387191 +22.8088340     469.3133     70.00214      1.105     2.82     3.917433     20.44924     80.29382         9     0.837     0.737 -89.07  16
       230    766.9195    463.6124 300.2597680 +22.7326756     780.3309     72.46305      1.358     2.71     4.182084     20.44924      114.087        14     0.950     0.883  85.16   0
       231    924.2371    459.8061 300.3100369 +22.7787002     1031.646     72.51843      1.421     2.92     3.963343     20.44924     123.2591        15     1.114     0.837  39.35   0
       232    908.4966    456.1915 300.3063030 +22.7729474     636.6212     72.37066      1.306     2.80     3.953525     20.44924      102.591        11     0.871     0.830  18.43   0
       233    889.2330    456.3142 300.3002576 +22.7672137     332.6844     72.44458      1.313     3.79     3.940654     20.44924     46.78433         5     0.852     0.483  47.14   0
       234    652.8588    454.0919 300.2273294 +22.6957681     3244.071     72.55533      1.294     2.35     4.452673     20.44924      461.596        24     1.018     0.984  26.93   0
       235    128.6843    445.7428 300.0669875 +22.5362336     347.3119     72.57377      1.311     4.30     4.140761     20.44924     46.22333         6     0.942     0.619  10.57   0
       236   1013.3762    452.8925 300.3400796 +22.8034038     502.0145     72.40763      1.498     4.30     3.881153     20.44924     53.83757        10     0.978     0.818  61.03   0
       237    492.6992    441.0779 300.1816947 +22.6440348      335.002     72.61063      1.161     2.18     4.423118     20.44924     57.64359         7     0.690     0.644  75.55   0
       238    424.8345    441.7040 300.1603748 +22.6238732     288.8689     72.48151      1.178     2.97     4.272388     20.44924     52.48964         6     0.959     0.406 -13.89   0
       239    935.9252    432.9285 300.3224077 +22.7744735     585.4186     72.55533      1.518     3.86     3.954374     20.44924     66.24412         9     1.115     0.659 -44.26   0
       240   1022.5457    431.8313 300.3497778 +22.8000932      970.988     62.50914      1.466     3.14     3.783988     20.44924     106.4018        15     1.033     0.914 -77.68  24
       241    672.5707    429.9874 300.2412940 +22.6947485     434.1222     72.48151      1.596     3.38     4.453363     20.44924     57.70305         7     1.029     0.529  63.41   0
       242    559.1204    428.3705 300.2064936 +22.6602906     441.4439     72.48151      1.257     3.46     4.432125     20.44924     58.85579        11     0.990     0.732  67.07   0
       243    763.3259    427.9417 300.2702293 +22.7213482     1127.509     72.51843      1.264     2.46     4.257863     20.44924     151.2331        16     0.971     0.918 -33.85   0
       244    267.5808    426.2127 300.1164970 +22.5722811     534.4279     72.44458      1.172     2.22     4.101931     20.44924     96.03924         9     0.790     0.668  18.06   0
       245    329.7937    421.9404 300.1372284 +22.5897072     3709.406     72.44458      1.358     2.48     4.219882     20.44924     514.2697        22     1.050     0.961  47.50   0
       246    276.9164    416.5884 300.1225235 +22.5723173     7517.617     72.44458      1.404     2.63     4.176006     20.44924     985.4747        40     1.245     1.122  69.99   0
       247    417.7601    410.8200 300.1681995 +22.6128836     4812.009     72.51843      1.310     2.28     4.414845     20.44924     779.8733        29     1.121     1.011  59.26   0
       248    661.9153    407.6176 300.2452372 +22.6851287     18485.03     72.44458      1.317     2.26     4.434024     20.44924     2977.246        57     1.276     1.132  29.29   0
       249    679.6617    407.6190 300.2507639 +22.6904456     951.7438     72.46305      1.789     5.91     4.434587     20.44924     88.40505        14     1.454     0.738 -43.19   0
       250    504.8736    407.2191 300.1964749 +22.6379585     449.2433     72.48151      1.605     3.73     4.422002     20.44924     37.88689         5     0.894     0.448 -47.91   0
       251    858.8593    397.9907 300.3097239 +22.7413522     425.1236     72.44458      1.247     3.21     4.125468     20.44924     60.62968         7     0.893     0.591  69.49   0
       252    282.3711    394.6740 300.1313326 +22.5676611     282.3461     72.49998      1.067     3.25     4.284782     20.44924     46.21712         5     0.967     0.362  69.11   0
       253    995.7226    390.0669 300.3549694 +22.7800536     825.5648     72.57377      1.582     4.46     3.793948     20.44924     94.58472        15     1.173     1.006 -64.52   0
       254    532.7179    389.7076 300.2108252 +22.6412724     348.0139     72.62906      1.105     2.20     4.422002     20.44924      58.1278         6     0.652     0.644 -37.93   0
       255    216.6222    387.7826 300.1131294 +22.5459694     2100.994     72.46305      1.411     2.44       4.1137     20.44924     310.4125        22     1.123     0.985 -86.74   0
       256    705.2164    389.1617 300.2647147 +22.6927971     196.7428     72.49998      1.169     3.20     4.394624     20.44924      38.9631         5     0.730     0.678 -36.94   0
       257    602.6032    377.0325 300.2366951 +22.6585709     6548.438     72.46305      1.267     2.32      4.43088     20.44924     973.2427        34     1.137     0.999  76.93   0
       258   1016.2509    377.5562 300.3654332 +22.7826014     1210.499     72.51843      1.416     2.83     3.770195     20.44924     148.2979        15     1.015     0.921  66.19   0
       259    317.4280    376.6395 300.1480866 +22.5729929     685.9828     72.51843      1.213     2.42     4.383353     20.44924     93.05856        10     0.882     0.701 -18.27   0
       260    175.0089    369.4691 300.1061394 +22.5282345     501.4762     72.46305      1.358     2.70      4.23281     20.44924     80.85831         8     0.925     0.562  46.43   0
       261    862.6671    369.5300 300.3201488 +22.7343107     318.4536     72.51843      1.226     3.42     4.252105     20.44924     43.51381         5     0.731     0.462  19.50   0
       262     22.4692    367.2043 300.0594844 +22.4818376     1239.533     72.44458      1.549     3.36     4.661384     20.44924     156.3839        21     1.206     1.092   9.21   0
       263    806.9030    365.8911 300.3039497 +22.7165654     1191.337      72.6659      1.486     3.52     4.178902     20.44924     128.8475        16     1.126     0.847  70.52   0
       264    716.3627    367.3808 300.2752563 +22.6898764     408.1257     72.49998      0.990     2.33     4.338162     20.44924     69.84525         7     0.819     0.530  32.83   0
       265    509.2353    363.3526 300.2120701 +22.6266648     6059.886     72.49998      1.267     2.25     4.422002     20.44924     793.2478        32     1.109     1.048 -75.69   0
       266    901.2842    357.7570 300.3360081 +22.7424890     1415.336     72.44458      1.348     2.51     4.038396     20.44924     199.8258        20     1.100     0.988  10.52   0
       267    998.7156    358.0263 300.3663026 +22.7717357     608.9219     72.46305      1.358     3.37     3.794095     20.44924     70.92137        11     1.013     0.779  34.97   0
       268    493.8252    352.0889 300.2109295 +22.6188114      407.149     72.42611      1.259     2.83     4.421308     20.44924      85.4377        12     1.013     0.775  -0.50   0
       269    576.5143    350.1559 300.2372953 +22.6430323      573.211     72.46305      1.304     2.68     4.418564     20.44924      79.8583         9     0.852     0.726 -59.61   0
       270     20.7381    348.7064 300.0649494 +22.4760102     1114.665     72.57377      1.590     2.97     4.772785     20.44924     134.3709        17     1.107     1.020  -1.78   0
       271    873.9615    345.1248 300.3315901 +22.7306761       470.85     72.44458      1.253     2.85     4.273294     20.44924     82.40362        10     0.916     0.708  69.15   0
       272    396.8335    342.4686 300.1838730 +22.5869812     2442.914     72.48151      1.282     2.32     4.827193     20.44924     384.5375        21     1.109     0.891  69.02   0
       273    115.2872    340.0970 300.0971131 +22.5018949     959.2869      72.6659      1.347     2.86     4.357506     20.44924      124.445        11     0.985     0.704 -46.26   0
       274    366.1364    331.9444 300.1777394 +22.5747582     29558.24     72.53688      1.338     2.43     4.699331     20.44924     3993.661        63     1.245     1.159  64.68   0
       275    900.8787    329.5045 300.3450505 +22.7342442     1348.891      72.5922      1.285     2.45     4.155328     20.44924     202.0096        17     1.003     0.915  82.53   0
       276    856.3578    327.5453 300.3318077 +22.7203509     387.9527     72.48151      1.358     2.95     4.341637     20.44924     57.80648         5     0.981     0.306  66.69   0
       277     62.4898    319.6944 300.0873309 +22.4802059     4931.029      72.6659      1.569     2.85     4.635192     20.44924     649.1135        34     1.264     1.188  39.79   0
       278    815.9655    318.3404 300.3222054 +22.7056098     518.2877     72.49998      1.248     3.30     4.293875     20.44924     73.89458        11     1.110     0.675  30.76   0
       279    240.4235    318.4542 300.1430258 +22.5332014     445.0193     72.49998      1.483     2.88      4.42792     20.44924     58.49791         7     0.786     0.699  63.23   0
       280    464.4860    317.2298 300.2131112 +22.6000058     502.8252     72.48151      1.251     3.18     4.547925     20.44924     81.62873        11     1.027     0.796 -13.61   0
       281    776.5803    311.7868 300.3120586 +22.6919318     1992.598     72.44458      1.267     2.18     4.291316     20.44924     300.6812        17     1.014     0.821  80.64   0
       282    584.7778    306.2791 300.2541057 +22.6329006      303.474     72.44458      1.128     2.28     4.377067     20.44924     62.61107         7     0.808     0.546  56.86   0
       283    991.8156    304.9940 300.3813606 +22.7544186     640.6365     72.40763      1.392     2.75     3.805779     20.44924     74.55013         9     0.836     0.731  72.47   0
       284    654.5576    304.1425 300.2765273 +22.6531893     209.9531     72.44458      1.104     3.45     4.321793     20.44924     34.06827         5     0.757     0.454 -70.67   0
       285    438.3743    296.2834 300.2117826 +22.5861641       1950.3     72.46305      1.448     2.95     4.754044     20.44924     255.0955        21     1.328     0.842  64.22   0
       286    650.3548    295.5443 300.2780082 +22.6494593     174.2533     72.51843      1.037     2.55     4.328425     20.44924     60.97871         5     0.685     0.495  -7.01   0
       287    877.6273    289.1043 300.3509112 +22.7156663     580.9716     72.40763      1.247     2.39     4.383072     20.44924     83.53152         9     0.813     0.671 -26.97   0
       288     10.2212    287.6843 300.0814818 +22.4553435     728.6663     72.42611      2.363     6.42      5.23585     20.44924      60.6514        12     1.974     0.587 -31.20  16
       289    759.7482    286.8272 300.3149125 +22.6797161     332.9787     72.49998      1.153     2.41     4.313451     20.44924     59.91943         6     0.720     0.553  45.52   0
       290    728.1697    286.3670 300.3052234 +22.6701272     334.9754     72.49998      1.308     3.37     4.309882     20.44924      48.1389         5     1.108     0.297 -55.29   0
       291    514.1873    275.6956 300.2420543 +22.6029648     1317.986     72.40763      1.400     2.39     4.357322     20.44924     178.2344        17     1.037     0.887  35.38   0
       292    321.2039    276.0504 300.1818998 +22.5452383     346.0756     72.48151      1.377     4.05     4.779124     20.44924     44.98084         6     0.950     0.494  49.75   0
       293     86.6912    275.7927 300.1090918 +22.4748618     356.0184     72.38914      1.711     4.41     4.524739     20.44924     33.26223         5     1.119     0.494 -32.82   0
       294    254.1414    271.1837 300.1626264 +22.5237400     365.3427     72.44458      1.616     4.35     4.558772     20.44924     33.06656         6     0.943     0.570 -25.17   0
       295    759.0681    267.5901 300.3209418 +22.6739822     2198.052     72.48151      1.318     2.28     4.306464     20.44924     356.3144        22     1.159     0.946  28.98   0
       296   1020.3682    262.0144 300.4042113 +22.7506021     3251.637     70.95148      1.479     2.89     4.023325     20.44924     340.8926        27     1.200     1.076  85.71  16
       297    566.6534    260.9534 300.2631683 +22.6144463     245.0871     72.51843      1.193     2.50     4.361383     20.44924     46.80045         5     0.744     0.589   8.56   0
       298    467.1915    251.6404 300.2352322 +22.5819732     670.7678     72.48151      1.211     2.16     4.470603     20.44924     86.81356         7     0.701     0.606  -5.16   0
       299    173.2091    245.6954 300.1457377 +22.4921603     570.3451     72.38914      1.232     2.57     4.532485     20.44924     81.03036         9     0.930     0.610 -40.10   0
       300    142.2041    245.4345 300.1361872 +22.4827905     1440.732     72.48151      1.641     3.46     4.538667     20.44924     127.8818        20     1.179     1.086 -46.84   0
       301    544.8663    242.8025 300.2622740 +22.6027038     1060.914     72.48151      0.566     0.87     4.369933     20.44924     752.7986         5     0.457     0.331  75.19   0
       302    879.8290    239.2561 300.3677694 +22.7019908     418.4048     72.48151      1.328     3.52     4.343941     20.44924     44.84998         5     1.024     0.349  43.61   0
       303    226.4091    237.3252 300.1649881 +22.5057042     594.4563     72.46305      1.322     2.69     4.607412     20.44924     67.20712         9     0.803     0.753   0.75   0
       304    902.2325    231.2913 300.3773375 +22.7064065     379.4119     72.42611      1.119     3.94     4.361585     20.44924     53.82889         9     1.093     0.656  57.53   0
       305    830.7181    228.9415 300.3558071 +22.6843226     682.3834     72.55533      1.283     3.01     4.295536     20.44924     104.5349        11     0.991     0.766  82.53   0
       306    421.0288    228.6828 300.2283154 +22.5615461      257.464     72.49998      1.194     3.10     4.599573     20.44924     58.95215         7     0.860     0.568 -28.97   0
       307    921.7559    222.0379 300.3864260 +22.7095890     365.8116     72.55533      1.455     3.20     4.389627     20.44924     62.30686         5     0.819     0.492  19.78   0
       308    928.8317    218.0545 300.3899244 +22.7105612     1988.027     72.49998      1.387     2.70     4.401574     20.44924     265.6215        25     1.177     1.019  79.11   0
       309    347.4181    215.2202 300.2097838 +22.5356218     2228.169     72.48151      1.319     2.37     4.853663     20.44924     276.4816        22     1.103     0.948  47.92   0
       310    425.4095    210.5608 300.2355560 +22.5576521     1084.362     72.48151      1.419     2.83     4.528485     20.44924     121.0286        18     1.074     1.019 -10.57   0
       311    827.3890    209.6944 300.3610125 +22.6777912     524.1373     72.42611      1.195     2.42     4.294954     20.44924     92.39731         9     0.849     0.706 -67.66   0
       312    176.7562    210.2101 300.1583492 +22.4830342     434.8042     72.48151      1.764     3.93     4.632343     20.44924     49.78842         7     1.103     0.673  54.16   0
       313     23.4613    203.4294 300.1129219 +22.4351298     354.3844     72.49998      1.590     5.47     5.093763     20.44924     34.91922         6     0.997     0.847  57.85   0
       314    242.2363    202.5455 300.1811883 +22.5004598     765.8874     72.49998      1.346     2.85     4.800833     20.44924     102.3917        14     0.994     0.933  67.77   0
       315    360.2865    202.1144 300.2180368 +22.5357129     416.6541     72.61063      1.314     4.24     4.720035     20.44924     39.56956         7     0.753     0.679  65.75   0
       316    844.9070    199.1349 300.3698974 +22.6799987     463.2052      72.5922      1.165     2.77     4.306346     20.44924     83.01796        11     0.942     0.724 -89.11   0
       317    779.9815    199.4836 300.3495503 +22.6606623     1679.892     72.42611      1.292     2.15     4.294631     20.44924     279.9162        19     1.012     0.923  13.03   0
       318    263.8309    195.9950 300.1900263 +22.5050503     480.2772     72.46305      1.218     2.09     4.871941     20.44924     80.80879         8     0.760     0.644  42.82   0
       319    553.6526    191.9492 300.2815030 +22.5907211     303.8687     72.51843      1.178     2.33     4.440803     20.44924      54.7016         5     0.764     0.480 -33.60   0
       320    784.1004    191.0995 300.3535529 +22.6594846     746.5081     72.72112      1.315     2.90     4.297914     20.44924     90.31132        11     1.002     0.679  27.83   0
       321    704.5399    190.2287 300.3290476 +22.6354135     1261.467     72.49998      1.272     2.37     4.353762     20.44924     159.5427        19     1.142     0.867  72.49   0
       322    525.8270    186.8680 300.2744893 +22.5809262     262.1704     72.46305      0.988     2.17     4.432521     20.44924     60.23048         8     0.773     0.629 -47.00   0
       323    630.6817    181.8922 300.3087477 +22.6109002     975.9166     72.62906      1.310     2.72     4.443063     20.44924     131.7603        15     1.013     0.858  66.51   0
       324    912.0176    180.9198 300.3967259 +22.6948475     925.4545     72.48151      1.524     3.74     4.396603     20.44924     114.7589        14     1.104     0.973  63.79   0
       325    900.0872    181.5801 300.3927921 +22.6914667      1418.89     72.40763      1.421     2.58     4.375197     20.44924     210.3549        18     1.117     0.939 -49.43   0
       326    958.5710    179.9351 300.4115613 +22.7084968     259.5571     72.49998      1.189     4.40     4.491217     20.44924     37.29379         7     0.941     0.678  66.53   0
       327      2.0279    170.1670 300.1170514 +22.4191547     258.1173     60.28607      1.185     3.01     5.265257     20.44924     47.77908         7     0.839     0.664 -57.02  24
       328     52.5965    167.6377 300.1335775 +22.4335899     507.6797     72.51843      1.454     2.63       4.9475     20.44924     85.02324        10     0.980     0.713  28.47   0
       329    262.7598    164.0642 300.2000477 +22.4955578     710.1544     72.44458      1.248     3.42     4.932837     20.44924     96.32302        11     1.055     0.800 -74.05   0
       330    124.7609    158.8843 300.1588352 +22.4527098     2107.481     72.46305      1.446     2.79     4.664834     20.44924     271.8937        25     1.211     1.072  80.03   0
       331    947.5976    156.1896 300.4158399 +22.6983820      768.977     72.29666      1.462     2.92     4.485179     20.44924     81.19952        10     0.882     0.720   5.13   0
       332     74.3957    155.5535 300.1442674 +22.4366555     553.1007     72.46305      1.654     4.04     4.846001     20.44924     60.86918         9     1.060     0.858 -48.92   0
       333    282.0862    152.2351 300.2098922 +22.4979514     5555.739     72.46305      1.355     2.51     4.850534     20.44924     648.7706        32     1.155     1.081  66.36   0
       334    263.9238    153.0430 300.2039832 +22.4927409     368.6434     72.46305      1.431     3.39     4.879606     20.44924     48.59974         6     0.824     0.719 -56.77   0
       335     66.2300    146.7309 300.1445912 +22.4316744     1218.904     72.46305      1.440     2.75     4.923984     20.44924     143.7929        18     1.096     0.940  -0.54   0
       336    265.4057    143.1201 300.2076612 +22.4903346     526.7725     72.40763      1.243     2.39     4.804508     20.44924      84.8995         9     0.887     0.624 -35.08   0
       337    926.2117    133.7874 300.4164355 +22.6855375     3657.703     72.38914      1.422     2.80     4.435523     20.44924     470.7792        30     1.217     1.091 -50.95   0
       338    475.7826    128.9890 300.2776817 +22.5493022      611.015     72.44458      1.226     2.14     4.409026     20.44924     107.0325         8     0.771     0.632 -38.63   0
       339    228.9633    129.4606 300.2007603 +22.4754903     367.8684     72.49998      1.828     3.61     4.805004     20.44924     43.48691         5     0.792     0.592 -85.89   0
       340    399.9274    120.8798 300.2567087 +22.5242495     836.9769     72.61063      1.694     2.41     4.390072     20.44924     100.7112        10     0.905     0.672 -38.90   2
       341    165.9844    118.1370 300.1848562 +22.4533637      623.405     72.44458      1.447     3.55     4.667171     20.44924     76.87215        11     1.084     0.756 -76.57   0
       342    526.9693    116.2984 300.2977271 +22.5609856     1687.629     72.42611      1.314     2.43     4.519253     20.44924     221.5945        20     1.116     0.848  53.45   0
       343    454.7836    116.9348 300.2750553 +22.5395481     346.2072     72.46305      1.133     2.60     4.403962     20.44924     75.27065        10     0.870     0.713  -4.16   0
       344    588.5677    115.4481 300.3171790 +22.5791880     291.3029     72.51843      1.185     3.66     4.537728     20.44924     50.59871         6     0.918     0.419 -19.11   0
       345    351.3794    112.4927 300.2443263 +22.5072956     157.3868     72.40763      1.120     3.87     4.397767     20.44924     43.95482         6     1.295     0.452 -39.40   0
       346    270.5136    111.7566 300.2194176 +22.4828555     430.6477     72.46305      1.112     2.03     4.550421     20.44924     69.23788         5     0.676     0.471 -69.65   0
       347    815.6484    105.6010 300.3911081 +22.6443399     447.7334     72.48151      1.314     3.94     4.412972     20.44924     58.30584         8     0.920     0.630 -86.39   0
       348    961.5643    100.9213 300.4381155 +22.6866607     432.5797     72.42611      2.141     5.36     4.681263     20.44924     43.35006         8     1.068     0.759  66.78   0
       349    399.9899    101.5422 300.2629972 +22.5187114     212.7534     72.44458      1.149     4.25     4.387046     20.44924     27.20567         5     0.784     0.657  88.28   0
       350    301.0243     96.0225 300.2340052 +22.4874769     5965.952     72.44458      1.407     2.66     4.344692     20.44924     704.5499        35     1.248     1.092  63.29   0
       351    807.4155     96.6444 300.3914460 +22.6392996     454.7227     72.49998      1.683     3.58     4.435552     20.44924     56.87344         7     1.114     0.559  66.62   0
       352    152.0578     95.7653 300.1877805 +22.4427645     616.0626     72.49998      1.246     2.99     4.766194     20.44924     96.12771        11     1.002     0.740  83.53   0
       353    272.5886     90.2477 300.2270353 +22.4772980     183.0455     72.49998      1.205     2.84     4.390695     20.44924     41.70799         5     0.725     0.445 -68.51   0
       354    316.4724     87.4361 300.2415925 +22.4896382     449.8052     72.44458      1.651     3.16     4.332372     20.44924     46.05717         8     0.798     0.784  82.77   0
       355    776.8100     87.5060 300.3848710 +22.6275105     120.9655     72.42611      1.226     4.27     4.538218     20.44924      27.5948         6     1.057     0.492   5.45   0
       356     62.9862     86.6490 300.1630609 +22.4134498     322.7922     72.51843      1.118     2.47     5.103119     20.44924      51.0781         7     0.710     0.654   3.11   0
       357    547.1584     81.4756 300.3153005 +22.5570216     6098.276     72.46305      1.319     2.32     4.522252     20.44924     901.5663        31     1.141     1.027  72.62   0
       358    432.7798     81.0788 300.2798323 +22.5226524     562.7558     72.48151      1.271     3.10     4.365485     20.44924     89.00163        11     1.061     0.649  80.43   0
       359    604.1702     76.0767 300.3348004 +22.5725409     401.7099     72.46305      1.242     2.82     4.618138     20.44924     50.94968         7     0.803     0.656  27.67   0
       360    799.6593     71.5422 300.3971663 +22.6297579     877.2825     72.55533      1.590     4.56     4.620138     20.44924     93.75108        17     1.425     0.828 -64.07   0
       361    892.1670     70.2391 300.4264233 +22.6570676     374.7961     72.51843      1.221     2.79     4.671736     20.44924      71.5002         8     0.894     0.587 -31.16   0
       362    239.9961     65.0787 300.2250604 +22.4603016      493.583     72.38914      1.444     4.73     4.363636     20.44924     52.47556         9     0.969     0.744  25.39   0
       363    598.6766     63.4818 300.3371724 +22.5672748     534.8317      72.5922      1.744     4.09     4.642268     20.44924     56.80028        11     1.136     0.698  83.47   0
       364    675.5233     61.5415 300.3617328 +22.5897239     6271.889     72.51843      1.348     2.36     4.686707     20.44924     853.7149        33     1.191     1.026  86.25   0
       365    450.4369     60.5539 300.2919792 +22.5220418     1485.329     72.51843      1.306     2.33     4.331997     20.44924     204.6641        18     1.004     0.900  85.41   0
       366    716.5676     58.9651 300.3753532 +22.6012697     910.7476     72.51843      1.365     2.98     4.736619     20.44924     125.5884        14     1.065     0.820   3.57   0
       367    732.4306     55.0346 300.3815691 +22.6048876     609.7839     72.49998      1.361     3.82     4.772073     20.44924     76.68672        10     1.024     0.857  14.41   0
       368   1002.4780     52.7488 300.4664918 +22.6850400     525.7572     72.48151      1.494     3.10     5.148258     20.44924     71.81277        12     1.088     0.726  26.35   0
       369    199.2378     53.1331 300.2162621 +22.4446572     719.8436     72.46305      1.414     2.82     4.635598     20.44924     89.47556        10     0.970     0.663  -9.84   0
       370     46.4501     53.3392 300.1687205 +22.3989277      328.701     72.53688      1.614     4.68     5.021822     20.44924     45.96168         8     1.188     0.524 -20.86   0
       371    770.9274     50.5864 300.3950054 +22.6151309     508.9576     72.49998      1.171     2.61       4.7836     20.44924     88.69653         9     0.963     0.610 -26.45   0
       372    719.7265     46.3586 300.3804233 +22.5985897     2617.572     72.46305      1.302     2.34      4.80594     20.44924     387.2768        24     1.107     0.980 -81.82   0
       373    360.4282     47.0138 300.2683654 +22.4911907     497.0268     72.48151      1.627     3.12     4.294739     20.44924      66.1721         8     0.937     0.633  74.81   0
       374    734.6710     45.1033 300.3854860 +22.6027019      853.139      72.5922      1.606     4.63     4.829959     20.44924     89.69485        14     1.324     0.745  49.82   0
       375     13.2885     40.5989 300.1625494 +22.3853293     775.2448     72.38914      1.528     3.31     4.831698     20.44924     85.99917        15     1.120     0.882  61.00   0
       376    806.3599     37.9166 300.4101536 +22.6220908      1433.35     72.44458      1.402     2.74      4.86272     20.44924     181.3115        19     1.045     0.996 -84.84   0
       377    966.2613     36.8274 300.4603568 +22.6696234     250.8597     72.48151      1.154     3.33     5.177418     20.44924     40.53519         6     0.742     0.622  14.67   0
       378    122.6979     30.2834 300.1998805 +22.4151577     625.0625     72.64748      1.665     4.37     5.343023     20.44924     77.60927        12     1.316     0.802  87.78   0
       379    744.1223     31.2181 300.3929309 +22.6015371     822.6382     72.48151      1.395     2.75     4.910282     20.44924     102.6916         9     0.821     0.736  79.32   0
       380    194.7207   1022.0191 299.9002062 +22.7213306     694.7133     64.94492      2.475     3.30     75.28512     20.44924     50.57026         5     0.801     0.490 -31.81  17
       381    835.7860     27.3021 300.4227649 +22.6278433     387.6643     72.37066      1.297     3.80     4.944234     20.44924     60.32687         6     0.727     0.677   0.02   0
       382    226.8537   1006.6260 299.9152014 +22.7265658     2407.677     72.49998      7.762    13.74     65.50117     20.44924     59.36893        55     3.196     1.644 -54.46  19
       383    793.2325     19.2082 300.4121259 +22.6127804     619.5599     72.48151      1.302     2.69     4.996402     20.44924     76.71217        11     0.925     0.732   4.68   0
       384     17.6679     19.1604 300.1708569 +22.3804855      276.337     72.44458      1.536     2.14     4.856045     20.44924     45.10483         5     0.717     0.431 -70.69   0
       385    276.6186     16.9278 300.2520517 +22.4574392     206.5309     72.48151      1.047     4.37     4.064925     20.44924      31.6229         5     0.834     0.652   9.61   0
       386    647.6282     15.8878 300.3678414 +22.5682446     249.1535     72.48151      1.266     2.76      4.86729     20.44924     51.43409         6     0.744     0.571 -46.03   0
       387    453.5804     28.6285 300.3033045 +22.5138067     869.0253     72.48151      1.428     2.72     4.266037     20.44924     119.1876        16     0.976     0.953  43.41   0
       388    283.9007   1015.3149 299.9301067 +22.7461830     1307.559     72.64748      2.370     5.25     67.90889     20.44924     68.05829        18     1.435     0.948  76.71  18
       389    540.3116   1015.7702 300.0097169 +22.8232682     379.1711     72.46305      2.017     5.34     2.365188     20.44924     30.86015         6     1.218     0.661  55.95  16
       390    409.3158   1012.9891 299.9698635 +22.7831608     519.7131     72.44458      2.084     5.09     3.493376     20.44924     34.05206         9     1.263     0.580  65.06   0
       391    271.8675   1000.9741 299.9310323 +22.7384592      4831.77     72.46305      9.347    30.84     58.95457     20.44924      101.211       438     7.837     4.678 -53.81  19
       392    600.7281   1006.4579 300.0315535 +22.8387231     2262.363     72.51843      1.843     4.12     2.400752     20.44924      145.739        30     1.344     1.330 -51.63   0
       393    585.6602    963.1417 300.0409574 +22.8217750     552.4911     72.55533      2.202     5.68     2.687789     20.44924     32.07801         8     1.350     0.672  76.65   0
       394    687.1378   1001.6767 300.0600153 +22.8632720     8445.951     72.53688      1.919     4.23     2.476419     20.44924     485.7815        47     1.519     1.427  44.49   3
