#   1 NUMBER                 Running object number                                     
#   2 X_IMAGE                Object position along x                                    [pixel]
#   3 Y_IMAGE                Object position along y                                    [pixel]
#   4 ALPHA_J2000            Right ascension of barycenter (J2000)                      [deg]
#   5 DELTA_J2000            Declination of barycenter (J2000)                          [deg]
#   6 FLUX_APER              Flux vector within fixed circular aperture(s)              [count]
#   7 FLUXERR_APER           RMS error vector for aperture flux(es)                     [count]
#   8 FLUX_RADIUS            Fraction-of-light radii                                    [pixel]
#   9 FWHM_IMAGE             FWHM assuming a gaussian core                              [pixel]
#  10 BACKGROUND             Background at centroid position                            [count]
#  11 THRESHOLD              Detection threshold above background                       [count]
#  12 FLUX_MAX               Peak flux above background                                 [count]
#  13 ISOAREA_IMAGE          Isophotal area above Analysis threshold                    [pixel**2]
#  14 A_IMAGE                Profile RMS along major axis                               [pixel]
#  15 B_IMAGE                Profile RMS along minor axis                               [pixel]
#  16 THETA_IMAGE            Position angle (CCW/x)                                     [deg]
#  17 FLAGS                  Extraction flags                                          
         1    350.0424     15.5291 300.2740360 +22.4749439     1109.511     72.47758      1.410     2.47     4.759704     20.45855     161.5889        17     1.185     0.859  87.92   0
         2    832.9656     10.8422 300.4258887 +22.6182292     642.8844     72.56992      1.337     3.25     4.421044     20.45855     68.15444        10     0.954     0.666  58.89   0
         3    756.7803     10.7803 300.4021714 +22.5954037     387.3785     72.51453      1.324     3.14     4.389315     20.45855     59.76255         9     0.864     0.755  87.46   0
         4    853.3374      7.1874 300.4334216 +22.6232757     2192.208     72.49606      1.396     2.51      4.46303     20.45855     260.0659        22     1.083     0.997 -48.40  16
         5    900.7949      5.4732 300.4487689 +22.6369873     83.73791      72.4591      0.901     2.91     4.552139     20.45855     39.47269         5     0.727     0.453 -21.69   0
         6    558.7700      5.2570 300.3423028 +22.5345205     466.3136     72.31107      1.262     2.97      4.02019     20.45855      68.2906         8     0.871     0.659  38.58  16
         7    236.6647      2.4335 300.2430304 +22.4372045     943.4492     62.40899      1.406     2.86     4.917854     20.45855      110.503        15     0.972     0.956  38.32  24
         8    796.9664   1006.9638 300.0912003 +22.8937198     626.6559     72.56992      2.125     6.83     2.458882     20.45855     40.64345        13     1.348     1.212 -48.72   0
         9    296.0908   1020.0540 299.9310775 +22.7471378     1242.722     71.75326      4.787     8.72     61.50698     20.45855     44.83167        22     2.082     1.020 -82.58  27
        10    292.4205   1020.1836 299.9298944 +22.7460728     1258.455     71.47271      2.434     5.64     65.48427     20.45855     76.07747        22     1.546     1.136  87.65  19
        11    262.5699   1021.2230 299.9202783 +22.7374062     1739.358     68.19299      7.717    22.84     73.10101     20.45855      47.5532        92     5.771     2.509  -2.61  27
        12    308.7106   1016.3596 299.9362024 +22.7498682     2232.639     72.51453      4.557    21.39     46.69241     20.45855     56.31573       103     4.468     2.844 -43.50  19
        13    262.6830   1006.2246 299.9251937 +22.7331399     3805.945     72.47758      7.220    25.26     62.91727     20.45855     83.03925       236     4.686     4.459  23.33  19
        14    301.1169    993.7274 299.9412058 +22.7410982     7712.384     72.64371      8.375    26.13     42.12137     20.45855     173.2637       624     8.583     4.987  61.71  19
        15    236.9695   1010.5383 299.9157990 +22.7266543     1711.678       72.533      5.010    12.94      70.2568     20.45855     53.92896        32     2.804     1.661 -59.07  19
        16    139.0162    936.6554 299.9094014 +22.6760534     3614.412      72.4591     15.502    51.21     15.50551     20.45855     79.59539       816    10.607     6.862 -35.25   3
        17    142.4724   1015.7221 299.8847528 +22.6997570     5477.656     72.62527     13.689    60.00     50.12682     20.45855     108.1864      1201    14.654     7.398  22.95  27
        18    866.0923    966.7307 300.1258293 +22.9029043     263.1389     72.64371      1.370     3.49     2.454165     20.45855     35.02146         5     1.039     0.339  43.58   0
        19    623.1368    964.0735 300.0510238 +22.8292552      1662.44     72.55147      1.860     4.35       2.3532     20.45855     113.8917        25     1.296     1.244   3.20   0
        20    282.5270   1004.8636 299.9318041 +22.7387090     4985.301     72.55147      8.704    26.13     59.20886     20.45855     95.62681       402     6.444     5.092 -63.98  19
        21    988.9635    990.1605 300.1565053 +22.9464806     784.5045     72.58838      2.131     8.00     2.523072     20.45855     39.26746        20     1.460     1.224 -42.74   0
        22    516.8679    960.5841 300.0190864 +22.7963623     1095.603     72.51453      1.681     3.89     2.407716     20.45855     88.12641        21     1.216     1.134 -27.96   0
        23    447.5870    958.6453 299.9981640 +22.7750111     6510.434     72.51453      1.831     3.80     2.728661     20.45855     439.2971        47     1.471     1.409   0.73   0
        24    229.5170    995.1672 299.9184843 +22.7200092     1643.135     72.47758      4.219    15.48     60.43391     20.45855     48.10841        50     3.064     2.175  86.05   2
        25     17.7750    978.8015 299.8580409 +22.6517139     576.3633      72.4591      2.049     5.18    0.9485977     20.45855     43.15256         8     1.407     0.579  67.30   0
        26    993.7754    937.3433 300.1751904 +22.9327542     2167.901     72.51453      2.064     4.84     2.528998     20.45855     105.2835        36     1.501     1.467 -38.20   0
        27    480.2264    945.7928 300.0124983 +22.7811210     562.8206     72.51453      1.835     5.49     2.451034     20.45855     41.42623        11     0.966     0.880  23.42   0
        28    206.1675    974.3860 299.9179898 +22.7070386     1164.948     72.51453      4.750     9.43     44.88136     20.45855        57.16        16     1.636     1.515 -12.36   2
        29    644.2449    934.3723 300.0672574 +22.8270649     318.2503     72.55147      1.373     4.43     2.383478     20.45855     51.16412         8     1.233     0.626  88.14   0
        30    561.2736    995.3413 300.0215959 +22.8196621     462.6003     72.55147      2.014     4.53     2.362252     20.45855     38.38712         6     1.191     0.489  48.23   0
        31    782.7662    926.0964 300.1130872 +22.8662451     761.9705     72.51453      1.880     5.90     2.492393     20.45855     49.82039        12     1.284     0.763  38.74   0
        32    595.2450    921.5056 300.0561897 +22.8086697     396.2581       72.533      1.493     5.80     2.357698     20.45855     44.05953        10     1.191     0.938 -51.46   0
        33    817.4165    920.5813 300.1256760 +22.8750547     1042.401     72.49606      1.898     6.17     2.463241     20.45855     62.62964        18     1.267     1.045   1.76   0
        34    973.3696    918.6337 300.1749147 +22.9212622     342.9965       72.533      1.536     4.28     2.560765     20.45855     46.91581         5     1.083     0.483 -89.29   0
        35    839.7339    914.1603 300.1347182 +22.8799044     11305.31     72.47758      1.816     3.83     2.500523     20.45855     676.4822        55     1.482     1.442 -59.61   0
        36     27.6938    917.3030 299.8811243 +22.6370677     496.0814     72.69901      1.274     4.20     3.057476     20.45855     48.40356         8     0.937     0.615  77.75   0
        37    885.3712    914.2568 300.1489083 +22.8936184     423.6902     72.51453      1.522     6.19     2.505571     20.45855     39.53104        12     1.126     1.033  12.06   0
        38    714.6215    973.4274 300.0764645 +22.8593895     6923.632     72.51453      1.898     4.01     2.466874     20.45855     382.2459        46     1.473     1.444  14.41   0
        39    151.1974    905.5228 299.9233111 +22.6707860     891.6586     72.42213      3.597     7.47     10.75338     20.45855     50.37974        17     1.763     0.887  44.81   0
        40    891.2784    902.5963 300.1545423 +22.8920413     504.5431     72.42213      1.962     4.20       2.5332     20.45855     31.59823         7     1.069     0.470   8.39   0
        41    544.6914    902.0286 300.0467916 +22.7879106     488.6177     72.47758      1.772     5.24     2.353129     20.45855     37.63695         9     1.100     0.705  28.09   0
        42    848.2213    896.2242 300.1431970 +22.8772994     1425.083     72.49606      1.895     4.54     2.578257     20.45855     99.71755        22     1.355     1.147  57.62   0
        43    563.9568    894.2521 300.0553162 +22.7914600     443.0998     72.55147      1.808     5.68     2.365803     20.45855     35.05037         6     1.234     0.736  -8.67   0
        44    700.5067    893.3036 300.0981337 +22.8321559      453.529     72.69901      1.677     4.92     2.493263     20.45855     51.15933         7     1.030     0.665  -4.17   0
        45    886.5773    889.6350 300.1572930 +22.8869093     997.8304       72.533      2.086     6.07     2.587209     20.45855     61.50949        19     1.376     1.035  -7.47   0
        46    224.9429    889.9865 299.9512764 +22.6884762     556.4425     72.49606      3.054     4.95     9.042431     20.45855     34.94153         5     1.163     0.596 -12.33   0
        47    995.4155    887.1975 300.1920139 +22.9188421     381.1015     72.36662      2.040     6.16     2.897004     20.45855     29.52499         7     1.290     0.826  64.86   0
        48    225.1017   1018.0547 299.9096654 +22.7252448     1177.924     72.60683      2.630     9.25     76.84121     20.45855     48.05234        20     1.573     1.517 -34.12  19
        49    935.1342    881.0438 300.1752219 +22.8990015     538.6418     72.49606      1.777     4.88     2.506558     20.45855     44.74507         6     0.932     0.757  26.90   0
        50    786.1523    880.0821 300.1291090 +22.8540494     792.3752       72.533      1.631     4.23     2.485752     20.45855     74.51466        11     1.054     0.759   2.91   0
        51    235.3706   1018.2863 299.9127811 +22.7283954     3162.119     72.51453      5.684    23.07     75.32096     20.45855     75.80709       173     4.695     3.542  26.41  27
        52    797.5984    877.4144 300.1335424 +22.8567163     667.4147     72.34811      1.907     6.49     2.459188     20.45855      44.5233        14     1.236     1.011 -29.68   0
        53    498.7126    876.2407 300.0408720 +22.7667129     4202.815     72.49606      1.676     3.46     2.622995     20.45855     335.9517        37     1.347     1.253  61.10   0
        54    277.2492    864.4556 299.9758351 +22.6968584     383.9137     72.55147      1.489     3.83     3.345762     20.45855     33.76804         6     1.208     0.349  60.70   0
        55    223.8724    862.1436 299.9599981 +22.6801698     872.4844       72.533      1.721     4.88     4.344145     20.45855     73.89249        14     1.264     0.826 -69.38   0
        56    594.9680    967.6441 300.0410941 +22.8218269     359.2641     72.56992      2.028     4.30     2.358427     20.45855     26.90088         6     1.130     0.467  72.60   0
        57    132.8678    860.5062 299.9322565 +22.6523740     300.0476     72.66215      1.561     4.86     3.822454     20.45855     40.41563         7     1.100     0.607 -41.46   0
        58    201.1093    859.0050 299.9539454 +22.6724351     1641.769     72.42213      1.687     3.59     4.283344     20.45855     162.3492        25     1.321     1.161  15.67   0
        59     76.6508    848.8527 299.9185855 +22.6321500     293.2624     72.55147      1.418     3.43     3.040527     20.45855     37.42023         5     0.808     0.422  71.17   0
        60    503.9161    846.2781 300.0522346 +22.7596762     369.4245     72.62527      1.858     3.58     2.648253     20.45855       43.354         6     1.076     0.770 -35.45   0
        61    810.8644    840.6259 300.1496393 +22.8501307     685.9722     72.49606      1.601     4.53     2.621919     20.45855      59.7384        14     1.158     0.943 -41.94   0
        62    233.2132    840.8045 299.9698395 +22.6768543      412.264     72.36662      1.597     4.12     3.806508     20.45855       47.121         6     1.088     0.664  -2.06   0
        63    557.7759    838.5754 300.0714989 +22.7736263     257.8452     72.47758      1.325     4.41     2.471157     20.45855     23.41849         5     1.176     0.471  57.54   0
        64    678.6991    834.4092 300.1104960 +22.8087068     4799.829     72.40363      1.637     3.14      2.50096     20.45855     414.4843        37     1.322     1.244  47.06   0
        65    168.0117    835.2335 299.9513914 +22.6556800     477.2176     72.49606      1.798     5.42     3.801561     20.45855     36.11728         9     1.168     0.709 -15.53   0
        66    481.0517    831.4948 300.0499280 +22.7485727     640.8434     72.58838      1.744     4.67     2.738705     20.45855     54.92946        13     1.104     0.960  43.92   0
        67    228.8309    828.1363 299.9725965 +22.6719052     1445.591       72.533      1.854     4.31     3.603879     20.45855     111.2939        25     1.362     1.244  -6.98   0
        68    699.4774    826.7759 300.1194482 +22.8127477     837.6562       72.533      1.659     3.79     2.563874     20.45855     74.54012        15     1.158     0.921  36.15   0
        69    248.3408    825.8261 299.9794108 +22.6770997     414.7255     72.51453      1.356     4.15     3.414115     20.45855     60.94616        10     0.977     0.800 -47.56   0
        70    854.7416    814.1868 300.1719079 +22.8556945     4249.446     72.47758      1.679     3.35      2.92401     20.45855      319.635        38     1.413     1.254  50.22   0
        71    616.0674    817.6739 300.0964384 +22.7851147     256.4988     72.58838      1.252     2.75     2.535311     20.45855     44.91252         5     0.852     0.456   8.53   0
        72    263.3192    807.9018 299.9898935 +22.6764548     388.1691     72.64371      1.451     5.44     3.138459     20.45855     61.16893         9     1.547     0.540  41.29   0
        73    571.8038    806.7768 300.0862039 +22.7687078     583.9128     72.47758      1.399     3.32     2.571176     20.45855     69.00964        12     0.940     0.924  52.96   0
        74    218.1867    804.5954 299.9769423 +22.6619575     900.7493     72.38512      1.644     3.58     3.165039     20.45855     101.6579        19     1.233     0.988 -10.74   0
        75    633.1151    799.8707 300.1075337 +22.7851176     488.1316     72.62527      1.406     3.79     2.584924     20.45855     50.44974         9     1.069     0.621  42.49   0
        76    367.8427    796.6818 300.0260354 +22.7046093     53357.05     72.47758      1.609     3.15     3.058316     20.45855     4874.436        94     1.439     1.417  20.95   0
        77    625.7755    795.8102 300.1065689 +22.7817503     1645.646     72.51453      1.520     3.31     2.609082     20.45855     175.6787        23     1.149     1.089  22.01   0
        78    296.2332    794.8886 300.0043547 +22.6826018     427.6439     72.47758      1.337     4.75     3.070664     20.45855     49.99295         9     1.197     0.538  61.25   0
        79    341.8202    793.5691 300.0189560 +22.6959061     264.4258     72.51453      1.304     4.57     3.059438     20.45855     24.83753         5     0.832     0.712 -52.07   0
        80    654.7270    791.7507 300.1169020 +22.7892690     919.2812     72.51453      1.587     3.12     2.617835     20.45855     102.7675        16     1.147     0.874  87.51   0
        81     20.8398    791.4059 299.9199316 +22.5989180     877.5513     72.55147      2.366     6.85     2.711963     20.45855     54.99025        20     1.416     1.135  52.83   0
        82     54.2667    791.6583 299.9302287 +22.6090289     709.2544     72.55147      1.707     4.26     2.808663     20.45855     73.73853        13     1.260     0.846 -32.85   0
        83    665.4695    790.1902 300.1207540 +22.7920431     476.3937     72.49606      1.389     3.79     2.624147     20.45855     63.75484        10     0.975     0.786  15.04   0
        84    986.1786    787.2555 300.2216339 +22.8873612     416.4232       72.533      1.904     3.62     3.187594     20.45855     51.47015         6     1.190     0.725   2.21   0
        85    770.9040    786.4019 300.1548212 +22.8225756     439.6855     72.42213      1.274     3.21     2.818058     20.45855     55.29696        10     0.937     0.751  68.50   0
        86    417.5597    773.9434 300.0488886 +22.7130046     31247.23     72.49606      1.564     2.96     3.235844     20.45855     3358.617        79     1.394     1.373  30.17   0
        87    808.8355    776.6293 300.1698151 +22.8311429     823.9724       72.533      1.626     5.13     2.957072     20.45855      75.0989        16     1.227     0.985  24.89   0
        88    431.8482    774.4131 300.0531801 +22.7174270     1958.675       72.533      1.486     2.97     3.164637     20.45855     208.1241        21     1.096     1.031 -23.80   0
        89    940.7158    769.8126 300.2131310 +22.8687224     2794.946      72.4591      1.716     3.37     3.243544     20.45855      213.205        32     1.296     1.268  41.85   0
        90    970.1771    768.9657 300.2225910 +22.8773100     325.5081       72.533      1.621     3.77      3.24174     20.45855     28.93045         5     0.803     0.507  35.13   0
        91    428.5194    768.4579 300.0540805 +22.7147191     655.9757     72.55147      1.892     3.74     3.226016     20.45855     51.99283        12     1.059     0.956  86.10   0
        92    698.5730    765.9454 300.1389437 +22.7950100     899.2622     72.51453      1.543     3.17      2.78017     20.45855      107.268        14     1.100     0.814  23.10   0
        93    300.1196    765.7881 300.0150226 +22.6754196     692.4344     72.49606      1.486     3.45     3.050841     20.45855     75.06081        16     1.133     0.919  -3.45   0
        94    545.5699    760.8790 300.0929605 +22.7476625      892.348     72.51453      1.568     3.79     2.905721     20.45855     94.36642        14     1.019     0.937  55.02   0
        95    104.8921    761.2057 299.9558494 +22.6154982     516.8648     72.42213      2.149     5.09     3.049415     20.45855     38.08751         8     1.171     0.626 -37.79   0
        96    946.6424    757.6467 300.2189335 +22.8670035      602.138     72.55147      1.836     4.68     3.279327     20.45855     45.70245        10     1.174     0.620  54.83   0
        97    447.7929    756.8297 300.0638553 +22.7171651     351.2182     72.51453      1.222     4.35     3.216578     20.45855     38.36903         6     0.947     0.568  22.10   0
        98    491.4517    755.7850 300.0777769 +22.7299644     230.9325     72.51453      1.175     3.17     3.043567     20.45855     53.27416         7     0.932     0.490  83.83   0
        99    700.0496    754.9610 300.1429741 +22.7922986     125.6253     72.51453      1.022     3.72     2.832747     20.45855     32.55314         5     0.651     0.610   2.14   0
       100    133.6569    755.0132 299.9667969 +22.6223586     451.1916     72.49606      1.315     2.39     3.094989     20.45855     56.96519         7     0.727     0.626  74.13   0
       101    924.5723    751.8926 300.2139242 +22.8587348      330.819      72.4591      1.409     4.75     3.298687     20.45855     41.52997         7     1.031     0.619 -38.62   0
       102    297.6546    750.0242 300.0193802 +22.6701570     665.1731       72.533      1.615     3.57     3.039227     20.45855     77.62964        15     1.116     1.011   6.32   0
       103     15.2116    742.0495 299.9342266 +22.5830761     354.1153       72.533      1.693     3.88      2.64733     20.45855     29.89556         5     0.832     0.517 -40.37   0
       104    620.6352    740.2722 300.1230227 +22.7642633     555.0252     72.51453      2.127     5.33     2.907372     20.45855     50.81382        12     1.205     0.878 -10.11   0
       105    590.5310    739.1094 300.1140298 +22.7548999     707.8732     72.66215      1.559     3.68     2.963903     20.45855     68.45959        10     0.937     0.750 -10.13   0
       106    500.3857    737.7512 300.0864182 +22.7274684      384.848       72.533      1.635     3.94     3.172568     20.45855     45.70251         5     1.079     0.411 -74.87   0
       107   1007.0831    735.2196 300.2450684 +22.8786746     4444.573      72.4591      1.706     3.51     3.325492     20.45855     325.5735        40     1.377     1.323  18.42   0
       108    612.6308    736.2564 300.1218362 +22.7607095     1472.256       72.533      1.484     3.12     2.931021     20.45855     143.1344        19     1.155     0.976   0.44   0
       109    532.5112    734.7288 300.0973967 +22.7362383     210.9433     72.68058      1.212     5.83     3.125076     20.45855     43.62288         7     1.072     0.891 -39.91   0
       110    694.0427    731.5157 300.1487243 +22.7837645     284.6906     72.47758      1.350     4.12     2.931305     20.45855     42.29895         6     0.980     0.496  -4.20   0
       111    995.5494    726.6371 300.2442616 +22.8727517      1684.34       72.533      1.755     4.12      3.33612     20.45855     118.8071        22     1.240     1.144  37.87   0
       112    358.4952    720.4082 300.0479211 +22.6799176     920.3198     72.40363      1.606     3.34     3.214886     20.45855     94.71405        17     1.187     0.922  23.16   0
       113    822.1544    717.8680 300.1930656 +22.8182578     2614.406     72.49606      1.647     3.21      3.21801     20.45855     254.1821        31     1.530     1.085   6.00   0
       114     44.8437    708.2931 299.9543972 +22.5822939     777.8069     72.51453      1.616     3.16       2.8478     20.45855       84.031        13     1.037     0.821  -0.86   0
       115    207.2993    704.1467 300.0062078 +22.6298750     636.5131     72.60683      1.742     5.15     3.101871     20.45855     69.20754        13     1.433     0.951 -51.05   0
       116    904.0189    703.9467 300.2231018 +22.8387986     640.9698     72.49606      1.626     3.21     3.317657     20.45855     62.99484         9     0.814     0.751  23.10   0
       117    486.3662    703.3329 300.0932423 +22.7133826     280.8182     72.51453      1.600     6.41     3.392309     20.45855     27.27892         7     1.276     0.904  82.84   0
       118    940.3606    694.8383 300.2373902 +22.8470739     146769.8     72.58838      1.621     3.18     3.352245     20.45855     12619.69       166     1.535     1.512  71.55   0
       119    702.3448    698.7596 300.1619556 +22.7768470     389.0362     72.49606      1.405     4.15     3.056221     20.45855     43.53737         6     0.745     0.659  42.52   0
       120    792.8658    695.2941 300.1912770 +22.8029925     781.0065     72.64371      1.455     2.83     3.173299     20.45855     79.71053        11     0.913     0.782  33.14   0
       121    104.2758    694.1927 299.9774362 +22.5960934     255.8587     72.44061      1.379     4.31     3.360259     20.45855     30.42348         5     0.859     0.617  47.14   0
       122    973.1034    687.7076 300.2499156 +22.8548377     550.6853     72.69901      1.608     5.45     3.363875     20.45855     46.33986        10     0.955     0.876 -37.20   0
       123    626.6106    683.6210 300.1432944 +22.7497885     1608.686     72.49606      1.394     2.66     3.143462     20.45855     199.0004        18     1.022     0.966 -42.81   0
       124    807.8564    680.9996 300.2005927 +22.8033802     9461.828     72.44061      1.488     2.80      3.18938     20.45855     960.0426        45     1.265     1.212  57.39   0
       125    309.3038    676.0428 300.0470439 +22.6524248     4887.512       72.533      1.502     2.88     3.162978     20.45855      558.925        37     1.248     1.193  31.89   0
       126     23.1032    674.4147 299.9586548 +22.5660505     1796.073     72.42213      2.043     3.55     2.634391     20.45855      153.378        30     1.414     1.291 -54.92   0
       127    391.2841    673.9839 300.0732036 +22.6764325     1063.924     72.47758      1.434     3.65     3.543865     20.45855     126.9412        20     1.252     1.004  70.32   0
       128    267.2627    671.7524 300.0353695 +22.6385774     560.8417       72.533      1.611     3.38     3.028764     20.45855     62.33574        10     1.073     0.767 -78.80   0
       129    599.9080    669.7449 300.1394910 +22.7377959     775.5706     72.56992      1.333     3.16     3.267482     20.45855     82.28896        12     1.005     0.773 -34.54   0
       130    591.2813    661.8165 300.1393820 +22.7329320     3191.282     72.49606      1.404     2.58     3.393261     20.45855     368.5658        27     1.103     1.093  54.06   0
       131    581.3817    655.5009 300.1383528 +22.7281495     1469.835     72.42213      1.398     2.71     3.468499     20.45855     162.9899        19     1.049     0.966  26.78   0
       132    509.8087    654.8076 300.1163043 +22.7064838     312.2459     72.36662      1.414     3.05     3.501641     20.45855     36.72906         6     0.746     0.559  39.68   0
       133    975.0543    653.7570 300.2615564 +22.8456654      372.176     72.51453      1.232     3.93     3.360237     20.45855     49.91242         7     0.759     0.676 -11.16   0
       134    777.1992    654.2267 300.1997416 +22.7864984     261.0909      72.4591      1.216     3.96     3.326278     20.45855     29.12624         6     0.798     0.562  44.76   0
       135    244.7919    651.8299 300.0348583 +22.6261172     755.9168     72.51453      1.638     3.95     3.162801     20.45855     69.29162        14     1.054     0.932  55.72   0
       136    258.8847    650.0364 300.0398211 +22.6298318      633.127     72.49606      1.548     3.93     3.169308     20.45855      76.0723        13     1.066     0.861  30.59   0
       137    605.5701    646.1662 300.1489148 +22.7327229     451.4269       72.533      1.627     4.51     3.703353     20.45855     54.37767         9     1.178     0.598  54.35   0
       138    315.8764    646.9579 300.0585372 +22.6460502     435.4319     72.49606      1.501     5.16     3.289274     20.45855     46.97688         8     1.166     0.645  24.97   0
       139    284.9305    646.7854 300.0489731 +22.6367149     602.9993       72.533      1.328     2.97     3.174069     20.45855     71.94743         9     0.939     0.620  29.72   0
       140    506.2518    645.2684 300.1182968 +22.7026781     1699.975     72.49606      1.377     2.57     3.553355     20.45855     184.3593        20     1.108     0.915  32.18   0
       141    160.2972    640.1080 300.0124110 +22.5973950     19531.57     72.69901      1.624     2.96      3.60265     20.45855     2076.488        69     1.463     1.345  41.64   0
       142     80.9796    642.0167 299.9871529 +22.5741338     657.9419     72.49606      1.654     5.13     3.398214     20.45855     82.47205        13     1.376     0.979 -27.25   0
       143    591.3121    640.5551 300.1462997 +22.7268358     1150.128     72.49606      1.472     2.58      3.73247     20.45855     116.2924        14     0.924     0.858 -78.51   0
       144    626.7125    639.9191 300.1575262 +22.7372690     371.8888     72.64371      1.202     3.93     3.786854     20.45855     51.11377         9     1.017     0.692  15.70   0
       145    344.6417    632.1630 300.0722873 +22.6504349      389.057     72.60683      1.364     2.64     3.405393     20.45855     51.94075         6     0.731     0.597  19.51   0
       146   1009.3059    626.8201 300.2809889 +22.8481865     1035.354     72.44061      1.570     3.83     3.345968     20.45855     84.22872        17     1.107     1.045 -35.84   0
       147    106.3646    624.3718 300.0007692 +22.5766923     1434.128       72.533      1.992     4.89      3.52744     20.45855     98.81719        28     1.636     1.088  83.05   0
       148    875.7603    624.6951 300.2400471 +22.8075568     493.0184     72.51453      1.517     3.26     3.425493     20.45855     56.65631         9     0.860     0.752 -87.59   0
       149    819.0162    620.3947 300.2237618 +22.7893136     264.9524     72.44061      1.398     4.93     3.444214     20.45855     29.48586         5     1.200     0.574  49.73   0
       150    554.6877    620.8534 300.1413014 +22.7101947     540.4329     72.55147      1.455     4.39     3.816803     20.45855     60.17237        12     1.171     0.774 -39.25   0
       151    949.4442    619.3702 300.2647447 +22.8281082     690.0632     72.55147      1.726     3.95     3.333137     20.45855     60.26064        15     1.228     0.797  48.83   0
       152    945.4107    619.1732 300.2635513 +22.8268429     313.7383     72.51453      1.408     3.54      3.33281     20.45855     36.35404         5     0.793     0.456  73.41   0
       153    693.8019    617.4476 300.1857159 +22.7509308      251.436     72.49606      1.488     3.48     4.012435     20.45855     37.89717         5     0.808     0.686  71.10   0
       154    511.4548    613.5283 300.1302275 +22.6951253     767.6461     72.51453      1.394     2.76     3.696456     20.45855     91.99806        12     0.917     0.829  27.98   0
       155    659.4466    612.0164 300.1767827 +22.7390703      465.099     72.55147      1.472     2.97     4.209297     20.45855     52.57923         8     0.788     0.682  22.61   0
       156    706.4561    610.5223 300.1919064 +22.7527353      417.194     72.55147      1.363     4.80     4.057505     20.45855     48.70499         9     0.913     0.790  33.72   0
       157    677.1737    610.0239 300.1829497 +22.7438130     603.4775     72.47758      1.397     3.88     4.190498     20.45855     63.70827         9     0.917     0.697 -70.11   0
       158    555.6259    609.1979 300.1453798 +22.7071291     883.7361      72.4591      1.523     3.11     3.963708     20.45855     99.85202        15     1.082     0.873  34.36   0
       159    521.0306    604.7500 300.1360588 +22.6954767       1722.5     72.55147      1.343     2.54     3.781528     20.45855     236.1285        19     1.021     0.953  66.85   0
       160    989.3539    604.8909 300.2818919 +22.8359051     3344.935     72.49606      1.545     2.91     3.362007     20.45855     336.7938        32     1.238     1.165  -7.19   0
       161     83.0214    598.3233 300.0019803 +22.5622127     5084.388     72.51453      1.646     3.09     3.509663     20.45855     466.7512        43     1.422     1.309  50.99   0
       162    550.1578    595.6626 300.1480749 +22.7016023     355.7961     72.49606      1.455     3.43     3.958494     20.45855     42.07572         5     0.745     0.456 -12.25   0
       163    384.5192    591.4495 300.0979132 +22.6507119     8999.446       72.533      1.424     2.48      3.46037     20.45855     1105.926        42     1.220     1.176  42.72   0
       164    507.0092    588.5216 300.1369674 +22.6866115     8852.322     72.47758      1.374     2.47     3.785627     20.45855     1140.889        40     1.198     1.113  61.22   0
       165    918.6196    582.6540 300.2670634 +22.8083189     1979.568     72.49606      1.520     2.71      3.37649     20.45855     215.7965        23     1.174     1.029  82.34   0
       166    752.9870    584.6508 300.2148032 +22.7592518      405.159     72.55147      1.465     3.51     3.824729     20.45855     45.72016         5     1.198     0.326  48.63   0
       167    150.5502    584.6199 300.0274072 +22.5785494     197.5197     72.49606      1.252     4.83     3.615884     20.45855     29.56919         6     0.970     0.682 -20.66   0
       168   1003.3053    579.9661 300.2943392 +22.8329203     12175.42     72.49606      1.555     2.96     3.623105     20.45855     1140.839        54     1.347     1.286  88.21   0
       169    567.5272    578.1108 300.1591820 +22.7017704     11627.71     72.68058      1.341     2.35      4.13588     20.45855     1501.478        45     1.196     1.142  62.42   0
       170    295.0828    573.6286 300.0758932 +22.6187651     1389.189       72.533      1.458     2.67     3.437986     20.45855     153.8091        19     1.060     0.995  52.62   0
       171    737.2880    573.8083 300.2134352 +22.7514308     556.8134     72.42213      1.445     3.09     3.943166     20.45855     64.54384        10     0.876     0.804  60.24   0
       172    452.6524    573.2299 300.1250229 +22.6659181     340.5804       72.533      1.248     3.55     3.628837     20.45855     51.96703         6     0.905     0.650  78.14   0
       173    541.8561    571.2178 300.1534315 +22.6920928     392.1688     72.49606      1.139     1.98     4.000109     20.45855     68.66366         6     0.702     0.515 -67.04   0
       174    499.2383    566.2795 300.1417739 +22.6778941     4332.967     72.47758      1.369     2.44     3.849815     20.45855     459.3865        32     1.177     1.072  63.59   0
       175    841.9788    566.4972 300.2484254 +22.7807085     842.6801     72.44061      1.379     2.70     3.437678     20.45855     95.90807        13     0.980     0.790  33.78   0
       176    477.5382    564.8593 300.1354836 +22.6709783     1308.061     72.55147      1.370     2.50      3.76816     20.45855     160.2616        17     1.128     0.843  26.79   0
       177    231.9112    564.2217 300.0593132 +22.5971112     702.5502     72.44061      1.360     2.75     3.481089     20.45855     88.50849        10     0.902     0.689 -22.73   0
       178    919.0486    561.9572 300.2739199 +22.8024988     1625.698       72.533      1.515     3.03      3.39152     20.45855     168.0756        20     1.105     1.017 -26.80   0
       179    165.2101    562.3102 300.0392075 +22.5765473      334.632      72.4591      1.751     3.31     3.545622     20.45855     40.84912         5     1.387     0.229 -17.09   0
       180    439.8592    560.3400 300.1252297 +22.6583800     340.2604     72.58838      1.161     3.39     3.569508     20.45855     42.68589         5     0.729     0.457 -12.62   0
       181    799.5723    558.8705 300.2376894 +22.7658076     857.2672     72.49606      1.403     2.80     3.429992     20.45855     107.6723        12     0.973     0.799 -10.86   0
       182    615.8678    553.8539 300.1821076 +22.7092980     199299.4     72.55147      1.377     2.37     4.402566     20.45855      28041.7       195     1.450     1.418  12.23   0
       183   1003.4216    555.7022 300.3022569 +22.8259800     298.2937     72.44061      1.447     5.35     3.867227     20.45855     30.53267         7     1.118     0.723  54.32   0
       184    301.9214    553.8082 300.0844564 +22.6151277     3279.959      72.4591      1.425     2.67      3.45628     20.45855     407.2233        29     1.131     1.109 -25.13   0
       185    867.6674    549.9828 300.2617945 +22.7836608     647.8544     72.51453      1.689     3.37     3.411965     20.45855     58.29493         8     0.901     0.641  75.78   0
       186    647.1567    540.6095 300.1961501 +22.7148741     42.33788       72.533      1.045     3.00      4.38542     20.45855     35.11002         5     0.733     0.448 -19.52   0
       187    506.4737    534.1249 300.1544680 +22.6708300      2777.42     72.58838      1.403     2.34     3.918686     20.45855     341.1245        22     1.049     0.974  68.31   2
       188    350.6198    536.7344 300.1051420 +22.6248354     532.1879     72.49606      1.629     3.48     3.393067     20.45855     52.70375         6     0.876     0.567 -23.10   0
       189    737.1802    529.6382 300.2277474 +22.7387077     218.0875       72.533      1.145     2.24     3.937409     20.45855     42.01876         5     0.698     0.455 -17.11   0
       190    823.6376    522.6246 300.2569592 +22.7626037     386.3191       72.533      1.405     2.43     3.411519     20.45855     61.25743         6     0.815     0.480 -88.19   0
       191    903.4506    520.3359 300.2825757 +22.7858618     1654.049     72.56992      1.379     2.53     3.412587     20.45855     197.8436        19     1.105     0.929  86.81   0
       192    790.5015    520.1827 300.2474281 +22.7519717     326.5973     72.42213      1.652     4.60     3.495233     20.45855     30.13932         6     1.009     0.595 -25.48   0
       193     33.5400    519.0798 300.0123487 +22.5246267     768.5669     72.56992      1.608     3.42      3.50526     20.45855      95.8577        14     1.123     0.918 -38.82   0
       194    774.6375    518.0240 300.2431870 +22.7465969     2507.944       72.533      1.354     2.48     3.628223     20.45855     322.6415        24     1.063     1.008  88.62   0
       195    413.4008    518.1663 300.1306958 +22.6383350     226.3821     72.47758      1.038     3.08     3.465515     20.45855     39.12906         5     0.748     0.430  67.33   0
       196    134.1608    517.8037 300.0440142 +22.5544583      339.222       72.533      1.525     4.42     3.493044     20.45855     34.09245         7     0.970     0.801  35.37   0
       197   1017.8637    511.2905 300.3211844 +22.8175379     922.6472     72.60683      2.103     4.25     3.625566     20.45855     63.44651        15     1.194     0.971  85.32  18
       198    983.7890    515.4232 300.3092168 +22.8085187     218.8446     72.51453      1.291     2.80     3.579067     20.45855     32.69856         5     0.712     0.466 -17.71   0
       199    679.3917    514.4189 300.2146926 +22.7170131     624.1435     72.47758      1.505     3.75     4.259883     20.45855     60.03898         9     1.016     0.719 -76.04   0
       200    561.7870    513.8990 300.1782494 +22.6816067     676.1936     72.42213      1.317     2.77     4.065115     20.45855     101.3237        12     0.972     0.750  35.38   0
       201    903.7952    510.4882 300.2858811 +22.7831344     2250.428     72.42213      1.635     3.48     3.416147     20.45855     230.4945        31     1.539     1.041  75.52   0
       202    657.0679    508.7362 300.2095867 +22.7086886     669.6597     72.56992      1.470     2.54     4.266488     20.45855     78.99159        10     0.845     0.729  73.19   0
       203    941.9208    505.5614 300.2993657 +22.7931407     4376.186     72.49606      1.454     2.56     3.437852     20.45855       525.89        31     1.194     1.099  80.22   0
       204    495.2600    506.9813 300.1597933 +22.6596720     279.7318      72.4591      1.324     3.93     3.759473     20.45855     50.54827         8     0.882     0.633  44.34   0
       205    602.4822    501.2737 300.1950159 +22.6901810     365.4208     72.62527      1.177     3.13     4.172982     20.45855      56.8821         6     0.789     0.498  86.16   0
       206    173.8906    495.9349 300.0634580 +22.5601039     946.0497     72.64371      1.523     3.10     3.483281     20.45855     99.55025        16     1.040     0.972  49.15   0
       207    440.4652    489.1567 300.1485338 +22.6381215     210.6467     72.49606      1.157     2.49     3.578489     20.45855     39.40494         5     0.714     0.469  71.68   0
       208    820.1697    479.7507 300.2698007 +22.7492424      278.431       72.533      1.557     4.50     3.426986     20.45855     30.54961         6     0.966     0.595 -63.26   0
       209    773.9510    479.8093 300.2553821 +22.7354092     449.4091       72.533      1.297     3.49     3.650091     20.45855     72.15751         9     1.037     0.616  39.60   0
       210    662.8062    478.0125 300.2213496 +22.7015815     285.5719     72.38512      1.384     4.94     4.157002     20.45855     45.06195         7     0.913     0.756 -77.93   0
       211    715.3999    476.1289 300.2383392 +22.7168041     746.7039     72.38512      1.311     2.74     4.023615     20.45855     98.77108        13     0.985     0.808 -25.02   0
       212    775.9219    468.1301 300.2597881 +22.7326433     793.2462     72.62527      1.255     2.45     3.628726     20.45855     117.0993        14     1.023     0.784  81.31   0
       213    933.3854    464.3400 300.3100896 +22.7787330      872.061     72.47758      1.450     3.09     3.560927     20.45855     124.7901        15     1.028     0.940  51.83   0
       214    917.4184    460.7901 300.3062648 +22.7729291     604.4491     72.47758      1.453     2.68     3.568316     20.45855      77.7554        10     0.915     0.692  47.84   0
       215    897.9711    460.9460 300.3001523 +22.7671479     381.7863     72.51453      1.473     4.42      3.52918     20.45855     40.89916         6     0.795     0.700   4.58   0
       216    661.8281    458.7687 300.2272928 +22.6957591     3137.483     72.51453      1.315     2.30     4.071405     20.45855     463.3954        26     1.135     0.962  62.01   0
       217   1022.5642    457.8974 300.3399875 +22.8035933     490.4384     62.43044      1.571     3.43     3.472018     20.45855     64.27576        10     1.031     0.850 -24.90  24
       218    137.9794    450.2287 300.0671392 +22.5362111     405.0193     72.51453      1.538     4.91     3.500805     20.45855     35.78117         9     1.115     0.613  -0.19   0
       219    501.7238    445.7719 300.1816773 +22.6440297     338.1218     72.49606      1.200     3.39     3.710383     20.45855     50.11134         6     0.913     0.563 -60.67   0
       220    433.8261    446.5830 300.1602904 +22.6239041     351.8007       72.533      1.770     3.00     3.673146     20.45855     34.43641         5     0.733     0.445  21.29   0
       221    945.1756    437.5191 300.3224729 +22.7745536     604.6594     72.49606      1.412     3.05     3.771852     20.45855     90.63479        12     0.971     0.926 -39.48   0
       222    681.6557    434.7431 300.2412666 +22.6947982     275.3802     72.58838      1.376     3.51     3.964741     20.45855     43.97421         6     0.881     0.681  12.00   0
       223    772.5465    432.7680 300.2702168 +22.7214685     1116.366       72.533      1.380     2.69     3.637317     20.45855     125.9567        17     1.052     0.899  36.80   0
       224    568.5646    433.2152 300.2065545 +22.6604613     540.8738     72.51453      1.425     3.12     3.824764     20.45855     53.66082         8     0.855     0.738  11.00   0
       225    276.5054    430.9564 300.1164429 +22.5722356     687.8348       72.533      1.459     2.89     3.517137     20.45855     80.18516        10     0.922     0.730 -17.90   0
       226    115.8596    429.0316 300.0671483 +22.5234905     322.8797     72.55147      1.515     3.87     3.535439     20.45855     28.86885         5     0.823     0.521  30.27   0
       227    338.8405    426.6343 300.1372254 +22.5896906      3720.85     72.56992      1.382     2.50     3.663459     20.45855      478.995        28     1.150     1.055  47.16   0
       228    286.0272    421.3999 300.1225047 +22.5723478     7506.604      72.4591      1.417     2.54     3.524089     20.45855     861.2272        39     1.211     1.142  64.15   0
       229    426.8452    415.5963 300.1681773 +22.6129113     4663.249     72.51453      1.348     2.34     3.758164     20.45855     652.0464        29     1.105     1.044 -86.88   0
       230    670.9993    412.3214 300.2452265 +22.6851612     18353.46     72.40363      1.339     2.34     3.890698     20.45855     2399.469        56     1.277     1.163  23.18   0
       231    518.0448    413.6711 300.1971761 +22.6397017      364.927     72.47758      1.559     4.38     3.736293     20.45855     28.98784         6     0.953     0.572  88.55   0
       232    688.8451    412.1587 300.2508365 +22.6904627     807.0878     72.58838      1.799     5.91     3.894472     20.45855     76.28412        19     1.544     0.917 -39.49   0
       233    297.8151    410.2896 300.1297754 +22.5726933     305.3456     72.44061      1.195     3.40     3.596849     20.45855     47.53224         5     0.955     0.349  48.41   0
       234     47.2361    409.5780 300.0521488 +22.4973168      295.397       72.533      1.536     3.83     3.657651     20.45855     31.51057         5     1.022     0.411  83.43   0
       235    868.0924    402.8746 300.3096916 +22.7415020     384.4325     72.68058      1.345     3.55     3.553077     20.45855     59.76716         9     1.064     0.617  40.18   0
       236    290.9895    399.4474 300.1311725 +22.5675329     279.4685       72.533      1.234     2.27     3.640245     20.45855     42.39844         6     0.748     0.497  -0.58   0
       237   1004.5092    394.9049 300.3548062 +22.7800709     737.2349     72.69901      1.493     3.01     3.705748     20.45855     77.61791        14     0.951     0.941  22.82   0
       238    541.5060    393.9112 300.2108907 +22.6410581     492.2408     72.69901      1.892     4.25     3.721712     20.45855     44.61695        10     1.029     0.834 -81.19   2
       239    225.7329    392.2946 300.1132103 +22.5459065     1978.426     72.66215      1.490     2.70     3.629874     20.45855     225.5117        22     1.168     1.023  54.55   0
       240    239.3603    387.6293 300.1189596 +22.5486546     320.9205     72.51453      1.532     4.09     3.657989     20.45855      34.1198         6     0.872     0.548  46.70   0
       241    611.7426    381.7581 300.2366969 +22.6586190     6659.554     72.49606      1.285     2.22     3.851675     20.45855     1002.096        33     1.141     1.042  68.66   0
       242    326.4645    381.1166 300.1481506 +22.5729082     782.4717     72.62527      1.565     2.75     3.763474     20.45855     80.04687        12     0.976     0.768  58.59   0
       243    184.0961    374.5898 300.1060170 +22.5283343      436.883     72.44061      1.347     3.48     3.684192     20.45855     51.14679         7     0.766     0.642 -10.19   0
       244    871.9342    373.8157 300.3203206 +22.7342981     328.8871     72.49606      1.256     3.40     3.552768     20.45855     44.67662         8     0.854     0.628  35.34   0
       245     31.4329    371.8250 300.0594932 +22.4817403     1339.746     72.51453      1.647     3.59     3.710015     20.45855     137.3036        22     1.216     1.077  20.80   0
       246    815.8895    370.8871 300.3038062 +22.7166670     1182.309     72.68058      1.362     2.50     3.719054     20.45855     164.8294        14     0.991     0.852 -71.03   0
       247    725.4081    372.0600 300.2752383 +22.6898948     472.7505     72.47758      1.091     1.93      3.96372     20.45855     77.21989         6     0.704     0.490 -85.95   0
       248      1.5579    369.3406 300.0510232 +22.4720631     589.2294     57.70328      1.147     3.03     3.723758     20.45855     98.20873         9     1.020     0.573 -77.62  24
       249    518.2962    368.0200 300.2120706 +22.6266621     6051.811     72.42213      1.320     2.35     3.724676     20.45855     770.2232        32     1.157     0.993  65.26   0
       250    910.3713    362.3746 300.3360141 +22.7425218     1388.382     72.51453      1.396     2.63     3.579339     20.45855     171.4277        18     1.083     0.921  80.27   0
       251   1007.7978    362.7880 300.3662557 +22.7718189      520.575      72.3296      1.343     3.22     3.326162     20.45855      70.2255        10     0.995     0.725 -76.60   0
       252    503.1439    356.9600 300.2109447 +22.6189425     553.8245     72.49606      1.363     2.96     3.737436     20.45855     61.35732         8     0.820     0.713 -75.26   0
       253      9.7123    357.5159 300.0573920 +22.4711164     389.7156     72.64371      1.372     2.98     3.723644     20.45855     57.63555         5     0.956     0.345 -23.94   0
       254    585.4021    354.4832 300.2373488 +22.6428869      525.993     72.42213      1.692     3.44     3.790472     20.45855     70.27016         7     1.035     0.462  59.05   0
       255    863.7067    353.7734 300.3242609 +22.7260710     348.0874      72.4591      1.598     4.44     3.543341     20.45855      47.0573         7     1.073     0.522 -26.80   0
       256     29.7972    353.5989 300.0648994 +22.4760187     1027.986     72.29255      1.513     2.91     3.724254     20.45855     114.2855        17     1.077     0.945  -7.35   0
       257    883.0677    349.9471 300.3315368 +22.7307702     598.0919       72.533      1.479     3.19     3.559448     20.45855     67.77037        10     0.923     0.708  73.76   0
       258    164.6268    349.2180 300.1082006 +22.5152103     311.7449     72.51453      1.614     4.66     3.787498     20.45855     31.40081         6     0.945     0.653  59.17   0
       259    405.8824    347.2046 300.1838525 +22.5869819     2591.534     72.44061      1.368     2.46     3.780088     20.45855     319.6938        24     1.113     0.974  68.13   0
       260    124.3347    344.6401 300.0971682 +22.5018096     1020.539     72.47758      1.504     2.80     3.770535     20.45855     127.0944        18     1.154     0.930  51.10   0
       261    375.2352    336.6406 300.1777487 +22.5747588     29607.51     72.56992      1.368     2.42      3.79916     20.45855     3779.062        73     1.352     1.187  58.72   0
       262    909.8242    334.3040 300.3449530 +22.7342859     1430.501     72.40363      1.359     2.74     3.668214     20.45855     161.5588        15     0.978     0.893  87.10   0
       263     71.4776    324.4070 300.0873148 +22.4801449     5002.545     72.44061      1.615     2.85      3.78593     20.45855     592.8499        38     1.342     1.201  52.94   0
       264    249.7812    323.0834 300.1431431 +22.5332465     448.4231      72.4591      1.272     3.28     3.886278     20.45855       60.946         8     0.925     0.615  63.01   0
       265    825.2082    323.0046 300.3222482 +22.7056921     638.3752     72.36662      1.430     2.49     3.886956     20.45855     79.68689        10     0.839     0.739   4.64   0
       266    473.4319    321.9026 300.2130756 +22.5999639     560.8096     72.47758      1.348     2.58     3.808972     20.45855     102.3672         9     0.931     0.652 -62.18   0
       267    785.7036    316.5501 300.3120339 +22.6920025     1827.963     72.58838      1.289     2.35     3.981781     20.45855     249.8158        18     0.986     0.905 -30.27   0
       268    593.8297    311.3376 300.2539721 +22.6330139     264.4123       72.533      1.250     1.89     3.835116     20.45855     49.61141         5     0.685     0.444 -18.10   0
       269   1000.8082    309.5222 300.3813609 +22.7544053     446.7236     72.47758      1.236     2.57     3.722743     20.45855     65.11854         8     0.826     0.620  47.40   0
       270    447.4223    300.8956 300.2117994 +22.5861319     2201.973     72.42213      1.554     3.32     3.810397     20.45855     227.2582        22     1.350     0.864  61.29   0
       271    659.7391    299.7367 300.2782557 +22.6494300     202.9092     72.55147      1.161     2.46     3.886631     20.45855     52.00385         5     0.724     0.635  44.18   0
       272    886.5344    294.1236 300.3507308 +22.7157558     668.6517     72.60683      1.312     1.90     3.963244     20.45855     93.08317         8     0.740     0.611   4.04   0
       273     19.6807    291.8970 300.0817763 +22.4552739      874.028     72.64371      2.267     7.62     3.724926     20.45855     60.95725        14     1.471     1.143 -34.62   0
       274    786.1531    291.4492 300.3203179 +22.6849204      243.792     72.55147      0.992     3.30     4.014973     20.45855     51.19547         5     0.978     0.352 -85.25   0
       275    768.8261    291.3764 300.3149435 +22.6797090     348.9395     72.47758      1.255     3.27     4.015858     20.45855     64.51991         7     0.929     0.556  23.55   0
       276    737.4592    290.6386 300.3054119 +22.6701002     261.5201       72.533      1.245     3.32     4.017526     20.45855     46.60664         6     0.918     0.431  72.03   0
       277    848.0443    285.1648 300.3416415 +22.7016517     180.6879     72.56992      1.477     4.48     4.011729     20.45855     38.35804         5     0.810     0.704  -6.25   0
       278    523.3347    280.4719 300.2420448 +22.6030171     1149.819     72.55147      1.315     2.43     3.816757     20.45855     144.9705        14     0.959     0.806  44.51   0
       279    608.4540    277.9812 300.2693463 +22.6278097     338.6864     72.49606      1.267     4.15     3.867563     20.45855     35.52572         5     0.798     0.615  -2.27   0
       280    768.1586    272.1633 300.3209686 +22.6739850     2303.936     72.60683      1.356     2.66     4.002389     20.45855     293.1902        24     1.220     0.932 -83.59   0
       281      2.0360    257.7097 300.0873868 +22.4401673     52861.13     60.38012      1.328     2.63     4.204981     20.45855      8283.02        71     1.452     1.004 -89.50  24
       282    476.7825    256.0236 300.2354901 +22.5820396     663.5658     72.51453      1.463     3.30     3.867707     20.45855     87.88016        10     1.107     0.685  74.15   0
       283    181.6327    250.5267 300.1455013 +22.4919737     597.2492     72.51453      1.371     3.34     3.973285     20.45855     71.94229        13     1.025     0.848 -13.61   0
       284    151.4823    250.0826 300.1362772 +22.4828042     1471.478     72.64371      1.830     4.93     3.969002     20.45855     113.8378        24     1.497     1.005 -25.22   0
       285    888.8216    243.7761 300.3677768 +22.7019610     408.5212     72.49606      1.621     5.09     3.921874     20.45855     36.43649         8     0.974     0.752 -83.55   0
       286    235.0736    242.3630 300.1647569 +22.5056546     459.5039      72.4591      1.482     3.21      3.98506     20.45855     56.27853         9     0.902     0.741 -45.29   0
       287     91.1719    239.4148 300.1210016 +22.4616529      399.751       72.533      1.551     2.94     4.022177     20.45855     52.87474         7     0.921     0.656 -51.24   0
       288    481.9918    237.1240 300.2432411 +22.5781700     3809.175     72.47758      1.013     2.91     3.876273     20.45855      1124.81        11     0.936     0.454  44.93   0
       289    911.0544    236.0608 300.3772095 +22.7063995       379.33     72.56992      1.572     4.74     3.904858     20.45855     39.10588         6     1.106     0.576  86.71   0
       290    130.2463    236.5992 300.1340527 +22.4725637     151.9558     72.51453      1.161     3.48     3.980569     20.45855     28.69561         5     0.758     0.461 -16.04   0
       291    840.0861    233.6214 300.3558818 +22.6844456     590.6904     72.44061      1.307     3.26     3.915137     20.45855     97.28498        11     1.105     0.693 -53.22   0
       292    430.3057    233.1152 300.2284615 +22.5615269     346.4816     72.69901      1.234     4.22     3.797047     20.45855     48.60418         7     0.740     0.685  48.73   0
       293    930.3948    227.1882 300.3861164 +22.7096386     327.8447     72.38512      1.519     3.29     3.893897     20.45855      42.1765         5     0.928     0.381  -5.99   0
       294    937.8847    222.8005 300.3898746 +22.7106190     2024.796     72.38512      1.392     2.60     3.909698     20.45855     262.5423        24     1.164     1.028  65.53   0
       295    356.5556    220.0173 300.2097716 +22.5356572     2108.746       72.533      1.370     2.35     3.910539     20.45855     287.6766        20     1.062     0.922  69.12   0
       296    434.3428    215.4584 300.2354438 +22.5576634     1098.641     72.58838      1.488     4.03     3.814951     20.45855     118.1626        18     1.202     1.028  -7.27   0
       297    836.4834    214.2726 300.3610348 +22.6778021     653.8913     72.64371      1.473     3.73     3.906931     20.45855     72.74117        12     1.068     0.814 -75.15   0
       298    186.2290    215.2239 300.1583789 +22.4832139     209.2066     72.51453      1.322     4.66     3.979482     20.45855     28.30044         8     0.931     0.662  -5.46   0
       299    481.3974    212.0073 300.2512022 +22.5707740     240.7424      72.3296      1.345     4.44     3.876517     20.45855     29.48853         5     0.997     0.561  15.59   0
       300    943.2649    211.4146 300.3952448 +22.7089546     366.8081     72.49606      1.465     5.11     3.939231     20.45855     45.20979         8     1.121     0.659  -8.28   0
       301    250.9868    207.2579 300.1810881 +22.5003430     864.3145     72.47758      1.536     3.92     3.983032     20.45855     89.54591        12     1.152     0.713  38.00   0
       302    369.4362    207.1981 300.2179345 +22.5358353     322.3164     72.51453      1.185     3.38     3.898187     20.45855     34.43111         5     0.763     0.433  67.36   0
       303    788.9692    204.1242 300.3495212 +22.6606537     1525.714     72.51453      1.327     2.50     3.954609     20.45855     201.8218        19     1.040     0.911  67.81   0
       304    854.1430    203.8159 300.3699295 +22.6800831     494.9647     72.49606      1.226     2.72     3.898999     20.45855     85.96603        11     0.929     0.844  -1.73   0
       305    272.6168    200.4283 300.1900264 +22.5048662     667.4783     72.51453      1.338     3.65     3.972007     20.45855     78.39439        10     1.122     0.591  77.94   0
       306    793.0707    195.8467 300.3534835 +22.6595017     804.3768     72.49606      1.423     2.79     3.961107     20.45855     106.9556        12     0.935     0.879 -24.85   0
       307    713.5750    195.0422 300.3289807 +22.6354604     1188.966     72.56992      1.335     2.26     3.992493     20.45855     175.9904        18     1.108     0.860 -73.45   0
       308    562.0984    195.8587 300.2815531 +22.5903154     413.8687     72.60683      1.534     3.84     3.868767     20.45855     52.94577         6     1.216     0.381  70.71   0
       309    534.6193    191.2099 300.2745082 +22.5807455     412.2981     72.49606      1.176     2.51     3.869479     20.45855     65.56281         6     0.758     0.468  77.51   0
       310    921.2608    185.8002 300.3966921 +22.6949980     738.3913      72.4591      1.378     2.84     3.951505     20.45855     93.58807        12     1.011     0.756 -37.36   0
       311    909.1652    186.5190 300.3926884 +22.6915833     1271.923      72.4591      1.365     2.29     3.937081     20.45855     197.8156        18     1.035     0.959  42.21   0
       312    639.7259    186.6328 300.3087107 +22.6109206     960.6929     72.49606      1.420     2.52     3.924493     20.45855     152.7699        15     1.093     0.881  59.11   0
       313     11.2287    175.0437 300.1170488 +22.4191933     319.2301     72.55147      1.490     3.10     4.694393     20.45855     51.66397         7     0.953     0.679  10.10   0
       314     61.3337    172.5724 300.1334097 +22.4335115     275.8069     72.49606      1.342     3.53     4.293504     20.45855     56.18096         7     0.914     0.646  46.10   0
       315    271.9490    168.6795 300.2001137 +22.4955457     668.9637     72.51453      1.356     3.27     3.968709     20.45855     88.28875        11     0.930     0.883  24.27   0
       316    133.7453    163.5454 300.1588292 +22.4526344     2232.188     72.55147      1.533     2.73     3.961697     20.45855     276.7205        26     1.176     1.134  34.25   0
       317    956.9782    160.8489 300.4159186 +22.6985130     702.5151     72.51453      1.406     2.84     4.044599     20.45855     85.77882        10     0.876     0.732  80.71   0
       318     83.3848    160.5172 300.1441671 +22.4366629     510.0288     72.47758      1.366     3.72     4.117114     20.45855     56.32896         6     0.902     0.447 -16.57   0
       319    291.1768    156.9564 300.2098921 +22.4979419     5798.801     72.56992      1.442     2.63     3.990055     20.45855     669.1853        37     1.284     1.099  86.14   0
       320    272.9168    157.6755 300.2039824 +22.4926747     364.8199     72.60683      1.660     4.69     3.981505     20.45855      38.5235         7     0.995     0.627  89.81   0
       321     75.2779    151.4297 300.1445953 +22.4316222     1212.144     72.51453      1.658     3.44      4.16185     20.45855      119.743        20     1.181     1.051 -20.11   0
       322     36.5335    152.9191 300.1320797 +22.4204305     210.5528     72.62527      1.214     4.12     4.465283     20.45855     31.71772         5     0.767     0.632  13.52   0
       323    274.7960    147.6642 300.2078124 +22.4903619     610.9438     72.49606      1.526     3.40     4.030049     20.45855     76.18257        11     0.945     0.894 -70.09   0
       324    935.2210    138.4592 300.4163950 +22.6855579     3553.532     72.47758      1.490     2.62     4.043041     20.45855     460.9531        34     1.387     1.103  73.63   0
       325    237.8188    134.8598 300.2004696 +22.4755986     388.2234      72.4591      1.445     4.60     4.005163     20.45855     35.07823         8     0.854     0.702 -55.36   0
       326    484.5605    133.7625 300.2775577 +22.5492340     606.9026     72.58838      1.356     2.98     3.873729     20.45855     80.53975        10     0.936     0.756  17.12   0
       327    599.0317    131.5104 300.3139144 +22.5828822     238.1946     72.47758      1.264     3.34     4.118191     20.45855     38.19799         6     0.786     0.498  -4.16   0
       328    408.9356    125.5443 300.2566952 +22.5242106     668.2594     72.56992      1.361     3.56     3.957932     20.45855     73.65397        11     1.041     0.735  75.01   0
       329    412.7621    123.9004 300.2584184 +22.5248848     517.2542       72.533      1.722     4.43      3.94528     20.45855     52.00617         9     1.072     0.661  13.46   1
       330    536.1376    121.0325 300.2977347 +22.5610281     1725.679     72.51453      1.372     2.62     3.876119     20.45855     215.3321        18     1.118     0.824  60.77   0
       331    175.0234    122.3632 300.1850056 +22.4531829     713.4865       72.533      1.546     3.12     3.926916     20.45855     73.32808         9     0.941     0.653  27.13   0
       332    464.3051    121.3369 300.2752839 +22.5395933     446.7841     72.60683      1.126     2.37     3.891169     20.45855     78.70006         7     0.779     0.581 -58.43   0
       333    597.6240    120.1024 300.3171747 +22.5791807     346.6797     72.42213      1.233     2.36     4.215011     20.45855      56.3533         6     0.715     0.591  37.85   0
       334    359.8680    117.0140 300.2441998 +22.5070543     159.5677       72.533      0.957     2.22     4.204391     20.45855     49.03099         5     0.758     0.474  33.65   0
       335    279.7183    116.5177 300.2194399 +22.4828889      361.124     72.64371      1.133     3.26     4.200138     20.45855     58.00691         7     0.950     0.464 -12.95   0
       336    824.2407    109.9436 300.3910493 +22.6441280     255.3423     72.49606      1.464     4.37     3.990332     20.45855     47.49512         7     1.097     0.495  67.80   0
       337    970.4402    105.0716 300.4382003 +22.6864938     289.1092     72.49606      1.287     3.37     4.287904     20.45855     39.44345         7     0.848     0.613  13.12   0
       338    816.3832    101.5631 300.3913176 +22.6393646     412.9569     72.51453      1.339     3.48     4.014642     20.45855     47.91439         6     0.870     0.485  87.53   0
       339    720.7673    102.0210 300.3613815 +22.6108647     294.8137     72.51453      1.139     4.26     4.065483     20.45855     29.95709         7     1.153     0.449  32.87   0
       340    310.1133    100.7791 300.2339914 +22.4874772     5943.855     72.44061      1.451     2.59     4.335889     20.45855     733.1571        35     1.259     1.119  72.87   0
       341    939.5971     98.3158 300.4307739 +22.6753176     298.4929     72.44061      1.226     4.31     4.125666     20.45855     49.44992         7     0.994     0.579  68.37   0
       342      5.0476     97.1283 300.1403881 +22.3949678     656.0316     71.93967      1.459     3.47       4.5428     20.45855      71.4227        12     1.093     0.754   4.78  16
       343    281.5173     94.8318 300.2270288 +22.4771974     374.2694     72.51453      1.393     1.99     4.329347     20.45855     52.42128         5     0.691     0.465 -68.97   0
       344    161.4341    100.4036 300.1879014 +22.4428009     823.0728     72.51453      1.851     3.11     3.905504     20.45855     81.42661        10     0.983     0.794 -48.43   0
       345     72.0603     91.0929 300.1631550 +22.4133299      461.654     72.58838      1.400     2.93     4.077876     20.45855     61.34868         8     0.912     0.689 -19.32   0
       346    556.2163     86.1629 300.3152875 +22.5570186     6279.317     72.51453      1.373     2.43     3.990263     20.45855     746.8015        34     1.220     1.037  71.41   0
       347    441.6244     86.1880 300.2796216 +22.5226945     640.5035     72.51453      1.351     2.58     3.923335     20.45855     92.16582        14     0.972     0.852  82.94   0
       348    808.5413     76.3367 300.3970514 +22.6297599     1029.931     72.55147      1.716     4.69     4.124646     20.45855      113.536        18     1.502     0.892 -66.34   0
       349    750.2415     77.6046 300.3784771 +22.6126684     162.3286       72.533      1.098     2.33     4.138141     20.45855      49.3327         5     0.726     0.421 -24.90   0
       350    900.9749     74.9562 300.4263060 +22.6570350     415.7041       72.533      1.236     3.66     4.119661     20.45855     51.70948         5     0.649     0.593 -89.08   0
       351    120.3393     72.7224 300.1841058 +22.4225291     173.1082     72.56992      1.190     4.59     3.904397     20.45855     37.97703         6     1.166     0.514 -42.91   0
       352    969.5945     72.5315 300.4484849 +22.6768768     200.0878     72.47758      1.211     3.43     4.371133     20.45855     45.35696         5     0.756     0.451  20.67   0
       353    249.0359     69.9579 300.2249939 +22.4603148     485.1846     72.56992      1.314     3.07     4.340345     20.45855     56.30313        10     0.879     0.752 -78.40   0
       354    607.6139     68.5915 300.3369821 +22.5673621     371.2646     72.42213      1.186     3.09     4.509002     20.45855      56.5144         9     0.969     0.608  79.53   0
       355    684.5634     66.2463 300.3617021 +22.5897338     6274.704     72.55147      1.378     2.48     4.091207     20.45855     756.6373        34     1.246     1.041  82.40   0
       356    459.4135     65.3354 300.2919147 +22.5220304     1478.094     72.47758      1.374     2.77     3.895109     20.45855     165.8706        20     1.148     0.949  88.29   0
       357    725.6591     63.7602 300.3753072 +22.6013253     913.2084     72.51453      1.383     2.39     4.170818     20.45855     118.7795        13     0.979     0.789  31.34   0
       358    795.5878     61.3071 300.3978868 +22.6215580     315.8246      72.4591      1.139     2.65     4.197648     20.45855     47.90664         5     0.684     0.486 -80.91   0
       359    741.7501     59.7344 300.3816242 +22.6049856     561.8875     72.51453      1.433     3.02     4.206176     20.45855     72.24667        13     0.948     0.891 -55.71   0
       360   1011.3226     57.4079 300.4663992 +22.6850130     430.7699     72.47758      1.130     2.43     4.516838     20.45855     71.81063        10     0.799     0.791  67.00   0
       361    208.3136     57.7821 300.2162833 +22.4446103     800.3322      72.4591      1.798     3.47     4.246434     20.45855     84.54808         9     0.996     0.728 -14.77   0
       362     55.4042     58.0240 300.1686995 +22.3988382     380.6124     72.47758      1.494     3.61     4.195842     20.45855     45.85929         6     0.908     0.520  -1.00   0
       363    779.9654     55.1902 300.3950021 +22.6151209     539.1162     72.49606      1.442     3.84     4.222096     20.45855      61.5734         9     0.962     0.784 -61.14   0
       364    728.8019     51.1157 300.3803843 +22.5986294     2763.957     72.44061      1.369     2.44     4.218631     20.45855     337.4516        28     1.216     1.018  69.36   0
       365    369.8241     52.1409 300.2683234 +22.4913942     375.5175     72.51453      1.311     3.77     4.402596     20.45855     59.78031         9     1.007     0.745  -5.88   0
       366    743.9498     49.7714 300.3855385 +22.6027785     953.3695       72.533      1.949     4.40     4.243229     20.45855     83.17299        16     1.508     0.777  47.67   0
       367     22.2948     45.0512 300.1626214 +22.3851847      839.946     72.58838      1.651     4.16     4.424834     20.45855     85.23006        17     1.231     1.040 -82.42   0
       368    815.2950     42.6541 300.4100729 +22.6220920     1592.265     72.58838      1.394     2.59     4.261775     20.45855      229.656        19     1.103     0.913 -83.16   0
       369    975.3490     41.2276 300.4604254 +22.6695903     231.4225       72.533      1.413     3.72     4.445446     20.45855     31.19887         5     0.972     0.409  -5.90   0
       370    753.1890     36.0205 300.3928731 +22.6015894     751.5164     72.49606      1.347     3.42     4.295257     20.45855     90.79318        12     1.095     0.753  84.79   0
       371    558.9708     35.0807 300.3327009 +22.5431565     1084.941       72.533      1.360     2.79      4.02019     20.45855     133.7006        14     0.984     0.857  75.64   0
       372    131.5843     35.1111 300.1997882 +22.4150963     695.7174     72.44061      1.747     6.60     3.904397     20.45855     62.14422        13     1.388     0.880  69.89   0
       373    462.7570     33.4406 300.3032916 +22.5138634     788.5818     72.60683      1.325     3.14      3.88053     20.45855     97.58613        12     1.014     0.787 -81.56   0
       374    845.0547     32.3124 300.4226983 +22.6280256     403.4042     72.55147      1.333     2.85     4.312205     20.45855     52.14964         7     0.808     0.609 -29.78   0
       375    234.0428     23.2664 300.2354651 +22.4424050     3681.271     72.49606      1.523     2.80      4.72531     20.45855     408.8028        34     1.336     1.135  40.57   0
       376    802.1558     23.9334 300.4120459 +22.6127725      580.516     72.49606      1.311     2.49     4.342011     20.45855     95.92176         8     0.820     0.701  21.84   0
       377     26.8546     23.6827 300.1709617 +22.3804148     355.8228     72.56992      1.912     4.12     4.390139     20.45855     42.60352         5     1.053     0.465  57.17   0
       378    656.3959     20.6021 300.3677234 +22.5681711     386.4678      72.3296      1.472     3.48     4.189039     20.45855     44.12569         6     0.811     0.562  42.85   0
       379    559.5099     20.8392 300.3374838 +22.5392228     348.9127     72.51453      1.331     4.46     4.030166     20.45855     43.15434         6     0.958     0.590 -17.31   0
       380    418.1181   1018.1002 299.9696541 +22.7832183     432.6135     72.68058      1.621     5.91     2.954354     20.45855     38.94941        10     1.282     0.767 -56.02  16
       381    795.3389     15.9077 300.4125227 +22.6084227     940.7797     72.58838      1.384     2.55     4.372551     20.45855     119.6286        13     0.991     0.749  47.87   0
       382    609.7844   1011.1949 300.0315356 +22.8387699     2357.524     72.40363      1.897     4.13     2.358933     20.45855      138.266        33     1.428     1.328 -23.90   0
       383    696.2960   1006.3533 300.0600445 +22.8633411     8604.682       72.533      1.976     4.40     2.325831     20.45855     518.1979        51     1.554     1.490  23.86   3
       384    701.8895   1004.1307 300.0625095 +22.8643815     9039.212     72.68058      1.911     4.20      2.35849     20.45855     584.4958        48     1.512     1.440  75.82   3
       385    140.8528    973.4418 299.8980055 +22.6871508     5440.052     72.51453     23.555    77.03     31.23693     20.45855     100.7699      3150    18.112    14.634   0.08  27
       386    101.4787   1007.4895 299.8746988 +22.6850827     779.6107     72.64371      3.653     7.39     21.83381     20.45855     33.77553        10     1.748     0.876 -81.83   1
