#   1 NUMBER                 Running object number                                     
#   2 X_IMAGE                Object position along x                                    [pixel]
#   3 Y_IMAGE                Object position along y                                    [pixel]
#   4 ALPHA_J2000            Right ascension of barycenter (J2000)                      [deg]
#   5 DELTA_J2000            Declination of barycenter (J2000)                          [deg]
#   6 FLUX_APER              Flux vector within fixed circular aperture(s)              [count]
#   7 FLUXERR_APER           RMS error vector for aperture flux(es)                     [count]
#   8 FLUX_RADIUS            Fraction-of-light radii                                    [pixel]
#   9 FWHM_IMAGE             FWHM assuming a gaussian core                              [pixel]
#  10 BACKGROUND             Background at centroid position                            [count]
#  11 THRESHOLD              Detection threshold above background                       [count]
#  12 FLUX_MAX               Peak flux above background                                 [count]
#  13 ISOAREA_IMAGE          Isophotal area above Analysis threshold                    [pixel**2]
#  14 A_IMAGE                Profile RMS along major axis                               [pixel]
#  15 B_IMAGE                Profile RMS along minor axis                               [pixel]
#  16 THETA_IMAGE            Position angle (CCW/x)                                     [deg]
#  17 FLAGS                  Extraction flags                                          
         1    694.1379     16.4852 300.3929576 +22.6015959     852.9732     72.34325      1.698     3.49     5.706382     20.37394     84.13615        12     1.112     0.782 -46.52   0
         2    499.8079     15.8206 300.3326218 +22.5432679     1062.337     72.17781      1.391     2.49     5.198668     20.37394     146.9034        17     1.195     0.816 -44.98   0
         3    403.3151     13.6466 300.3032791 +22.5137669     922.3114     72.19621      1.664     4.19     5.170581     20.37394     102.6897        13     1.126     0.896  50.72   0
         4    174.8142      3.5873 300.2354347 +22.4424741     3751.291     67.10421      1.653     3.22     6.252853     20.37394     378.0798        36     1.440     1.233  44.36  24
         5    743.2383      4.5683 300.4121258 +22.6128516      657.925      70.5209      1.492     3.62     5.715837     20.37394     69.37534        12     0.987     0.884  49.93  16
         6    597.2076      1.2506 300.3676846 +22.5682172     158.5536     55.68014      0.840     1.93     5.151431     20.37394     56.70054         5     0.708     0.413  13.13  24
         7    500.6987      1.3113 300.3376000 +22.5393606     260.8269     56.17889      0.956     2.88     5.167431     20.37394     62.62981         5     0.730     0.452 -10.11  24
         8    177.9047    989.7584 299.9162589 +22.7265730      1446.98       72.233      6.366     8.94     73.42238     20.37394     54.12498        23     2.175     1.027  75.95   3
         9     89.4692   1011.2842 299.8817620 +22.7062102     5181.098     72.32489     16.114    85.32     78.76012     20.37394      173.081      2254    17.943    15.186  59.69  27
        10     79.6691    916.9401 299.9094013 +22.6762137     4395.989     72.25139     21.385    57.35     11.61179     20.37394      759.738      1127    13.314     6.908 -31.36  19
        11    490.0882   1000.5366 300.0098962 +22.8233012      434.727     72.32489      1.765     4.66     3.431096     20.37394     33.86187         7     1.296     0.476  67.46   0
        12      3.1171    994.6146 299.8603483 +22.6755151     1366.426     65.23733     10.867    13.13    -11.02624     20.37394     41.72583        32     2.821     1.700  60.18  27
        13    359.0882    998.0976 299.9699095 +22.7833161       377.91     72.39832      1.528     5.10     4.026076     20.37394     42.13978         9     1.043     0.706 -85.76   0
        14    550.1082    991.4581 300.0315416 +22.8386911      2410.11     72.26977      2.016     4.92     3.463777     20.37394     126.3456        32     1.475     1.340 -78.11   0
        15    636.6890    986.6813 300.0600682 +22.8632748     8706.916     72.32489      2.081     4.80     3.761963     20.37394     475.5079        49     1.599     1.500  20.75   3
        16    642.1273    984.6494 300.0624238 +22.8643216     9607.748     72.21461      2.101     5.00     3.807049     20.37394     495.7538        52     1.582     1.565  71.89   3
        17    736.4814    987.4079 300.0909330 +22.8933932     572.1579       72.141      1.876     6.83     4.180998     20.37394     40.81452        13     1.239     1.198  45.74   0
        18     80.5882    952.7324 299.8980469 +22.6867545     6857.039     72.21461     26.884   102.59     29.82846     20.37394     1350.144      3562    21.486    13.590 -22.59  19
        19      6.3931   1004.6021 299.8581174 +22.6793618     1484.362     72.03043     11.587    14.84    -9.844062     20.37394      46.0081        41     3.379     1.812  85.04  19
        20      1.4996    983.6386 299.8634159 +22.6718827     633.8924     57.16332      4.687     4.94    -10.53884     20.37394     32.51667         5     1.469     0.471 -83.09  27
        21      2.7502    978.2622 299.8655533 +22.6707166     892.1307     63.65021      9.559     9.97    -7.881048     20.37394     40.43946        14     2.417     1.147  61.80  27
        22    241.4370    973.5234 299.9412987 +22.7409760     7705.904     72.17781      9.540    34.38      41.9314     20.37394     171.8645       843    12.007     4.888  64.28  18
        23    170.2036    974.5917 299.9187977 +22.7199123     2174.242     72.03043      5.569    17.03     61.01551     20.37394     50.58256        59     3.521     2.289  49.23   2
        24    500.9480    976.0378 300.0212476 +22.8195258      429.551       72.233      1.854     7.24     3.518023     20.37394     38.25574         8     1.362     1.077  49.32   0
        25    929.7827    970.7680 300.1566292 +22.9465316     831.9893     72.19621      2.103     8.07      3.78128     20.37394     56.54604        18     1.642     1.170  10.60   0
        26    206.4759   1003.4865 299.9206782 +22.7390826     1671.864     72.34325      4.257    23.22     82.55456     20.37394     61.20655        98     4.694     3.189  13.58  19
        27    141.2788    960.0599 299.9145307 +22.7070660     702.3453     72.25139      3.374     4.15     47.01441     20.37394     29.84244         5     1.584     0.310 -59.17   3
        28    147.9161    955.4268 299.9181012 +22.7077286     2042.734     72.21461      9.166    15.36     43.33539     20.37394     53.67884        63     3.360     1.953  33.12   3
        29    534.4941    948.8464 300.0405397 +22.8217778     442.3773       72.233      2.172     4.45     3.501618     20.37394     39.28027         7     1.280     0.440  20.16   0
        30    149.9064   1006.3295 299.9021625 +22.7229250     485.7613     72.34325      3.298     4.95     87.98069     20.37394     38.20003         5     1.508     0.460  -3.93   1
        31    564.3597    944.5005 300.0512556 +22.8294833     1149.497     72.19621      1.600     4.08     3.466623     20.37394      104.275        15     1.357     0.813  84.34   3
        32    562.0000    944.9458 300.0503757 +22.8289038     755.5881     72.12258      1.440     4.84     3.466712     20.37394     76.82898         9     1.011     0.657  77.42   3
        33    165.6961    944.4322 299.9272055 +22.7099092     745.8477     72.17781      4.273     4.47     34.32317     20.37394      34.1856         5     1.163     0.488   4.57   0
        34    655.0309    953.8534 300.0764625 +22.8593468     6953.675       72.233      2.019     4.46     3.782995     20.37394     398.0745        52     1.611     1.486  50.03   0
        35    457.1823    940.7579 300.0190956 +22.7962772     928.7995       72.233      1.927     6.20     3.780632     20.37394     56.91622        20     1.322     1.188  25.27   0
        36    387.9527    938.8477 299.9981657 +22.7749704     6398.023     72.25139      1.981     4.31     3.987956     20.37394     476.6068        44     1.544     1.436 -29.64   0
        37    203.7083    986.4300 299.9253660 +22.7333599     3788.463     72.17781      7.687    24.03     67.24538     20.37394     74.41115       268     5.272     4.694  63.64   3
        38    420.7048    926.0000 300.0125391 +22.7811041     527.9156     72.08574      1.709     6.29     3.962371     20.37394     40.60658        10     1.239     0.898 -55.10   0
        39    223.7274    984.6750 299.9321630 +22.7388623     4997.931     72.26977      8.699    27.48      64.2925     20.37394     95.88826       415     6.378     5.149 -46.03   3
        40    934.4926    917.9611 300.1752758 +22.9327698     2191.329     72.21461      2.079     5.26     4.027761     20.37394     133.7241        34     1.526     1.458   0.05   0
        41    585.3370    914.1463 300.0676625 +22.8270563     271.1253     72.26977      1.351     3.94     3.520319     20.37394     25.02304         6     1.085     0.410 -76.49   0
        42    432.6206    914.0751 300.0201268 +22.7812541     419.0647     72.21461      1.855     5.08     3.927195     20.37394     28.75296         8     1.212     0.601 -28.55   0
        43    722.6589    906.5608 300.1129216 +22.8660323     665.6627     72.21461      2.055     6.52      3.98678     20.37394     54.02892        14     1.359     1.089  51.29   0
        44    758.0352    900.8860 300.1257952 +22.8750024     900.6958     72.19621      1.851     5.19     4.063502     20.37394     62.11501        19     1.348     1.012  19.82   0
        45    780.2000    894.5956 300.1347514 +22.8798363     11580.87     72.03043      1.924     4.41     4.087608     20.37394     689.3964        57     1.553     1.493 -15.42   0
        46    825.6581    895.0539 300.1487773 +22.8935868     393.0885     72.26977      1.674     5.53     4.045864     20.37394     37.36334        11     1.173     0.938  33.42   0
        47      3.5351   1017.9645 299.8528824 +22.6823350     1832.872     67.00517      8.207    20.13    -14.12408     20.37394     48.42908        95     4.631     2.431  75.36  27
        48    970.9121    894.4755 300.1942779 +22.9369289     536.9696     72.34325      1.734     5.41     4.027761     20.37394     35.13918         9     1.235     0.669 -25.10   0
        49      1.6188   1002.5653 299.8572964 +22.6773449     884.6705     57.83327      7.852     8.86    -13.49453     20.37394     48.48863        21     2.577     0.850 -75.66  27
        50     91.9301    886.6912 299.9230485 +22.6712163     1145.936     72.34325      6.648     8.21     8.863703     20.37394        49.12        17     1.727     1.092 -32.17   0
        51    831.2097    882.1779 300.1546959 +22.8915507     429.8664     72.21461      2.197     3.76     4.034707     20.37394     38.26931         5     1.398     0.290  77.94   0
        52    485.5866    882.8249 300.0467801 +22.7881629     527.7725     72.21461      1.919     5.46     3.818875     20.37394      36.1362         7     1.061     0.792 -18.98   0
        53    788.7835    876.6584 300.1432608 +22.8772551     1439.849     72.17781      1.905     4.62      4.06874     20.37394     93.41475        26     1.376     1.263  -2.52   0
        54    971.9005    875.4170 300.2007842 +22.9317477     544.0787     72.12258      1.854     5.90     4.027761     20.37394     37.88004        11     1.490     0.658  48.83   0
        55    234.1741   1000.3618 299.9303093 +22.7464960     1569.007       72.233      3.259    16.49     68.06229     20.37394     56.38441        51     4.084     1.850  -3.79  19
        56    641.2779    873.3348 300.0983634 +22.8321029     565.8734     72.30652      2.152     3.84     3.665668     20.37394       44.453         5     1.363     0.310  57.47   0
        57    827.1714    870.1796 300.1573381 +22.8868939       1052.1     72.21461      2.720     8.09     4.048757     20.37394     54.95249        21     1.713     1.151  65.02   0
        58    934.3896    867.5753 300.1916297 +22.9182602     344.3312     72.21461      1.865     3.39     4.027761     20.37394     30.02295         5     1.092     0.304  68.68   0
        59    898.9393    862.9844 300.1820627 +22.9063236     1258.587     72.17781      0.464    -2.45     4.009577     20.37394     859.4666         6     0.426     0.336  55.29   0
        60    875.6891    861.8141 300.1751906 +22.8990234     545.1352     72.15941      1.721     6.04     3.994239     20.37394     36.56925        11     1.260     0.816  35.99   0
        61    726.7195    860.4142 300.1291936 +22.8539942      607.561     72.19621      1.680     4.77     3.809022     20.37394     58.93814        16     1.275     0.984  -3.25   0
        62    738.0488    857.3265 300.1337292 +22.8565016      545.412     72.21461      1.662     6.44     3.826802     20.37394     41.62436        13     1.157     1.007 -44.44   0
        63    439.1567    856.5773 300.0408581 +22.7667090     4162.069     72.26977      1.812     3.79     3.962566     20.37394     377.7505        38     1.441     1.321 -25.82   0
        64    218.8441    845.4225 299.9759284 +22.6974464     567.8193     72.26977      2.069     4.17     5.061859     20.37394     41.96973         7     0.983     0.597  52.57   0
        65     82.3128    843.8587 299.9339846 +22.6560447      424.567     72.28815      1.455     3.46     5.293349     20.37394     38.81459         5     0.984     0.351  46.30   0
        66    165.1525    842.4310 299.9602034 +22.6804844     767.8673     72.25139      2.052     3.94     7.109181     20.37394       66.384        13     1.137     0.832  82.40   0
        67    141.5221    839.1613 299.9539187 +22.6724584     1577.019     72.19621      1.955     4.39     6.549838     20.37394     108.8765        27     1.418     1.243   1.65   0
        68   1013.3818    828.7341 300.2289093 +22.9307515     2112.214     72.19621      1.914     4.41     4.371739     20.37394     129.8248        32     1.416     1.346  27.53   0
        69    967.6949    827.2748 300.2151256 +22.9166519     2183.169     72.36161      1.980     4.52     4.217225     20.37394     136.6649        30     1.429     1.299  42.64   0
        70    750.9897    820.9429 300.1495928 +22.8499265      676.088     72.17781      1.785     5.92     3.865926     20.37394     56.82028        11     1.095     0.901 -63.41   0
        71    174.3554    821.0742 299.9700077 +22.6771170     359.6899     72.19621      1.408     3.38     5.683842     20.37394     40.28006         5     0.814     0.406  68.96   0
        72    619.1893    814.7650 300.1105234 +22.8086624     5072.483     72.21461      1.745     3.87     3.776205     20.37394     420.4143        41     1.377     1.331  87.69   0
        73    422.5034    811.7283 300.0502541 +22.7488413     526.3505     72.32489      1.346     3.31      4.13409     20.37394     63.37649         8     0.932     0.598  74.13   0
        74    639.8807    807.2560 300.1194116 +22.8127058     691.7184     72.25139      1.897     4.92     3.787469     20.37394      55.3946        13     1.297     1.021  79.41   0
        75    169.3976    808.3491 299.9726024 +22.6719788     1373.942     72.21461      1.918     4.24     5.056368     20.37394      102.708        20     1.286     1.061 -32.18   0
        76    189.0095    805.3627 299.9796719 +22.6770037     443.4749       72.233      1.679     5.85     4.781679     20.37394     46.86708         9     1.171     0.823  -9.56   0
        77    557.0283    798.6293 300.0964033 +22.7854006     341.3715     72.17781      1.724     4.56     3.959527     20.37394     25.83821         6     1.285     0.460  -7.01   0
        78   1012.3284    795.2695 300.2394600 +22.9208164     1097.017     72.28815      1.936     5.11     4.653702     20.37394     65.06147        19     1.226     1.142 -81.91   0
        79    795.3450    794.6937 300.1719555 +22.8556716     4327.215     72.26977      1.779     3.96     3.971238     20.37394     333.6884        37     1.452     1.264  27.75   0
        80    525.8179    792.4012 300.0887066 +22.7742587     242.4961     72.12258      1.331     4.42     4.081725     20.37394     31.58526         5     1.186     0.469 -58.57   0
        81    203.5016    789.0648 299.9894764 +22.6766730     434.7643     72.30652      1.560     5.02     4.581174     20.37394     46.94088        10     1.084     0.657 -18.66   0
        82    512.4531    786.8179 300.0863591 +22.7686499     581.5401     72.19621      1.627     6.13     4.145808     20.37394     49.62749        12     1.322     0.800  29.88   0
        83    158.4680    784.8520 299.9768411 +22.6619586     1075.881       72.233      1.888     4.62     4.652349     20.37394     87.39614        24     1.436     1.198  12.86   0
        84    308.2926    776.9431 300.0260148 +22.7046158     53477.54     72.26977      1.787     3.61     4.376757     20.37394     4679.256        97     1.534     1.498  18.57   0
        85    574.0222    780.3511 300.1076382 +22.7852438      487.507     72.21461      1.758     4.39     4.050972     20.37394      46.1342         7     0.912     0.602  27.81   0
        86    979.1100    775.8859 300.2353937 +22.9052985     859.8755     72.37997      1.797     4.73     4.535443     20.37394     59.61997        17     1.298     0.942  23.11   0
        87    566.0570    776.0799 300.1065453 +22.7816302     1627.046     72.25139      1.695     3.73     4.090968     20.37394     138.7655        28     1.324     1.236  17.64   0
        88    236.8430    774.9994 300.0044181 +22.6826346     487.6418     72.21461      1.823     5.18     4.490309     20.37394     52.02082         8     1.201     0.632  40.68   0
        89    595.3201    772.0231 300.1169801 +22.7892338      808.933     72.17781      1.559     4.25     4.076217     20.37394     73.38612        17     1.163     1.037  44.06   0
        90    606.1934    770.8563 300.1207470 +22.7921567     800.0773     72.21461      1.826     3.82     4.068526     20.37394     62.16618        16     1.137     0.980 -32.10   0
        91    925.5373    768.1996 300.2211756 +22.8870482     313.5473     72.17781      1.635     5.23     4.298499     20.37394     29.99395         6     1.121     0.688 -66.07   0
        92    711.4020    767.1235 300.1547468 +22.8226050     409.8181     72.12258      1.520     4.95     3.816433     20.37394     40.88632         7     1.302     0.532   7.98   0
        93    357.9889    754.2037 300.0488700 +22.7129868     31920.05     72.04887      1.690     3.37     4.324514     20.37394     2847.742        76     1.458     1.423   9.52   0
        94    749.0237    756.8666 300.1698084 +22.8309277     732.4863     72.19621      1.634     4.52     3.854256     20.37394     64.34429        13     1.034     0.949  27.36   0
        95    372.3777    754.6581 300.0532006 +22.7174305      1932.47     72.21461      1.786     3.47     4.320557     20.37394     189.2871        28     1.322     1.219  66.53   2
        96    369.1786    748.5374 300.0541941 +22.7147143     620.5087     72.17781      1.727     4.08     4.322688     20.37394      58.1139        13     1.099     1.007 -58.29   2
        97    881.1712    750.3119 300.2131488 +22.8686216     2876.788     72.21461      1.804     3.85     4.236805     20.37394     197.2077        33     1.391     1.297  87.58   0
        98    639.0389    746.3422 300.1389485 +22.7949560     942.9674     72.21461      1.628     3.53     4.059409     20.37394     89.09955        17     1.177     0.957  23.11   0
        99    475.3390    746.2529 300.0879855 +22.7458779     316.3086     72.26977      1.516     4.70     4.392886     20.37394     42.41071         8     1.107     0.850 -14.70   0
       100    240.6491    746.0172 300.0150209 +22.6754576     767.6555     72.25139      1.610     4.05     4.424669     20.37394     80.79091        16     1.153     1.071  29.89   0
       101    485.9628    741.1820 300.0929416 +22.7476055     886.0931     72.21461      1.736     5.04     4.412984     20.37394      71.0135        15     1.184     0.969 -81.89   0
       102     45.8540    741.5703 299.9558982 +22.6157637     415.5518     72.21461      1.587     3.29     4.566796     20.37394     49.14141         7     0.890     0.563  79.39   0
       103    887.5608    738.4046 300.2190119 +22.8671125     528.5491       72.233      1.633     5.12     4.320511     20.37394     52.80994        13     1.206     1.010   7.14   0
       104    634.9507    738.6133 300.1401864 +22.7915109     263.3962     72.25139      1.434     3.90     4.123041     20.37394     31.31619         5     0.895     0.487  -0.93   0
       105    388.4488    737.8959 300.0636502 +22.7174354     271.4976     72.26977      1.489     4.12     4.337611     20.37394     38.74181         5     0.777     0.623 -16.10   0
       106     73.2475    736.1070 299.9661879 +22.6224126     438.6328       72.233      1.708     5.41      4.57757     20.37394     49.77041         8     1.865     0.443 -28.07   0
       107    432.1461    735.4999 300.0780317 +22.7298448     355.2706     72.30652      1.694     5.40     4.381862     20.37394     29.98577         8     1.159     0.710  67.09   0
       108    344.5056    736.3040 300.0504908 +22.7038060     323.3795     72.39832      1.407     3.51     4.315557     20.37394     44.00771         5     0.778     0.714  -2.16   0
       109    864.7581    733.0585 300.2136364 +22.8587477      380.511     72.19621      1.789     4.70     4.272554     20.37394     39.71148         7     1.061     0.591  69.88   0
       110    237.6702    730.2537 300.0192167 +22.6700399     634.7141     72.25139      1.801     6.27     4.435238     20.37394     59.60122        11     1.146     0.965  46.61   0
       111    561.4418    721.3193 300.1229044 +22.7645188     525.7686     72.19621      1.884     3.72     4.425948     20.37394     46.00132         8     0.905     0.691 -12.23   0
       112    530.9780    719.0223 300.1141619 +22.7547309     618.4617     72.21461      1.451     4.33     4.442409     20.37394     55.69602        13     1.013     0.972  -3.33   0
       113    947.6135    715.6932 300.2451286 +22.8785646     4696.636       72.141      1.812     3.92     4.802134     20.37394     308.5765        41     1.444     1.341  74.90   0
       114    553.0999    716.5872 300.1218436 +22.7606600     1365.809     72.12258      1.549     3.45      4.44622     20.37394     124.9578        20     1.112     1.073  -0.45   0
       115    440.6504    718.0571 300.0863474 +22.7273848     241.2314     72.26977      1.450     3.64     4.422722     20.37394     45.71816         5     0.952     0.572 -13.64   0
       116    473.4433    716.4355 300.0970848 +22.7367469     400.4529     72.26977      1.747     3.85     4.453505     20.37394     50.73172         6     0.857     0.572 -39.56   0
       117    936.1729    707.1422 300.2443375 +22.8726811     1711.042     72.21461      1.822     3.98     4.896908     20.37394     123.8968        27     1.362     1.236   3.73   0
       118    299.0275    700.9622 300.0478229 +22.6800266     966.1798       72.233      1.776     4.52     4.359994     20.37394      75.7532        20     1.350     1.071 -39.34   0
       119    762.4142    698.2519 300.1930315 +22.8180950     2587.392     72.25139      1.723     3.46      4.15397     20.37394     218.3397        31     1.477     1.164   2.73   0
       120    967.5232    697.2157 300.2573456 +22.8792129     1579.111     72.21461      1.798     4.36     4.960129     20.37394     118.8146        29     1.463     1.244 -17.41   0
       121    844.9460    684.3638 300.2232805 +22.8388187     494.6716       72.233      1.518     5.54     4.833931     20.37394     52.02392        13     1.341     0.779  20.22   0
       122    147.4948    684.0444 300.0061861 +22.6297387     665.0827       72.233      1.943     5.61     4.898404     20.37394     61.86248        12     1.593     0.866  38.39   0
       123    880.8802    675.2953 300.2374355 +22.8469713       148832     72.32489      1.689     3.42     5.083658     20.37394      12042.9       157     1.551     1.524 -66.16   0
       124    643.6833    679.1158 300.1622409 +22.7770335     368.8131     72.34325      1.678     4.47     4.441252     20.37394     32.52547         7     0.868     0.654 -14.08   0
       125    733.0596    675.6966 300.1912085 +22.8028215     726.8389     72.28815      1.472     2.85     3.999411     20.37394     89.06576        13     1.074     0.765   6.66   0
       126     44.3587    674.8654 299.9771062 +22.5961760     293.8747     72.17781      1.592     4.21     4.683408     20.37394      37.3273         5     1.025     0.492 -52.25   0
       127    913.4088    668.2867 300.2498604 +22.8546953     393.7676       72.141      1.565     5.03     5.247432     20.37394     44.47233        10     1.087     0.711   9.43   0
       128    567.0230    664.1301 300.1432247 +22.7497628     1628.496       72.233      1.590     3.01     4.721287     20.37394     178.0605        23     1.151     1.083  58.35   0
       129    748.3551    661.3714 300.2006311 +22.8032855     9531.907     72.25139      1.604     3.16      4.26976     20.37394     903.2981        43     1.311     1.249 -77.41   0
       130    230.2974    662.4681 300.0389470 +22.6483716     315.7298     72.32489      1.748     4.09     4.693046     20.37394     35.72759         5     0.788     0.720 -46.22   0
       131    249.7929    656.2449 300.0470330 +22.6524295     4923.407       72.233      1.660     3.34     4.641907     20.37394     420.3848        37     1.316     1.265  11.87   0
       132    331.9252    654.4623 300.0731666 +22.6765370     1314.875     72.25139      1.729     3.88     4.545429     20.37394     110.8083        21     1.389     0.956  25.18   0
       133    207.5742    651.9462 300.0352971 +22.6385388     402.4824       72.233      1.462     4.78     4.804471     20.37394     56.80882         8     1.081     0.714  65.73   0
       134    540.1681    649.8863 300.1394869 +22.7376253     795.4901     72.19621      1.765     4.80     4.824497     20.37394     63.84787        13     1.215     0.838  50.94   0
       135    531.7412    642.1031 300.1393905 +22.7328647      3425.88     72.28815      1.534     3.02     4.877278     20.37394     314.4645        32     1.285     1.128  -2.79   0
       136    522.0481    635.8427 300.1384051 +22.7281622     1440.365       72.233      1.541     3.11     4.914326     20.37394     140.8388        18     1.101     0.980 -53.80   0
       137    915.5352    633.9874 300.2616670 +22.8454706     376.7026     72.15941      1.625     4.24     5.155538     20.37394      39.8832         7     1.070     0.535  63.23   0
       138    185.5883    632.0061 300.0349363 +22.6262234     533.5624     72.08574      1.454     4.24     4.931535     20.37394     58.96764        11     1.181     0.707  17.33   0
       139    199.6772    630.1436 300.0399230 +22.6299125     646.0996     72.25139      1.751     4.66     4.890502     20.37394     62.96424        13     1.245     1.015  67.63   0
       140    969.1213    626.9615 300.2806697 +22.8594909     519.4304     72.19621      1.767     5.98     5.141822     20.37394     42.64784        11     1.189     0.846  33.71   0
       141    545.6283    626.3186 300.1488434 +22.7324905     527.8006       72.233      1.668     4.45     5.020364     20.37394     54.23087        10     1.047     0.834  44.85   0
       142    446.8579    625.5078 300.1183476 +22.7026650     1817.243     72.26977      1.608     3.20     4.845592     20.37394      170.798        24     1.205     1.102 -76.66   0
       143    225.5024    627.0825 300.0489498 +22.6367756     685.9733     72.37997      1.708     4.71     4.816083     20.37394     73.18591        11     1.083     0.842  30.16   0
       144   1022.4188    623.3737 300.2984694 +22.8744112     772.9479     62.83105      1.602     4.65     5.081413     20.37394     72.22516        17     1.211     1.090  81.83  24
       145    100.7820    620.2654 300.0123801 +22.5974267     19971.51     72.19621      1.796     3.54     5.069266     20.37394     1737.049        66     1.535     1.463  31.10   0
       146     21.8491    621.8796 299.9873214 +22.5742208     657.7191     72.21461      1.637     4.84     4.730629     20.37394     63.61259        13     1.213     0.986  86.99   0
       147    531.9156    620.7034 300.1463961 +22.7267692     977.3232     72.37997      1.564     3.93     5.049506     20.37394     112.6655        19     1.257     1.055 -60.50   0
       148    567.0754    620.1360 300.1575324 +22.7371392     390.7041     72.26977      1.330     4.92     5.059222     20.37394     41.51786         9     1.136     0.615  25.78   0
       149    256.3576    627.1469 300.0585271 +22.6460434     473.4169     72.21461      1.973     3.94     4.763874     20.37394     33.27623         7     0.848     0.615 -60.16   0
       150    903.4858    616.9736 300.2634346 +22.8369717     295.2673     72.19621      1.512     4.11     5.033093     20.37394     33.61927         5     0.751     0.642  -5.14   0
       151    949.6541    607.5327 300.2809061 +22.8480770     1136.418     72.25139      1.625     3.66     5.145092     20.37394     100.0082        21     1.342     0.948  26.80   0
       152     46.6836    604.7437 300.0006050 +22.5767504     1566.352     72.30652      2.174     5.48       4.8785     20.37394      105.359        31     1.556     1.388  86.20   0
       153    816.8721    605.3217 300.2402031 +22.8076915     502.0994     72.32489      1.488     3.67     4.848273     20.37394     46.82485        12     1.075     0.781 -26.02   0
       154    112.8605    605.2692 300.0210057 +22.5967440     397.9365     72.25139      2.003     4.42     5.066516     20.37394     44.52929         6     1.038     0.535 -30.76   0
       155    494.8964    602.0047 300.1409400 +22.7103069     399.0453     72.12258      1.458     4.93     5.161463     20.37394     46.66446        10     0.984     0.726  -3.01   0
       156    288.3549    600.7411 300.0770583 +22.6480523     328.9663     72.25139      1.258     3.47     4.833672     20.37394     40.66611         5     0.774     0.450 -75.01   0
       157    890.1778    599.7686 300.2648714 +22.8280411     983.0544     72.21461      2.538     5.67     4.928848     20.37394     61.09579        15     1.256     0.939  59.40   2
       158    452.1109    593.6684 300.1303245 +22.6950933     707.1384     72.37997      1.505     4.05     5.053398     20.37394      85.3843        14     1.131     0.892 -67.78   0
       159    599.7217    592.6985 300.1766148 +22.7390347     421.0083     72.34325      1.414     4.44     5.165752     20.37394     60.07259        10     1.163     0.774  -6.66   0
       160    647.1241    591.1901 300.1918751 +22.7527988     477.5628     72.19621      1.470     3.22     5.082007     20.37394     56.50069        10     0.921     0.746  55.55   0
       161    617.6290    590.6647 300.1828548 +22.7438139     565.8477       72.233      1.477     3.02     5.132971     20.37394     69.52976        12     1.037     0.760  -4.49   0
       162    495.9885    589.7296 300.1452669 +22.7071076     857.1501       72.233      1.481     3.51     5.216321     20.37394     99.90438        14     1.044     0.904 -63.43   0
       163    929.9850    585.3082 300.2819875 +22.8357988     3406.404       72.141      1.642     3.29     5.092108     20.37394      296.717        31     1.280     1.217  87.19   0
       164    461.5826    585.0818 300.1360624 +22.6954646     1632.092     72.19621      1.529     3.38      5.12949     20.37394     162.6073        20     1.204     0.965  70.64   0
       165    826.8398    582.5165 300.2507187 +22.8041196     268.4983     72.17781      1.577     3.83     4.872199     20.37394     41.80308         5     0.875     0.552  47.62   0
       166     23.5817    578.4490 300.0019642 +22.5622766     5153.957       72.233      1.908     3.74     4.790883     20.37394     450.6814        43     1.476     1.400  -4.89   0
       167    969.2201    575.8095 300.2973154 +22.8448105      294.723     72.19621      1.454     2.49     5.071375     20.37394      46.6655         5     0.810     0.636 -27.83   0
       168    325.0346    571.7454 300.0978882 +22.6507184     9066.706       72.233      1.547     3.03     4.824298     20.37394     1008.045        41     1.300     1.220  33.83   0
       169    447.5073    568.8231 300.1369598 +22.6865769     9028.911       72.141      1.506     2.89     5.141864     20.37394     1067.642        40     1.275     1.174  42.68   0
       170    943.9050    560.4323 300.2944099 +22.8328116     12455.86     72.19621      1.654     3.25     5.034517     20.37394      1111.71        52     1.425     1.321  87.08   0
       171    859.2139    562.9820 300.2671602 +22.8081948     1813.326     72.17781      1.553     3.32     4.817937     20.37394     167.2128        23     1.201     1.056 -69.29   0
       172    508.0595    558.4447 300.1591860 +22.7017357     11455.11       72.233      1.462     2.73     5.412707     20.37394     1226.618        44     1.246     1.202  53.12   0
       173    677.8566    554.6848 300.2133083 +22.7515108     426.8057     72.30652      1.206     3.21     5.159648     20.37394     64.91576         8     0.876     0.656  13.84   0
       174    235.6425    553.8200 300.0758965 +22.6187801     1368.355     72.25139      1.554     3.12     4.865813     20.37394     160.9561        17     1.096     0.957  20.80   0
       175    482.6788    550.8154 300.1537592 +22.6919405     359.6249       72.233      1.458     5.50     5.327128     20.37394     53.58379         9     1.096     0.998  56.39   0
       176    439.7938    546.5671 300.1417853 +22.6778724     4446.485     72.21461      1.517     2.81     5.211027     20.37394     527.0646        28     1.163     1.127  78.96   0
       177    782.6584    546.7596 300.2485532 +22.7806124     800.9308     72.21461      1.470     3.38     5.012682     20.37394     76.88737        15     1.055     0.953  24.04   0
       178    417.9693    545.1035 300.1354658 +22.6709133     1232.782     72.15941      1.468     3.14     5.156874     20.37394     135.6529        18     1.178     0.926 -65.64   0
       179    859.6660    542.3401 300.2740045 +22.8023948     1574.532     72.25139      1.622     3.20     4.818901     20.37394     150.4995        23     1.358     1.043 -70.84   0
       180    172.6848    544.5364 300.0593293 +22.5972438     850.9934     72.30652      1.814     2.71     4.965356     20.37394     76.56779        11     0.909     0.742 -42.37   0
       181    105.9288    541.8006 300.0394605 +22.5764470      278.073     72.10416      1.432     4.65     5.047575     20.37394     32.92705         7     1.352     0.455  47.16   0
       182    960.2166    540.7877 300.3058793 +22.8320436     205.6301     72.15941      1.153     3.68      5.00086     20.37394     33.30243         5     0.952     0.409 -44.90   0
       183    556.3912    534.1920 300.1821153 +22.7092441       206670     72.06731      1.499     2.78     5.618914     20.37394     21840.35       188     1.504     1.416 -23.49   0
       184    379.7333    540.2935 300.1251251 +22.6580755     471.9597     72.36161      1.776     5.10     4.980331     20.37394     41.49519         9     1.063     0.921 -66.52   0
       185    740.1312    539.1373 300.2377689 +22.7656887     869.6494     72.26977      1.452     3.08     5.021208     20.37394     95.52655        14     1.045     0.862  82.38   0
       186    242.4285    534.0483 300.0844272 +22.6151364     3555.746       72.233      1.596     3.09     4.856347     20.37394     368.1766        28     1.217     1.142  42.18   0
       187    808.3898    530.8674 300.2617376 +22.7837466     535.8312     72.21461      1.607     3.73     4.994219     20.37394     49.33848         9     1.109     0.653  -4.71   0
       188    422.1122    531.0292 300.1413255 +22.6681114     279.7503     72.21461      1.484     3.95     5.248908     20.37394     33.62914         7     0.866     0.664 -33.74   0
       189    447.0524    514.6747 300.1544004 +22.6708846     2945.033       72.233      1.606     2.63     5.408064     20.37394     308.7208        34     1.635     1.090 -86.01   0
       190    291.0283    516.8850 300.1051197 +22.6247720     420.2271     72.21461      1.513     3.58     4.819034     20.37394     65.66293         8     1.031     0.703  35.37   0
       191    603.8224    512.2307 300.2040226 +22.7171383     223.6538     72.21461      1.380     4.45     5.331854     20.37394     27.54757         5     0.769     0.733  32.94   0
       192    858.3567    511.3804 300.2836489 +22.7931003     326.5114       72.233      1.329     3.18     4.825644     20.37394     43.49118         5     0.728     0.463  14.95   0
       193    677.6030    510.4298 300.2275991 +22.7387143      291.532     72.17781      1.401     4.61     5.358361     20.37394     27.74345         7     1.139     0.530 -43.98   0
       194    764.2703    503.3316 300.2569208 +22.7626218      439.909     72.25139      1.513     4.49     5.032205     20.37394     44.91299         7     1.080     0.531 -27.86   0
       195    844.0059    500.9706 300.2825526 +22.7858114     1587.536     72.21461      1.451     2.88     4.872845     20.37394     165.6071        20     1.074     0.980  -5.98   0
       196    715.2713    498.3016 300.2432780 +22.7465062     2573.023     72.36161      1.493     2.79     5.182909     20.37394     302.7884        26     1.209     1.073  88.80   0
       197    958.2134    492.0380 300.3210831 +22.8174226      949.803       72.233      2.026     7.36     5.005177     20.37394     69.72117        17     1.865     0.813  46.42   2
       198    925.1163    496.2462 300.3093894 +22.8087285     74.52437     72.19621      1.201     3.66     4.908175     20.37394     33.67989         5     1.130     0.341 -14.14   0
       199    620.1107    495.0887 300.2146631 +22.7170892     526.0269     72.37997      1.516     4.53     5.363006     20.37394     45.28803         7     0.877     0.664  34.65   0
       200    502.6728    494.3454 300.1783205 +22.6817043     736.8746     72.21461      1.408     3.22     5.659899     20.37394     72.39598        13     0.992     0.855   0.25   0
       201    972.7184    492.5858 300.3254317 +22.8219206     1513.307     72.19621      1.760     3.11     5.054224     20.37394     139.5309        22     1.210     1.114  82.05   0
       202    844.2933    490.9108 300.2859083 +22.7830046     2267.323     72.37997      1.748     4.10     4.872845     20.37394     219.2163        27     1.515     1.045  70.50   0
       203    597.5172    489.1299 300.2095579 +22.7086107     531.3039     72.32489      1.513     3.50     5.427027     20.37394     59.18282         9     0.991     0.664 -20.28   0
       204    383.5486    488.5551 300.1431102 +22.6443561     332.3546       72.233      1.620     4.01     5.145165     20.37394     44.85722         5     1.071     0.430 -55.20   0
       205    882.4886    486.0464 300.2994017 +22.7930375     4363.476     72.19621      1.533     2.97     4.827521     20.37394     406.7606        35     1.260     1.191  86.86   0
       206    436.0690    487.9779 300.1596478 +22.6599241     255.4261       72.233      1.204     2.96     5.531691     20.37394     44.43267         7     0.873     0.514 -37.92   0
       207    597.1718    485.0188 300.2107849 +22.7073257     417.0374     72.21461      1.510     2.89     5.442739     20.37394     53.33901         5     0.684     0.526  -0.97   0
       208    523.5778    485.2989 300.1877682 +22.6853660     238.9971       72.141      1.184     4.78     5.728869     20.37394     34.29636         6     0.929     0.698 -14.28   0
       209    543.2134    481.2182 300.1952091 +22.6900741     360.5161     72.17781      1.455     5.35     5.764499     20.37394     46.81932         7     1.212     0.666 -47.12   0
       210    974.2235    476.6264 300.3310827 +22.8177802     948.4531     72.17781      1.857     4.32     5.060311     20.37394     84.03851        15     1.233     0.880  50.96   0
       211    114.3166    475.9479 300.0634467 +22.5600553     1018.727     72.25139      1.724     4.18     5.022876     20.37394     109.9816        20     1.425     1.062  57.56   0
       212    970.8233    465.6635 300.3335805 +22.8136092     330.1501     72.19621      1.448     5.00     5.022261     20.37394     38.95501         7     0.943     0.750  57.01   0
       213    107.0559    466.0005 300.0644181 +22.5550229      447.657       72.141      1.610     3.07     5.032922     20.37394     46.47568         7     0.854     0.543 -42.22   0
       214    714.7687    460.6165 300.2553551 +22.7355215     495.4059     72.19621      1.480     2.74     5.226568     20.37394     69.43259        10     0.939     0.779 -54.64   0
       215    603.4657    458.2390 300.2214391 +22.7015131     300.9934     72.17781      1.305     4.64     5.353124     20.37394     33.85678         7     0.925     0.662 -15.34   0
       216    656.0413    456.4044 300.2384178 +22.7167281     825.0181       72.233      1.427     3.10     5.470341     20.37394     108.9957        12     1.066     0.772 -57.08   0
       217    634.7612    454.7411 300.2323262 +22.7098784     279.9605       72.233      1.165     3.73     5.398952     20.37394      43.8889         6     1.037     0.385 -12.56   0
       218    970.5391    449.0166 300.3388957 +22.8087354     629.2341     72.15941      1.636     4.17     4.980985     20.37394     67.16592        13     1.135     0.989 -16.55   0
       219    716.4878    448.5217 300.2598170 +22.7325587     859.0811     72.36161      1.516     3.42     5.224407     20.37394     101.1343        14     1.117     0.817  54.69   0
       220    873.9470    444.8735 300.3101028 +22.7786396     878.7645       72.233      1.502     3.14     4.916603     20.37394     104.0451        13     0.960     0.909  65.25   0
       221    858.3021    441.2031 300.3064140 +22.7729019     705.6562     72.12258      1.606     4.33     4.944747     20.37394     63.96641        14     1.213     0.896  78.22   0
       222    839.0650    441.5957 300.3002864 +22.7672576     342.6527     72.21461      1.444     4.15     4.974822     20.37394     38.72647         6     1.008     0.646  53.49   0
       223    602.4926    439.1390 300.2273355 +22.6957315     3227.503     72.28815      1.402     2.80      5.30654     20.37394     348.6822        26     1.154     1.050  62.91   0
       224     78.9128    430.6037 300.0671572 +22.5364241     422.0895       72.141      1.835     4.31     5.157891     20.37394     42.49645         7     0.938     0.822 -24.38   0
       225    962.7679    438.1048 300.3400124 +22.8032711     670.2983     72.19621      1.830     4.27     4.943691     20.37394     58.03405        11     1.188     0.758  51.30   0
       226    374.7502    427.3483 300.1602384 +22.6241357     195.0952     72.25139      1.296     3.49     5.263604     20.37394      32.9791         5     0.772     0.456 -12.68   0
       227    442.0264    426.1360 300.1815758 +22.6439391     519.2203     72.19621      1.649     4.87     5.372258     20.37394     58.02579         9     1.018     0.786 -23.91   0
       228   1013.7867    418.3136 300.3623592 +22.8128412     1299.055     72.15941      1.648     3.60     4.908425     20.37394     127.1277        21     1.241     1.081 -51.41   0
       229    886.1463    418.3707 300.3225107 +22.7746673     499.7217     72.21461      1.300     3.55     4.973627     20.37394     62.64661        10     0.899     0.792 -22.87   0
       230    972.2082    417.2457 300.3497288 +22.8000947      1032.14       72.233      1.677     3.39     4.903288     20.37394     103.3561        16     1.090     1.050  -3.60   0
       231    622.0068    415.3196 300.2411467 +22.6947272     319.3359       72.141      1.370     4.94     5.275146     20.37394     39.71816         8     1.019     0.678 -56.61   0
       232    713.1363    413.2636 300.2702159 +22.7214178       1132.7     72.25139      1.397     3.07     5.252657     20.37394     132.6531        19     1.144     0.924  73.10   0
       233    509.1604    413.8611 300.2064653 +22.6605177       539.41     72.21461      1.816     3.94      5.40907     20.37394     52.00563         8     1.047     0.527 -53.19   0
       234    216.9362    411.0718 300.1164152 +22.5721789     630.9436     72.25139      1.666     3.97     5.033696     20.37394     61.40625        12     1.104     0.866  78.75   0
       235    279.4550    406.8820 300.1372242 +22.5897074     3796.086     72.26977      1.521     2.79     4.908581     20.37394     461.4808        32     1.226     1.166  42.17   0
       236   1012.5759    405.6380 300.3660952 +22.8088319     4391.336       72.233      1.658     3.33     5.023941     20.37394     410.4494        38     1.360     1.254 -73.04   0
       237    226.6402    401.6089 300.1225045 +22.5723685     7689.336     72.21461      1.599     3.00     5.085836     20.37394      908.331        41     1.342     1.217  62.46   0
       238    992.5628    396.6602 300.3627623 +22.8002616     1909.963       72.233      1.659     3.22     5.070426     20.37394     187.7093        26     1.312     1.110 -68.32   0
       239    367.4755    395.9146 300.1681750 +22.6129250      4710.71     72.32489      1.484     2.78     5.305636     20.37394      577.332        35     1.190     1.187 -16.96   0
       240    611.6718    392.7140 300.2452625 +22.6851341     18690.76     72.32489      1.450     2.57     5.240695     20.37394     2512.117        55     1.284     1.180  85.64   0
       241    628.8932    392.9942 300.2505378 +22.6903706     861.3012     72.10416      2.224     6.87     5.297139     20.37394     61.62982        16     1.405     0.942 -68.13   0
       242    238.6638    390.6865 300.1297890 +22.5728337     302.8109     72.30652      1.514     4.47     5.135059     20.37394     35.19803         5     1.224     0.661 -42.33   0
       243    854.7259    388.6348 300.3223598 +22.7567117     223.5203     72.19621      1.338     4.64     5.018291     20.37394      33.4438         6     1.095     0.557  55.74   0
       244    808.7663    383.1392 300.3098088 +22.7413773     376.6669       72.233      1.317     3.09     5.050189     20.37394     45.73412         8     0.804     0.738  89.60   0
       245    231.2318    380.3565 300.1308290 +22.5676396     368.2229     72.26977      1.640     3.40     5.231649     20.37394     34.18903         5     0.758     0.443  17.32   0
       246    690.8930    379.8985 300.2741100 +22.7051656      642.048     72.39832      0.463     2.08     5.315069     20.37394     481.7422         5     0.504     0.265  19.82   0
       247    945.2321    375.3280 300.3549143 +22.7799641      749.662     72.21461      1.676     4.32     4.991035     20.37394     88.86747        15     1.325     0.959 -59.47   0
       248    482.2112    374.9123 300.2107116 +22.6412530     336.1473     72.15941      1.471     3.81     5.234894     20.37394     35.65358         5     0.850     0.490 -30.64   0
       249    166.2660    372.5384 300.1131593 +22.5459282     2125.971     72.25139      1.672     3.25      5.30537     20.37394     229.7706        28     1.296     1.174  42.16   0
       250    966.0866    362.9384 300.3654425 +22.7826384     1275.563     72.30652      1.567     2.99     5.164181     20.37394      127.827        21     1.226     1.074  -0.14   0
       251    552.3264    362.1281 300.2366981 +22.6585732     6680.196     72.26977      1.418     2.60     5.293847     20.37394     694.1082        38     1.250     1.109  83.17   0
       252    267.3212    361.3410 300.1482261 +22.5729892     553.7112     72.25139      1.372     3.31     5.312207     20.37394     68.79401        11     0.964     0.811 -69.30   0
       253    125.1579    354.6109 300.1061929 +22.5284610     395.1307     72.21461      1.393     3.77     5.479239     20.37394     59.34751        12     1.158     0.776 -46.70   0
       254    812.4901    354.3118 300.3203242 +22.7342002     323.3639     72.37997      1.300     3.84     5.048109     20.37394     44.26972         6     0.913     0.462  -2.25   0
       255    756.5214    351.3502 300.3038326 +22.7165990      1111.34     72.21461      1.422     2.87      5.08829     20.37394     136.5401        17     1.087     0.893  80.59   0
       256    666.0464    352.0265 300.2754096 +22.6897136     488.6106       72.233      1.400     3.54     5.304706     20.37394     57.24728         9     0.924     0.702 -19.27   0
       257    458.9691    348.3491 300.2120927 +22.6266582     6122.369     72.25139      1.410     2.66     5.212969     20.37394     772.0567        35     1.194     1.115  86.93   0
       258    850.9596    342.9947 300.3359945 +22.7424561     1361.715       72.233      1.479     2.98     5.030138     20.37394      160.687        19     1.079     1.052  42.69   0
       259    948.1401    343.2377 300.3662344 +22.7716011     497.8114       72.233      1.344     3.77     5.063189     20.37394      54.9393        11     1.048     0.730 -12.25   0
       260    443.6793    337.3779 300.2108912 +22.6189262     472.8043     72.17781      1.432     3.41     5.240039     20.37394     46.30347        10     0.868     0.819  47.65   0
       261    526.1886    335.4775 300.2372030 +22.6430861     404.9794     72.21461      1.211     3.38     5.213247     20.37394     49.37081         6     0.783     0.498  -4.22   0
       262    506.6753    333.1699 300.2318739 +22.6365801      235.076     72.21461      1.220     4.68     5.193569     20.37394     37.23889         6     0.943     0.658   9.94   0
       263    823.3349    330.6690 300.3313774 +22.7306445     634.7385     72.26977      1.392     2.96     5.056943     20.37394     68.29048        12     0.993     0.793   6.13   0
       264    346.5536    327.4763 300.1838683 +22.5869927     2597.193     72.21461      1.467     2.64     5.382022     20.37394     347.4319        20     1.131     0.958  67.84   0
       265     64.7873    325.0070 300.0970280 +22.5018678     980.1834     72.10416      1.556     3.43      5.59846     20.37394     109.2973        16     1.175     0.935  -9.77   0
       266    693.6802    322.3879 300.2936385 +22.6894619     295.4171     72.19621      1.353     3.97     5.261885     20.37394     40.09876         6     0.890     0.506  49.06   0
       267    315.8771    316.9346 300.1777410 +22.5747754     30086.77     72.30652      1.497     2.98     5.425991     20.37394      3225.07        72     1.388     1.288  57.07   0
       268    850.6146    314.5398 300.3451186 +22.7341670     1443.737     72.17781      1.484     2.92     5.055544     20.37394     168.6342        21     1.141     1.022 -80.73   0
       269    805.8792    312.3603 300.3318732 +22.7201546     260.6413     72.19621      1.415     4.12      5.07899     20.37394     47.16959        10     0.979     0.842  33.80   0
       270     12.1278    304.5743 300.0872883 +22.4802188     4917.231       72.233      1.832     3.62      5.71379     20.37394      497.804        43     1.510     1.341  59.74   0
       271    765.8090    303.5797 300.3222265 +22.7056385     532.8224     72.19621      1.475     3.37     5.149318     20.37394     57.05177        11     1.078     0.708   3.27   0
       272    190.3022    303.5232 300.1430240 +22.5333053     465.6348     72.36161      1.644     3.67     5.529032     20.37394     55.66799         7     0.832     0.781   4.12   2
       273    414.4480    302.4521 300.2131202 +22.6001343     620.0057     72.25139      1.448     3.45     5.316424     20.37394     63.41142        11     0.991     0.792  10.77   0
       274    726.3101    296.7964 300.3121121 +22.6918672     1941.423     72.12258      1.453     2.88     5.232381     20.37394     208.7522        18     1.062     0.932  74.99   0
       275    534.5859    291.7457 300.2540051 +22.6330278     441.0918     72.21461      1.610     5.02     5.156783     20.37394     46.36706         9     0.937     0.762  -0.51   0
       276    941.7970    289.8708 300.3815684 +22.7543475     719.5075     72.15941      1.591     4.71     5.016753     20.37394     68.78421        15     1.158     1.046 -48.18   0
       277    795.2554    283.2341 300.3380084 +22.7085971     230.7343       72.233      1.086     3.42     5.120882     20.37394     34.13957         5     0.958     0.353 -44.64   0
       278    388.1342    281.3401 300.2117763 +22.5861864     2291.599     72.25139      1.659     3.14     5.384803     20.37394      234.053        24     1.427     0.959  65.11   0
       279    600.2002    280.5599 300.2780746 +22.6494535      406.033       72.233      1.426     3.68     5.301364     20.37394     50.10636         6     0.899     0.562 -61.94   0
       280    827.3859    274.4891 300.3508654 +22.7156948       708.49     72.15941      1.469     2.80     5.142963     20.37394     82.20577         9     0.932     0.609  -3.84   0
       281    726.8177    272.4950 300.3201530 +22.6850293     252.9628       72.141      1.373     2.29     5.266146     20.37394     44.68689         5     0.714     0.473  17.71   0
       282    719.8763    271.6894 300.3182503 +22.6827204     2611.889     72.37997      0.706     1.74     5.274976     20.37394     1035.154         8     0.624     0.377 -76.04   0
       283    709.7097    271.9785 300.3149872 +22.6797611     417.0335       72.141      1.368     5.04     5.287589     20.37394     44.66993         9     1.080     0.667 -17.65   0
       284    678.1282    271.6311 300.3052557 +22.6702099     297.6628     72.21461      1.341     3.50     5.327953     20.37394     33.66604         5     0.784     0.452 -15.28   0
       285    464.0452    260.8096 300.2420696 +22.6030149     1242.738       72.233      1.463     2.71     5.223071     20.37394     147.8833        18     1.019     0.989 -13.16   0
       286    270.5577    261.3465 300.1816694 +22.5452279     288.9641     72.21461      1.341     4.07     5.629499     20.37394     34.70319         6     0.997     0.475  -1.75   0
       287    975.1901    257.0478 300.4026358 +22.7548897     246.9727       72.233      1.459     4.02     5.443385     20.37394     38.48061         5     0.915     0.640  62.48   0
       288    708.8729    252.6898 300.3209824 +22.6739627     2156.019     72.37997      1.436     2.66     5.313586     20.37394     286.4453        24     1.158     1.020  74.00   0
       289    970.1761    247.1876 300.4042691 +22.7505523     3166.906     72.21461      1.583     3.02     5.463082     20.37394      364.777        32     1.309     1.236 -77.25   0
       290    516.5630    246.1836 300.2631688 +22.6145327     240.7655     72.21461      1.117     3.55     5.241522     20.37394     36.34048         5     0.967     0.376   5.84   0
       291    417.2334    236.5944 300.2353471 +22.5820380     632.9011     72.21461      1.456     3.07     5.444483     20.37394     80.01211         9     0.876     0.735 -33.58   0
       292     92.1801    230.5272 300.1361857 +22.4829388     1490.665     72.21461      1.862     3.62     5.394759     20.37394     152.3867        23     1.376     1.103 -35.35   0
       293    122.5902    230.5488 300.1456337 +22.4920556      626.306       72.233      1.658     3.68     5.417152     20.37394     71.41107        11     1.007     0.914  86.01   0
       294    985.6834    227.6843 300.4154340 +22.7495767     408.3865     72.34325      1.470     5.90     5.600482     20.37394     49.42233        11     1.052     0.945 -26.52   0
       295    829.2896    224.3767 300.3677118 +22.7018462     278.3786       72.141      1.206     3.32     5.333672     20.37394     45.63786         5     0.724     0.481   6.24   0
       296    176.3861    222.3795 300.1650116 +22.5058239     456.9115     72.17781      1.382     3.23     5.494125     20.37394     50.66488        10     0.971     0.755  51.41   0
       297    970.9842    220.7460 300.4130965 +22.7431837     395.8646     72.17781      1.380     2.30     5.564482     20.37394     56.69477         7     0.731     0.615  10.43   0
       298    852.1974    216.7578 300.3773277 +22.7065067     307.3496       72.233      1.200     3.88     5.417262     20.37394     39.19772         6     0.762     0.566 -37.15   0
       299    780.3329    214.1383 300.3557643 +22.6842542     786.6107     72.25139      1.546     3.45     5.276092     20.37394     82.80855        15     1.124     0.976 -84.01   0
       300    371.1742    213.8583 300.2283813 +22.5617113     386.3819     72.21461      1.353     3.04     5.531307     20.37394     70.61708         5     0.924     0.356 -44.12   0
       301    878.7635    203.2865 300.3899832 +22.7105767     2011.278     72.19621      1.486     2.70      5.46094     20.37394     248.3805        23     1.161     1.049 -88.83   0
       302    297.2393    200.2925 300.2097696 +22.5356728     2130.547     72.21461      1.489     2.82     5.696505     20.37394     237.2644        23     1.171     1.057  74.47   0
       303    374.8387    195.6856 300.2354143 +22.5575846     1060.859     72.19621      1.523     2.96     5.508214     20.37394      129.714        18     1.087     0.963 -61.27   0
       304    777.0689    195.1253 300.3609117 +22.6778074     536.6722     72.28815      1.256     3.23     5.309994     20.37394     76.97103        11     1.054     0.660  60.23   0
       305    883.8828    192.1780 300.3951822 +22.7089111     180.2681     72.17781      1.165     4.58      5.46094     20.37394     43.76169         6     0.949     0.627  58.47   0
       306    191.8166    187.4602 300.1811328 +22.5004121     776.6141     72.17781      1.606     4.81     5.609664     20.37394     83.40582        15     1.254     1.071 -56.30   0
       307    729.7419    184.6253 300.3495600 +22.6606272     1723.452     72.21461      1.424     2.42     5.371844     20.37394     236.1143        20     1.098     0.998  53.10   0
       308    794.8207    184.1535 300.3700049 +22.6799611     703.6193     72.26977      1.637     3.72     5.309139     20.37394     76.50713        12     1.091     0.873 -74.69   0
       309    213.5595    180.8847 300.1900276 +22.5050347     560.1971     72.17781      1.565     3.07     5.646873     20.37394      75.0621        10     1.148     0.606 -50.93   0
       310   1001.3279    177.1660 300.4366983 +22.7397134     824.3729     72.21461      1.484     4.16     5.509151     20.37394     89.25789        15     1.235     0.886 -73.44   0
       311    733.7722    176.2852 300.3535206 +22.6594335     796.0081     72.21461      1.371     3.32     5.381605     20.37394     90.64478        14     1.112     0.881  38.19   0
       312    503.5826    177.1278 300.2815178 +22.5907908     319.2455     72.21461      1.352     2.88      5.35002     20.37394     46.52369         5     0.729     0.450 -69.48   0
       313    654.3626    175.2311 300.3291093 +22.6353704     1290.876     72.21461      1.452     3.02      5.41112     20.37394     147.8749        19     1.254     0.931 -82.99   0
       314    475.8680    171.4864 300.2747155 +22.5808728     457.8655     72.30652      1.507     4.18     5.348969     20.37394     46.76485         7     0.946     0.671 -23.60   0
       315    580.4835    167.0883 300.3087279 +22.6109198     1089.354     72.32489      1.502     3.00     5.411202     20.37394     119.0549        16     1.067     0.942  39.12   0
       316    849.8698    166.6885 300.3928365 +22.6914021     1432.422     72.37997      1.526     3.56     5.430534     20.37394     155.3208        22     1.216     1.119 -47.22   0
       317    862.1457    165.8371 300.3969417 +22.6948289     1000.166       72.233      1.710     4.18     5.454762     20.37394     80.99855        17     1.248     1.018 -23.99   0
       318   1022.5334    157.0033 300.4498545 +22.7402494      1498.29     62.30029      1.529     3.42     5.518376     20.37394     154.7673        22     1.246     1.021 -88.37  24
       319    978.6832    156.4313 300.4363531 +22.7269732     1080.132     72.21461      1.526     2.84     5.498753     20.37394     126.7266        19     1.258     0.978  61.30   0
       320      2.4639    153.1710 300.1333781 +22.4338383     364.4086     62.30029      1.480     3.62     6.024574     20.37394     52.63671         8     1.031     0.699 -14.14  24
       321    212.7139    149.0872 300.2000727 +22.4956434     687.3598     72.34325      1.436     3.32     5.656915     20.37394     77.84422        13     0.942     0.924 -45.69   0
       322     74.3934    143.7831 300.1587787 +22.4526899     2260.972     72.15941      1.730     3.58     5.677434     20.37394     238.1563        32     1.578     1.194  53.68   0
       323    897.4537    141.4191 300.4158728 +22.6983611     815.0471     72.19621      1.476     3.21     5.456501     20.37394     92.35642        14     1.118     0.816  41.87   0
       324     24.3964    140.9134 300.1441677 +22.4368879     336.3847       72.141      1.270     2.86     5.824137     20.37394     55.75692         7     0.712     0.683 -65.44   0
       325    231.8256    137.1679 300.2098815 +22.4979412     5708.347     72.21461      1.593     3.00     5.648634     20.37394     634.6707        38     1.326     1.237  73.26   0
       326     16.0154    131.4418 300.1446329 +22.4316561     1323.526       72.233      1.860     3.99     5.753265     20.37394     147.6821        23     1.378     1.232  87.72   0
       327    215.3681    128.1679 300.2076791 +22.4904261     653.5231     72.25139      1.601     2.53     5.654469     20.37394     68.12523         9     0.831     0.681 -26.27   0
       328    582.7443    126.8530 300.3224754 +22.6000236     1492.286     72.25139      0.577     0.74     5.406483     20.37394     1003.902         5     0.481     0.349  37.57   0
       329    876.0651    119.0895 300.4164385 +22.6855374     3504.106     72.32489      1.500     2.99      5.44605     20.37394     388.2453        32     1.244     1.168  83.86   0
       330    979.6943    117.6904 300.4492276 +22.7161227     2900.073     72.37997      1.694     3.51     5.785011     20.37394     273.1584        31     1.375     1.195  82.08   0
       331    425.7582    114.0276 300.2777379 +22.5493512     487.8387       72.233      1.290     2.28     5.438205     20.37394     76.94766        10     0.847     0.701 -12.36   0
       332    349.3785    106.2459 300.2564829 +22.5242495     545.6042     72.26977      1.504     5.33     5.448962     20.37394     66.91385        12     1.291     0.845  55.45   2
       333    353.3174    104.7434 300.2581959 +22.5249967      453.844     72.28815      1.752     4.98     5.445188     20.37394     40.44662         9     1.229     0.570 -16.15   3
       334    115.9376    102.7924 300.1849807 +22.4533557     607.2641     72.15941      1.641     4.06      5.50661     20.37394       58.755        10     1.151     0.666 -40.65   0
       335    476.7683    101.2519 300.2977626 +22.5609452     1833.068       72.233      1.485     2.78     5.372768     20.37394      207.999        23     1.189     1.067 -89.66   0
       336    404.7932    101.9467 300.2751262 +22.5396019     562.2051     72.21461      1.617     5.62      5.44369     20.37394     50.36403        11     1.248     0.739  28.69   0
       337    538.1806    100.3414 300.3171854 +22.5790623     464.7463     72.19621      1.663     3.21     5.369981     20.37394     55.89404         7     0.881     0.637  52.34   0
       338    220.8469     96.9405 300.2195045 +22.4830913     427.3871     72.26977      1.613     4.57     5.650492     20.37394     34.60215         7     0.837     0.709 -23.39   0
       339    765.7840     91.0742 300.3911237 +22.6444911     435.1557     72.21461      1.435     4.63     5.416612     20.37394     48.73761         7     1.379     0.442 -40.18   0
       340    911.7404     86.6794 300.4380737 +22.6868765     494.8355     72.25139      1.520     5.54     5.522964     20.37394     167.8556         8     1.335     0.647  79.99   0
       341    250.7879     80.9527 300.2340003 +22.4874609     6040.154     72.21461      1.648     3.18     5.545221     20.37394     581.2628        42     1.408     1.276  71.66   0
       342    757.0966     82.0642 300.3913351 +22.6392997     360.5634     72.32489      1.295     2.82     5.456979     20.37394     53.96833         5     0.808     0.462  29.04   0
       343    102.0015     80.8861 300.1877469 +22.4428867     590.4922       72.141      1.344     3.31     5.632846     20.37394     78.96938        10     0.943     0.672 -10.13   0
       344    880.5993     79.1644 300.4307936 +22.6754012     324.4162     72.17781      1.352     3.69      5.48301     20.37394     39.13762         6     0.715     0.664  14.96   0
       345    266.5342     72.6327 300.2415956 +22.4897837     391.4874     72.21461      1.366     3.54     5.475101     20.37394     41.36811         5     1.063     0.340 -19.81   0
       346     12.8998     71.5087 300.1630878 +22.4135042     429.7581     72.37997      1.873     2.79     5.328044     20.37394      45.0471         6     0.769     0.490  -9.47   0
       347    496.9563     66.4538 300.3153273 +22.5569788     6415.356       72.233      1.513     2.93      5.30311     20.37394     790.5881        39     1.321     1.186  71.78   0
       348    382.5595     66.1670 300.2798001 +22.5226583     582.3179     72.26977      1.392     3.40     5.340122     20.37394      66.5006        10     1.016     0.744 -52.46   0
       349    553.5948     61.4792 300.3345817 +22.5724963     344.4297       72.141      1.565     3.87     5.298354     20.37394     48.20856         6     0.959     0.636 -27.51   0
       350    749.5466     56.4045 300.3972966 +22.6296570     740.1385     72.19621      1.474     2.80      5.54436     20.37394     90.53082        13     0.951     0.843  69.11   0
       351    842.2805     55.4027 300.4265408 +22.6571026     391.0674     72.12258      1.217     3.13     5.422414     20.37394     53.88179         9     0.883     0.732   7.98   0
       352    189.9385     50.5645 300.2249186 +22.4605062     519.3533       72.233      1.723     3.45     5.838964     20.37394     46.90899         9     0.965     0.680 -33.73   0
       353    548.3950     49.1587 300.3369542 +22.5673962     527.9626       72.233      1.510     3.41     5.271326     20.37394     64.98094         9     0.994     0.653  -3.66   0
       354    625.3256     46.6024 300.3617521 +22.5896778     6336.505     72.12258      1.538     2.81     5.361109     20.37394     700.0922        40     1.357     1.149  86.50   0
       355    400.3196     45.7850 300.2919335 +22.5221130     1484.549     72.19621      1.423     2.71     5.274914     20.37394      180.416        17     1.047     0.925  44.36   0
       356    666.2618     44.1343 300.3753098 +22.6012139      952.163     72.25139      1.547     3.84     5.580433     20.37394     93.57954        16     1.201     0.880  13.23   0
       357    736.6431     41.8053 300.3980043 +22.6215961     508.0793       72.233      1.808     3.89     5.624851     20.37394     42.50905         6     1.016     0.427 -76.35   0
       358    682.4727     40.2013 300.3816370 +22.6049314     524.3621     72.10416      1.397     3.35     5.631123     20.37394     71.28319         9     1.062     0.670 -34.17   0
       359    952.2026     38.1579 300.4664239 +22.6850049     344.2226       72.233      1.243     2.56      6.03539     20.37394     59.42093         6     0.747     0.531  31.70   0
       360    149.1597     37.8180 300.2163660 +22.4446318     621.9549       72.233      1.469     3.64     6.160358     20.37394     69.68535        10     1.058     0.715 -74.31   0
       361    720.9787     35.9446 300.3950197 +22.6152242     435.3189       72.233      1.314     2.45     5.643666     20.37394     73.88605         9     0.806     0.703 -17.81   0
       362    310.1197     32.4928 300.2681646 +22.4912917      461.163     72.34325      1.772     6.46     5.262804     20.37394     35.99933        10     1.483     0.790 -56.41   0
       363    669.4995     31.6213 300.3803735 +22.5985818     2703.853       72.141      1.539     2.64     5.629906     20.37394     320.8232        26     1.211     1.071  89.22   0
       364    684.7067     30.3337 300.3855307 +22.6027601     896.4363     72.36161      1.854     4.66     5.662481     20.37394       79.491        18     1.471     0.913  63.10   0
       365    756.0898     23.2306 300.4100863 +22.6220664     1530.434     72.17781      1.466     2.88     5.614252     20.37394     180.4898        20     1.214     0.959 -52.87   0
       366    253.4979   1016.4661 299.9310808 +22.7569127     422.7326     72.30652      2.096     4.34      55.3239     20.37394     37.51836         5     1.179     0.454  59.39  19
       367    252.7431   1012.1534 299.9322491 +22.7554492      613.069     72.25139      2.232     9.39     53.18924     20.37394     43.90138        15     1.846     1.334 -82.46  18
       368     72.5418     15.4962 300.1997751 +22.4152723     518.9265     72.28815      1.409     4.11     6.051086     20.37394     57.32913        10     1.073     0.736   7.98   0
       369    735.8536   1014.7142 300.0818533 +22.9010464     461.5788     72.26977      1.702     4.49     4.184076     20.37394      28.2998         7     1.111     0.516 -66.65   0
       370    299.3029   1011.8004 299.9468484 +22.7693151     1587.224     72.08574      3.926     5.80     6.339577     20.37394     72.40913        22     1.642     1.128  60.57   2
       371    135.5447   1006.8527 299.8975271 +22.7187657     1766.507     72.25139      2.814    13.40     87.54046     20.37394     62.56884        57     2.976     2.071 -31.03  18
       372    175.2716    997.3753 299.9129623 +22.7279676     2906.357     72.25139      5.889    24.92     79.90105     20.37394     62.57619       175     5.313     3.245  37.01  18
