#   1 NUMBER                 Running object number                                     
#   2 X_IMAGE                Object position along x                                    [pixel]
#   3 Y_IMAGE                Object position along y                                    [pixel]
#   4 ALPHA_J2000            Right ascension of barycenter (J2000)                      [deg]
#   5 DELTA_J2000            Declination of barycenter (J2000)                          [deg]
#   6 FLUX_APER              Flux vector within fixed circular aperture(s)              [count]
#   7 FLUXERR_APER           RMS error vector for aperture flux(es)                     [count]
#   8 FLUX_RADIUS            Fraction-of-light radii                                    [pixel]
#   9 FWHM_IMAGE             FWHM assuming a gaussian core                              [pixel]
#  10 BACKGROUND             Background at centroid position                            [count]
#  11 THRESHOLD              Detection threshold above background                       [count]
#  12 FLUX_MAX               Peak flux above background                                 [count]
#  13 ISOAREA_IMAGE          Isophotal area above Analysis threshold                    [pixel**2]
#  14 A_IMAGE                Profile RMS along major axis                               [pixel]
#  15 B_IMAGE                Profile RMS along minor axis                               [pixel]
#  16 THETA_IMAGE            Position angle (CCW/x)                                     [deg]
#  17 FLAGS                  Extraction flags                                          
         1    516.5632     16.1876 300.3326765 +22.5432309     993.5743     72.18604      1.361     2.60     5.693345     20.37107     118.3211        15     0.973     0.916 -42.71   0
         2    420.3192     14.1743 300.3033601 +22.5138414     855.5601     72.18604      1.395     2.92     5.466821     20.37107     100.2459        14     0.979     0.894 -85.65   0
         3    759.5992      4.9547 300.4120485 +22.6127264     693.6577     71.40923      1.485     2.97     5.802092     20.37107     85.14854        13     1.085     0.866  16.81  16
         4    322.4391      4.7830 300.2759374 +22.4818357     250.4952     71.05502      1.249     3.40     5.529312     20.37107     34.20549         5     0.788     0.423 -67.07  16
         5    191.4667      4.0011 300.2354456 +22.4423890     3880.169      68.7565      1.675     3.09     6.043888     20.37107     397.9714        36     1.478     1.213  36.45  24
         6    517.3707      1.9218 300.3375498 +22.5393697     275.2551     59.47793      1.107     2.89     5.749533     20.37107     42.66323         7     0.722     0.661 -48.73  24
         7    154.2884   1005.0800 299.8989004 +22.7186163      641.074     72.35142      0.671     3.57     89.00912     20.37107      42.2544         5     1.276     0.287 -54.04   3
         8    258.6161   1022.4265 299.9256994 +22.7549025      1013.53     62.73759      6.808    13.91     50.32391     20.37107     49.68612        16     2.628     2.048 -45.35  27
         9    268.0393   1013.9736 299.9313804 +22.7553063     2894.979     72.22282      6.408    21.52     35.36655     20.37107     64.83331        97     4.927     2.611  88.99  19
        10    107.2836   1010.5754 299.8825008 +22.7060823     3727.597     72.16765     15.185   114.25     87.95744     20.37107      153.976      2229    25.774    14.052  55.28  27
        11    653.4561    987.4578 300.0599923 +22.8633127     8591.343     72.27797      2.024     4.94     3.888789     20.37107      447.973        48     1.602     1.464   1.52   3
        12    659.0764    984.9599 300.0625561 +22.8642809     9486.632     72.16765      2.041     4.62      3.90384     20.37107     549.7221        53     1.563     1.526  78.72   3
        13    753.5181    987.8624 300.0910449 +22.8934291     618.7825     72.29633      1.971     7.33     4.030331     20.37107     35.33478        14     1.321     1.139  30.40   0
        14    240.1126    985.1318 299.9320768 +22.7386541     6173.953      72.3147      9.250    28.10      49.7631     20.37107     113.1413       455     6.567     5.335 -66.58  19
        15    187.5523    979.0446 299.9177119 +22.7211347     1735.219     72.22282      3.679    10.88     63.65627     20.37107     57.84228        44     2.263     2.216  74.65   3
        16    186.6814    973.0604 299.9193875 +22.7191573     939.2951     72.29633      4.285     8.68     58.63243     20.37107     48.95192        17     2.084     1.011  25.84   3
        17     13.6369    992.1006 299.8594086 +22.6726724     1480.845     72.20444     10.407    10.69    -11.16353     20.37107     60.53076        33     2.888     1.103  58.18  19
        18    258.7127    974.6665 299.9412661 +22.7412343     9287.083     72.29633     14.292    37.99     28.94011     20.37107     170.1429      1060    13.193     5.611  62.43  19
        19    581.3689    975.9375 300.0412827 +22.8383896     2244.085     72.22282      0.673     0.92     3.965471     20.37107     1026.682         7     0.514     0.474 -15.79   0
        20    193.9693    991.3967 299.9156892 +22.7266026     1386.112     72.16765      5.578     9.44     73.11926     20.37107     54.69297        23     2.368     1.049 -67.30   3
        21    148.4498   1009.5639 299.8956266 +22.7181494     816.7791     72.22282      1.936     5.91     92.41366     20.37107     54.29322        15     1.361     0.918  79.62   3
        22    183.4373    968.4025 299.9198939 +22.7168479     837.4955     72.22282      2.864     7.85     55.07777     20.37107     37.99909        11     1.652     1.043  28.80   1
        23    946.7881    971.0635 300.1567810 +22.9465320     850.8757     72.16765      2.146     8.19     4.096201     20.37107     48.92483        19     1.543     1.215 -64.07   0
        24    165.5135    955.9498 299.9183712 +22.7078976     1553.257     72.20444      4.526    12.81     48.37581     20.37107      53.3708        39     2.493     1.832  33.52   2
        25    263.2115    948.5378 299.9511640 +22.7350900     782.8552     72.16765      2.858     5.74      15.6761     20.37107     60.55886        15     1.404     1.123 -29.65   0
        26    551.8892    948.6219 300.0409861 +22.8217093     398.1144     72.13084      1.788     4.47     4.078239     20.37107      28.3629         7     1.098     0.517 -68.25   0
        27    185.8195    948.9650 299.9269567 +22.7119887     479.5218     72.22282      2.589     5.05     38.04808     20.37107     32.91318         7     1.350     0.535 -24.97   1
        28    823.8063    947.2234 300.1261782 +22.9028289     376.9442     72.18604      2.184     6.52      4.36141     20.37107      27.9165         8     1.334     0.895  68.51   0
        29    580.3118    944.9678 300.0510272 +22.8291837     1452.625     72.16765      1.887     4.66     4.051879     20.37107     105.3357        26     1.449     1.221 -79.03   0
        30    671.8768    954.2994 300.0765185 +22.8593172     6944.202     72.35142      1.960     4.33     4.017057     20.37107     397.3043        52     1.599     1.497  35.12   0
        31    473.9123    941.5910 300.0189917 +22.7963057     1046.998     72.13084      1.929     4.80     4.207496     20.37107     74.17147        19     1.255     1.090 -31.32   0
        32    404.7481    939.5183 299.9981358 +22.7749654     6727.812     72.22282      1.883     4.10     4.473733     20.37107     513.1769        49     1.498     1.463  -3.32   0
        33    151.5174   1008.4583 299.8969399 +22.7187532     988.9779     72.27797      2.266     7.85     91.25513     20.37107     49.39364        14     2.044     0.842 -85.42   3
        34    191.6990    997.8599 299.9128808 +22.7277746     2730.192     72.29633      5.591    22.65     79.56181     20.37107     73.13914       127     4.263     3.342  45.65  18
        35     97.1327    917.5419 299.9096048 +22.6763610     4372.918     72.24121     20.497    62.81     9.994455     20.37107     103.0362      1089    14.193     7.713 -19.86   3
        36    242.1968    928.0406 299.9512940 +22.7229052     617.2336     72.22282      3.557     3.92     9.345414     20.37107     30.04508         5     0.832     0.528 -31.52   0
        37    437.5578    926.6768 300.0125248 +22.7811220     562.3798     72.16765      1.690     5.76     4.363841     20.37107     41.63116        11     1.384     0.788 -20.52   0
        38    950.9442    918.3886 300.1752118 +22.9326459     2182.491     72.18604      2.077     5.34     4.435489     20.37107     111.9355        33     1.539     1.419  47.79   0
        39    601.1675    915.7539 300.0670252 +22.8270515     412.5037     72.24121      1.738     4.93     4.167822     20.37107     27.65475         8     1.033     0.666  59.76   0
        40      3.3369    975.1993 299.8617059 +22.6647354     1666.502       66.158     11.002    16.67    -14.86555     20.37107     57.59447        62     4.531     1.704  66.07  27
        41      6.3965   1010.7358 299.8510971 +22.6758401     3098.263     72.20444     13.403    45.87    -25.83937     20.37107     73.08408       564    11.175     5.224  85.89  26
        42    740.1956    907.5267 300.1130231 +22.8663685     761.4182     72.14925      1.949     7.16     4.436577     20.37107     46.00995        16     1.486     0.967  55.25   0
        43    375.5590    998.3596 299.9699118 +22.7830901     470.7401     72.27797      1.663     6.09     4.352296     20.37107      42.1146        10     1.149     0.909  22.97   0
        44    774.8333    901.3978 300.1258138 +22.8749905      1038.51     72.16765      1.843     5.31      4.46519     20.37107     70.49238        21     1.298     1.167 -15.89   0
        45    553.3167    901.3372 300.0568090 +22.8085654     266.8813     72.29633      1.790     2.98     4.229746     20.37107     35.04218         4     0.796     0.327 -32.74   2
        46    796.9739    895.1545 300.1347468 +22.8798333     11594.16     72.22282      1.852     4.05     4.491408     20.37107     704.3242        51     1.506     1.396 -27.54   0
        47    988.0587    895.3713 300.1942780 +22.9371526     498.7722     72.20444      1.670     5.80     4.616768     20.37107     33.62331        11     1.069     0.886 -39.20   0
        48    842.0924    895.5045 300.1487015 +22.8934553     387.8201     72.38811      1.692     5.51     4.490402     20.37107     42.66601         7     1.086     0.787 -27.11   0
        49    162.1984    895.7962 299.9369027 +22.6896518     529.0258     71.98341      4.110     4.36      17.4219     20.37107     28.37699         5     0.761     0.711  47.95   0
        50    220.4498    986.4982 299.9255172 +22.7331452     4236.608     72.27797      9.551    40.63     64.37344     20.37107     90.37454       426     8.922     5.136  86.40  19
        51    226.4829    891.9958 299.9581281 +22.7078512     792.7492     72.13084      5.910     5.93     7.727521     20.37107     30.84398         6     1.245     0.794  -8.88   1
        52    252.5295   1000.5576 299.9309207 +22.7468043      3588.11     72.16765     10.234    37.94     47.23589     20.37107      105.444       328    11.524     3.467 -10.29  19
        53    109.2339    886.5702 299.9234372 +22.6711113     863.8608     72.22282      6.074     7.01     9.076416     20.37107     48.80826        12     1.726     0.799 -80.99   3
        54    106.2027    885.3846 299.9228804 +22.6698617     665.8339     72.05716      4.407     5.98     8.528889     20.37107     31.09717        10     1.496     0.672 -90.00   3
        55    219.9933    888.0008 299.9574088 +22.7047581     737.8271     72.02029      3.193     2.81     8.047617     20.37107     32.50361         5     0.638     0.576   0.00   0
        56    501.9647    883.1659 300.0467263 +22.7879510     506.1401     72.27797      1.850     5.61      4.33243     20.37107     39.67601         9     1.004     0.917 -20.78   0
        57    805.5134    877.3132 300.1432112 +22.8772684     1461.127     72.33306      1.851     4.72     4.546552     20.37107     88.38149        24     1.378     1.197  55.15   0
        58     99.4415    878.3151 299.9230774 +22.6658052     582.1006     72.16765      2.323     4.73     7.221313     20.37107     35.48006         6     0.936     0.683 -68.56   0
        59    988.4338    876.4398 300.2005517 +22.9318255     398.7986     72.24121      1.790     6.76      4.62375     20.37107     28.77047         9     1.269     1.010  61.41   0
        60    657.7666    873.9122 300.0982654 +22.8320076     474.3933     72.16765      1.916     5.52     4.451037     20.37107     43.07935         6     1.171     0.735  51.62   0
        61    843.5916    870.9383 300.1571578 +22.8868482     772.1522     72.14925      1.722     5.13     4.564283     20.37107     51.36364        15     1.095     1.010 -51.28   0
        62    952.1650    869.0668 300.1916327 +22.9188417     417.9288     72.20444      2.041     5.02     4.587807     20.37107     36.34738         6     1.363     0.523  70.06   0
        63    891.9716    861.6113 300.1752794 +22.8986655     679.7751     72.20444      1.971     6.54     4.604869     20.37107     39.52283        11     1.307     0.917  42.13   0
        64    743.5490    860.9683 300.1292085 +22.8540034     634.8029     72.24121      1.646     4.77     4.526016     20.37107     49.06935        16     1.163     1.038 -28.49   0
        65    566.8503    991.9291 300.0315583 +22.8386252     2352.035     72.20444      1.981     4.63      3.97943     20.37107     167.4238        31     1.420     1.338 -28.25   0
        66    754.4736    858.0203 300.1335725 +22.8564309     635.4755     72.20444      1.962     6.58     4.532422     20.37107     41.84242        13     1.215     0.999  28.52   0
        67    456.0595    857.1548 300.0408914 +22.7667193     4129.479     72.22282      1.692     3.31     4.436647     20.37107     349.8233        34     1.299     1.264 -61.19   0
        68    181.3478    842.8257 299.9600789 +22.6802045     828.6216     72.22282      1.820     4.62     6.862249     20.37107     66.98988        15     1.197     1.109  27.06   0
        69    158.1780    839.8057 299.9538566 +22.6723863      1689.57     72.18604      1.965     4.01     7.292787     20.37107     145.3973        29     1.458     1.312  -2.09   0
        70    984.4839    827.7961 300.2151359 +22.9166648     2156.498     72.13084      1.951     4.55     4.664326     20.37107     135.3123        32     1.452     1.320 -17.77   0
        71     33.4393    829.3502 299.9184835 +22.6319553     393.6467     72.22282      2.358     6.21     5.274238     20.37107     32.35692         9     1.405     0.771  25.94   0
        72    689.4611    828.3811 300.1229458 +22.8284337     498.5322     72.16765      2.234     7.14      4.51472     20.37107     31.76418         9     1.531     0.933 -40.90   0
        73    768.2471    821.3436 300.1497907 +22.8500246     568.4976     72.24121      1.643     4.87     4.511144     20.37107     53.42142        12     1.113     1.042  35.00   0
        74    191.1506    821.0156 299.9702171 +22.6768892     347.9774     72.24121      1.551     2.88      5.89447     20.37107     45.90281         6     0.892     0.449  53.94   0
        75    635.9423    815.3327 300.1105111 +22.8086450     4887.123     72.24121      1.636     3.33     4.550876     20.37107     380.5241        35     1.296     1.225 -16.49   0
        76    126.3281    815.8503 299.9517419 +22.6559583     309.5818     72.20444      1.532     3.72     5.775342     20.37107     41.99821         5     0.998     0.399 -74.26   0
        77    438.3578    812.5396 300.0498851 +22.7486055     563.5351     72.18604      1.456     4.60     4.602382     20.37107     69.70551        13     1.100     0.930 -78.33   0
        78    186.2981    809.1138 299.9725769 +22.6720191     1206.569     72.36977      1.761     4.29      5.59209     20.37107      128.673        20     1.373     1.028  -1.56   0
        79    656.5967    807.8273 300.1193865 +22.8126808     777.5002     72.16765      1.590     4.67     4.538972     20.37107     71.90002        16     1.258     0.928 -24.14   0
        80    812.1465    795.1293 300.1719994 +22.8556490     4138.018     72.20444      1.669     3.52     4.609334     20.37107     293.0898        33     1.300     1.248  50.43   0
        81    542.7929    791.3727 300.0892834 +22.7738419     463.0009     72.20444      2.079     4.44     4.742419     20.37107     28.77228         5     0.986     0.569  48.38   0
        82    220.8256    789.3798 299.9897284 +22.6767158     436.2504     72.20444      1.515     4.49     5.123519     20.37107     45.21961         9     1.053     0.731 -33.99   0
        83    529.2821    787.8411 300.0862236 +22.7687775     635.6973     72.16765      1.710     4.34     4.725287     20.37107     54.86276        10     0.952     0.794 -32.85   0
        84    175.4409    785.1716 299.9769829 +22.6618933     1027.466     72.22282      1.833     3.83     5.267365     20.37107     92.38712        19     1.318     1.022   6.25   0
        85    325.0798    777.5542 300.0260024 +22.7045934     53540.86     72.18604      1.706     3.36     4.840678     20.37107     5305.615       103     1.512     1.471  19.01   0
        86    590.9282    781.1702 300.1075925 +22.7853422      492.591     72.20444      1.554     3.33     4.734146     20.37107     57.91267        10     0.989     0.722  -4.87   0
        87    582.9830    776.7284 300.1065613 +22.7816851     1806.052     72.20444      1.702     3.69     4.761981     20.37107     146.3762        25     1.453     1.055 -29.01   0
        88    253.4881    776.0201 300.0042293 +22.6826803     412.8817     72.13084      1.411     4.75     5.025206     20.37107     57.82256         8     1.397     0.459  46.47   0
        89    995.8268    776.0417 300.2355002 +22.9051889     767.7958     72.24121      1.692     5.28     4.776949     20.37107      70.1723        14     1.221     0.844 -20.28   0
        90    612.0889    772.6535 300.1169527 +22.7892394     987.6752     72.24121      1.612     3.87     4.754235     20.37107     102.8969        16     1.233     0.922 -42.46   0
        91     11.7090    771.7798 299.9304430 +22.6089241     845.6625     72.13084      2.230     7.38     5.219776     20.37107     58.59694        16     1.468     1.038  63.85   2
        92    623.3281    770.2116 300.1212479 +22.7919070     962.6502     72.22282      1.547    -1.20     4.745104     20.37107     365.3564        15     1.474     0.832 -69.09   0
        93    728.5097    767.4067 300.1549366 +22.8226239     431.1459     72.11243      1.652     4.81     4.485601     20.37107     39.75887         9     1.056     0.621   5.82   0
        94    766.0168    757.8842 300.1697234 +22.8311275     765.2064     72.16765      1.787     4.33     4.490837     20.37107      63.5396        13     1.133     0.960  52.27   0
        95    374.8441    754.7984 300.0488837 +22.7129863     31567.19     72.18604      1.628     3.33     4.721201     20.37107     2924.041        69     1.397     1.366  20.02   0
        96    389.1945    755.4178 300.0531485 +22.7174673     2193.855     72.16765      1.750     3.30     4.721201     20.37107        197.4        30     1.388     1.233 -12.74   0
        97    897.9891    750.8052 300.2131781 +22.8686315     2880.797     72.07558      1.714     3.65      4.88507     20.37107     193.3921        33     1.390     1.284  81.62   0
        98    386.1931    749.1714 300.0542444 +22.7147743     564.5451     72.20444      1.594     4.08     4.728478     20.37107     49.25754         9     0.952     0.701  15.61   0
        99    655.9133    746.9365 300.1389652 +22.7949887     991.8604      72.3147      1.574     3.63     4.758792     20.37107     86.22003        16     1.196     0.924 -20.44   0
       100    492.7033    746.6404 300.0882238 +22.7459823     611.6212     72.18604      1.892     5.95     4.755415     20.37107     47.62384        11     1.484     0.805  27.11   2
       101    257.3420    746.4802 300.0150281 +22.6753598     766.8915     72.24121      1.522     4.29     4.839092     20.37107     74.23781        15     1.166     0.897  45.72   0
       102    503.0553    741.6531 300.0930680 +22.7476539     953.7354     72.24121      1.733     3.46     4.797726     20.37107     84.47809        18     1.248     0.903 -63.20   0
       103     62.9039    741.9457 299.9560470 +22.6157292     534.4548     72.27797      1.760     2.37     5.116171     20.37107      61.6029         6     0.739     0.518  66.23   0
       104    904.2872    738.5198 300.2191355 +22.8669876      426.442     72.35142      1.667     5.22      4.88507     20.37107     42.70565         8     1.347     0.571 -57.79   0
       105    405.1697    738.0397 300.0637682 +22.7172691     330.5085     72.20444      1.224     3.93     4.741819     20.37107     35.10756         6     0.931     0.476 -52.41   0
       106    360.8759    737.3229 300.0502158 +22.7037817     335.6948     72.29633      1.549     3.38     4.743032     20.37107     38.36647         5     0.773     0.429 -16.90   0
       107     90.4128    736.3305 299.9664215 +22.6223722     664.1627     72.22282      1.948     5.58     5.058139     20.37107     57.18962        11     1.127     0.777 -34.08   0
       108    448.8069    736.4385 300.0778722 +22.7298931     538.8556     72.24121      1.559     3.48      4.74464     20.37107     54.15947         8     0.896     0.660 -18.08   0
       109    254.5914    731.1134 300.0191661 +22.6701251     568.6343     72.13084      1.921     4.79     4.783138     20.37107     39.50969         9     1.100     0.592  21.76   0
       110    577.9306    721.4361 300.1229570 +22.7642929     409.9366     72.20444      1.412     4.93      4.95444     20.37107     53.38775         8     1.119     0.828 -27.62   0
       111    547.7015    719.9266 300.1140320 +22.7547987     483.7546     72.35142      1.497     4.78      4.94258     20.37107     59.59829        11     1.076     0.885  33.02   0
       112    964.4220    716.2104 300.2451465 +22.8785871     4487.592     72.20444      1.721     3.63     5.156853     20.37107     346.7169        34     1.320     1.292  16.95   0
       113    569.8641    717.0115 300.1218822 +22.7606045      1294.48     72.14925      1.496     3.21     4.951277     20.37107     136.3326        20     1.199     1.080  87.70   0
       114    489.3118    716.8528 300.0968476 +22.7364131     386.5065     72.22282      1.626     5.55     4.822067     20.37107     27.87061         7     1.047     0.830   1.42   0
       115    651.0923    712.3009 300.1487185 +22.7835959     330.1465     72.38811      1.397     4.26     4.843587     20.37107     38.50148         7     0.770     0.673  -6.51   0
       116    952.7721    707.5339 300.2443310 +22.8726042     1659.083     72.18604      1.747     4.18      5.20634     20.37107     117.2535        24     1.312     1.132  58.26   0
       117    315.7469    701.4022 300.0478452 +22.6799385     982.0509     72.18604      1.670     3.74     4.753518     20.37107     74.82779        13     1.002     0.875 -22.06   0
       118    182.4499    702.1874 300.0061287 +22.6401866     265.9146     72.25959      1.301     3.33     4.854205     20.37107     33.11942         5     0.737     0.455  69.67   0
       119    983.9614    697.8990 300.2571938 +22.8791752     1787.005     72.22282      1.838     4.75       5.2272     20.37107     122.1238        26     1.436     1.169  73.63   0
       120    779.2620    698.8558 300.1930355 +22.8181374     2504.994     72.27797      1.648     3.36     4.742228     20.37107     205.8825        30     1.480     1.123  -2.38   0
       121    288.3393    696.8917 300.0407837 +22.6704250     326.5685     72.27797      1.710     4.99     4.757557     20.37107     29.90129         5     1.094     0.644 -29.11   0
       122      2.1116    688.6633 299.9544679 +22.5822052     579.2556     60.58398      1.426     3.36      5.25886     20.37107     67.88259        12     1.040     0.779  87.92  24
       123    861.6999    684.9868 300.2232481 +22.8388472     511.4785     72.11243      1.700     5.64     4.973685     20.37107     49.02742         9     1.341     0.717  38.22   0
       124    164.5837    685.0907 300.0061279 +22.6299218     562.5634     72.13084      1.683     4.84     4.831586     20.37107     56.82371        12     1.136     0.932 -11.39   0
       125    897.6516    675.8453 300.2374319 +22.8469881     148688.7     72.22282      1.640     3.44     5.229265     20.37107     12458.56       157     1.534     1.472 -31.23   0
       126    660.3011    679.7437 300.1621667 +22.7770036     335.6869     72.29633      1.382     4.13     4.859362     20.37107     36.23904         8     0.945     0.614   3.67   0
       127    749.8466    676.0126 300.1912874 +22.8027615     818.1588     72.22282      1.557     4.65     4.810673     20.37107     64.47259        16     1.211     1.016 -52.42   0
       128    930.2371    668.6407 300.2499379 +22.8546764     434.4722     72.27797      1.464     3.95     5.415805     20.37107     55.13658        10     1.258     0.774 -33.90   0
       129    765.0920    661.9244 300.2006172 +22.8032809     9314.161     72.36977      1.491     3.03     4.901382     20.37107     900.0396        41     1.241     1.212 -45.43   0
       130    583.8248    664.4835 300.1432979 +22.7497027     1638.589     72.16765      1.444     2.86     5.040145     20.37107     192.1306        20     1.125     0.990   1.00   0
       131    266.6071    656.8152 300.0470430 +22.6524052     4979.569     72.11242      1.606     3.10     4.819083     20.37107     557.7321        35     1.268     1.230 -28.05   0
       132    348.7587    654.8316 300.0732470 +22.6764688     1137.206     72.25959      1.530     3.45     4.908291     20.37107     120.7846        19     1.103     1.045 -67.45   0
       133    223.8234    652.7790 300.0350465 +22.6384166     610.9779     72.20444      1.708     4.43     4.850344     20.37107     60.73721        11     1.181     0.789 -46.69   0
       134    556.9612    650.6581 300.1394217 +22.7376810      815.647     72.20444      1.410     3.15     5.153513     20.37107     99.83188        13     1.007     0.858 -13.04   0
       135    548.6364    642.6910 300.1394169 +22.7328979     3238.457     72.18604      1.434     2.64     5.227242     20.37107     410.0125        25     1.146     1.047 -22.06   0
       136    538.8046    636.4856 300.1383705 +22.7281690      1374.92     72.13084      1.420     2.91     5.295134     20.37107     142.4143        19     1.165     0.904 -41.00   0
       137    733.9937    635.5244 300.1994993 +22.7863789     188.7859     72.13084      1.373     4.16     4.893435     20.37107     34.11659         6     0.953     0.518 -75.67   0
       138    468.1530    635.7849 300.1165975 +22.7067922     392.3334     72.22282      1.887     5.90     5.210573     20.37107     34.03597         9     1.250     0.783  54.09   0
       139    932.7489    634.1856 300.2619153 +22.8455246     326.5014     72.22282      1.535     5.31     5.414082     20.37107     39.89274         9     1.131     0.704  -5.63   0
       140    202.1439    632.5118 300.0348875 +22.6260983     661.6364     72.24121      1.586     3.97     4.941234     20.37107     82.48459        14     1.225     0.913 -64.76   0
       141    450.3482    633.2490 300.1118779 +22.7007271     234.0736     72.24121      1.062     3.24     5.081058     20.37107     42.13668         5     0.722     0.464  78.91   0
       142    216.4519    630.9207 300.0398540 +22.6299325     591.8963     72.20444      1.399     3.66     4.930206     20.37107      75.7815        11     1.042     0.745 -18.46   0
       143    242.3164    627.8502 300.0488958 +22.6368074     629.0355     72.20444      1.671     4.65     4.924778     20.37107     49.16311        13     1.108     0.938 -48.56   0
       144    985.6703    627.9818 300.2804430 +22.8595878     400.7371     72.24121      1.752     3.54      5.37974     20.37107     40.53907         7     0.980     0.672 -14.92   0
       145    273.4510    627.8239 300.0585891 +22.6461359     404.8809     72.22282      1.563     2.35     4.919507     20.37107     51.27571         6     0.733     0.609  29.43   0
       146    562.7054    626.6927 300.1489957 +22.7325191     445.7065     72.36977      1.418     2.74     5.380408     20.37107     52.81533         6     0.785     0.673 -86.50   0
       147    463.5573    626.0612 300.1183252 +22.7026224     1691.932     72.20444      1.427     2.87     5.255553     20.37107     199.7483        20     1.068     1.031 -69.88   0
       148    117.5458    620.9454 300.0123404 +22.5974066     19757.96     72.24121      1.724     3.52     5.229384     20.37107     1892.448        64     1.461     1.408  15.98   0
       149     38.6233    622.6156 299.9872675 +22.5742121     657.5143     72.20444      1.762     4.14     5.349782     20.37107     58.03942        15     1.174     1.048  -0.56   0
       150    583.1685    620.6354 300.1573374 +22.7369113     414.3396     72.22282      1.625     6.91     5.438225     20.37107     38.55233        12     1.364     0.980  -1.22   0
       151    548.5797    621.4005 300.1463150 +22.7267658     1105.619     72.13084      1.584     2.75     5.435705     20.37107      138.438        18     1.101     1.061 -63.10   0
       152    920.1142    617.2518 300.2634744 +22.8368734     186.6672     72.22282      1.164     3.37     5.417854     20.37107     35.86159         5     0.968     0.339 -42.85   0
       153    302.8627    613.1074 300.0725191 +22.6507300     381.6494      72.3147      1.573     3.39     5.043198     20.37107     35.63776         6     0.740     0.580 -42.76   0
       154    966.4792    608.0308 300.2809354 +22.8481058     1066.045     72.20444      1.667     3.61     5.402586     20.37107     90.29522        18     1.164     1.024 -18.76   0
       155    631.3353    609.0590 300.1761033 +22.7480186     208.3054     72.24121      1.327     4.40     5.349102     20.37107     42.95073         5     1.043     0.528 -16.85   0
       156     63.4848    604.9017 300.0007470 +22.5765874      1439.48     72.36977      2.115     5.09     5.416232     20.37107     92.35252        28     1.552     1.298  60.50   0
       157    833.4763    605.6858 300.2402083 +22.8076029     499.0428      72.3147      1.516     3.30      5.33245     20.37107     58.03734         9     0.879     0.767 -66.41   0
       158    130.4920    605.5477 300.0213659 +22.5968709     365.3665     72.25959      1.415     3.60     5.274195     20.37107      45.5515         6     0.974     0.384 -20.75   0
       159    511.9200    602.1353 300.1411554 +22.7102460     414.6211      72.3147      1.291     3.76     5.574319     20.37107     61.08897         8     1.013     0.612  49.28   0
       160    906.8135    600.3498 300.2648152 +22.8280318     751.1156     72.24121      1.644     4.15     5.430959     20.37107     74.60011        13     1.130     0.887  36.03   0
       161    468.5787    594.3584 300.1301855 +22.6950230     902.8246     72.24121      1.710     3.28     5.484003     20.37107     78.16637        14     1.002     0.944 -39.58   0
       162    616.7256    593.0512 300.1767507 +22.7390424     396.1167     72.22282      1.316     3.18     5.500371     20.37107     51.56623         8     0.902     0.672  -6.98   0
       163    664.1123    591.3556 300.1920665 +22.7527527      491.412     72.18604      1.318     2.83     5.137173     20.37107     68.75433         8     0.785     0.686 -48.14   0
       164    634.4833    591.3275 300.1828432 +22.7438677     576.3154     72.33306      1.549     3.78     5.370901     20.37107       60.043         9     1.003     0.699  -4.95   0
       165    512.9464    590.1892 300.1453548 +22.7071225      982.694     72.20444      1.507     3.10     5.580181     20.37107     93.56938        13     0.928     0.904  28.68   0
       166    699.6105    589.6043 300.2036980 +22.7628841     145.7826     72.03873      1.701     3.73     5.082982     20.37107     24.54548         5     1.379     0.290 -45.02   0
       167    478.3820    585.6256 300.1360740 +22.6954530     1621.011     72.22282      1.412     2.44     5.573309     20.37107     228.8352        22     1.197     0.989 -86.85   0
       168    946.7490    585.8577 300.2819811 +22.8358235      3294.49     72.25959      1.562     3.26     5.403702     20.37107      320.065        31     1.276     1.167 -33.47   0
       169    843.5292    582.9868 300.2507159 +22.8040894     401.4081     72.20444      1.636     4.96     5.383046     20.37107     46.44302         8     1.030     0.816  64.75   0
       170    829.0146    582.0168 300.2465046 +22.7994638     202.1972     72.14925      1.429     3.36       5.3384     20.37107     30.10158         5     0.626     0.606  -0.60   0
       171     40.3531    579.0796 300.0019437 +22.5622396     4958.071     72.22282      1.825     3.53      5.43371     20.37107     447.9708        43     1.454     1.392  11.59   0
       172    986.2289    575.9623 300.2975139 +22.8447988      237.095     72.22282      1.570     4.02     5.393631     20.37107     38.83223         6     1.090     0.425  62.20   0
       173    507.4177    576.3374 300.1481317 +22.7014870     228.6932     72.18604      1.351     4.20     5.589846     20.37107     36.62112         7     0.869     0.672 -23.05   0
       174    341.8331    572.3178 300.0978918 +22.6507025     9179.916     72.16765      1.505     2.95     5.407648     20.37107     945.2552        43     1.253     1.222  52.22   0
       175    464.2740    569.3810 300.1369568 +22.6865593     9071.384     72.20444      1.444     2.66     5.522072     20.37107     1023.156        45     1.238     1.209  40.10   0
       176    710.5911    565.9680 300.2147966 +22.7593815     341.3488     72.20444      1.416     4.74     5.240088     20.37107     40.56365         7     1.005     0.634 -23.43   0
       177    875.9850    563.4113 300.2671959 +22.8081816     1834.806     72.11243      1.546     3.03     5.421893     20.37107     184.5607        27     1.274     1.142 -82.08   0
       178    960.6472    560.9335 300.2944123 +22.8328187     12527.38     72.22282      1.598     3.18     5.395411     20.37107      1089.01        51     1.378     1.262 -29.03   0
       179    524.8651    559.0284 300.1591861 +22.7017436     11703.32     72.20444      1.415     2.75     5.594294     20.37107     1394.753        43     1.207     1.163 -63.76   0
       180    694.4010    555.1630 300.2132594 +22.7514268     459.5992     72.20444      1.257     2.58     5.291199     20.37107     67.09921         8     0.804     0.653  33.70   0
       181    252.3166    554.3581 300.0758734 +22.6187095     1428.927     72.16765      1.552     2.84     5.431665     20.37107     160.4653        22     1.201     1.028  35.33   0
       182    499.0768    552.1990 300.1533729 +22.6920541     494.6551     72.09401      1.352     2.54     5.602695     20.37107      59.0646         7     0.749     0.622 -14.92   0
       183    456.5695    547.1935 300.1417629 +22.6778778     4423.812     72.20444      1.426     2.69     5.591692     20.37107     513.7961        31     1.147     1.110  35.53   0
       184    799.3217    547.4931 300.2484573 +22.7806480     814.9746     72.33306      1.317     3.08     5.344162     20.37107     89.29199        13     0.966     0.875  80.64   0
       185    434.8906    545.5455 300.1355489 +22.6709074     1276.388     72.25959      1.423     2.70     5.586582     20.37107     164.6833        20     1.071     1.032  22.88   0
       186    189.2155    544.9464 300.0593039 +22.5970879     617.2219     72.18604      1.381     3.67      5.66467     20.37107     82.48264        12     1.028     0.818   4.21   0
       187    876.4221    542.7127 300.2740539 +22.8023622     1527.969     72.13084      1.556     3.08     5.406313     20.37107      155.313        19     1.163     0.967 -19.35   0
       188    123.3319    542.7634 300.0395276 +22.5767050     389.5149     72.18604      2.305     5.10     5.633151     20.37107     31.35778         6     1.053     0.699 -78.24   0
       189    573.1869    534.7725 300.1821128 +22.7092544       205226     72.20444      1.423     2.61     5.604491     20.37107     24119.83       204     1.525     1.399 -12.90   0
       190    396.6751    540.7936 300.1251961 +22.6580890     291.7975     72.13084      1.392     2.61     5.577597     20.37107     53.13091         6     0.879     0.624  -8.20   0
       191    756.8721    539.8752 300.2376963 +22.7657451     759.1387     72.25959      1.357     2.94     5.389482     20.37107     104.7769        12     0.925     0.859  70.15   0
       192    259.2937    534.6005 300.0844589 +22.6151290     3375.823     72.07558      1.461     2.58     5.497629     20.37107     438.6205        28     1.142     1.114  67.91   0
       193    534.7538    535.5835 300.1698787 +22.6979719     244.7047     72.22282      1.526     3.46      5.60705     20.37107     28.77505         5     0.754     0.459  17.48   0
       194    825.2036    530.7604 300.2619613 +22.7835891     505.5029     72.22282      1.683     3.44     5.373645     20.37107     51.65269         9     0.921     0.669  68.86   0
       195    843.7800    529.0184 300.2683200 +22.7886511     265.1487     72.20444      1.620     3.83     5.393826     20.37107     27.72928         5     0.838     0.502 -38.78   0
       196    605.1131    521.7443 300.1962886 +22.7150762     235.3184     72.27797      1.117     2.47     5.607002     20.37107     41.70234         6     0.723     0.561 -48.27   0
       197    463.8750    514.9855 300.1544950 +22.6708160       2898.6     72.22282      1.516     2.76     5.690352     20.37107      329.855        29     1.217     1.097  60.14   2
       198    308.2377    517.7728 300.1051490 +22.6249699     446.1887     72.22282      1.439     2.34     5.483166     20.37107     45.08689         6     0.694     0.571 -51.15   0
       199    875.4944    511.4799 300.2839060 +22.7931052     296.1446     72.33306      1.164     2.96     5.418904     20.37107      59.8701         7     0.853     0.656  69.75   0
       200    780.5531    504.0003 300.2567275 +22.7625258     309.5532     72.20444      1.136     2.72     5.369482     20.37107     54.71464         6     0.891     0.483 -14.23   0
       201    860.7090    501.3693 300.2825772 +22.7857714     1749.946     72.14925      1.478     2.69     5.423627     20.37107     199.8902        22     1.212     1.020  79.22   0
       202    747.5887    501.2444 300.2473453 +22.7518615     304.3997     72.20444      1.230     3.34     5.398653     20.37107     36.69171         5     0.768     0.421 -66.60   0
       203    732.0085    499.0377 300.2432050 +22.7465612     2486.513     72.22282      1.394     2.68     5.406272     20.37107     316.5464        23     1.053     1.009 -70.12   0
       204    637.1603    495.7784 300.2147036 +22.7172153     395.3901     72.24121      1.289     2.70     5.510499     20.37107     76.49303         8     0.953     0.620 -47.15   0
       205    519.3356    494.8557 300.1783000 +22.6816518     726.5776     72.25959      1.262     2.45     5.664356     20.37107     96.62403        12     0.912     0.766 -20.77   0
       206    989.2052    493.0751 300.3253579 +22.8218548     1328.036     72.13084      1.603     3.39      5.37108     20.37107     119.1653        20     1.158     1.004  17.66   0
       207    861.0831    491.4205 300.2859238 +22.7830231     2215.111     72.16765      1.755     4.45     5.427972     20.37107     218.1153        27     1.540     1.010  76.75   0
       208    974.5975    492.2769 300.3210587 +22.8172527     1055.308     72.11243      2.273     3.75     5.375724     20.37107     70.28258        10     0.966     0.702   2.96   0
       209    400.2528    489.8384 300.1428530 +22.6445268     338.3152     72.20444      1.315     4.80      5.69788     20.37107     47.66302         8     1.189     0.550 -58.74   0
       210    614.1979    489.4956 300.2095889 +22.7085315     586.5657     72.11243      1.533     3.62     5.590658     20.37107     70.80902        13     1.161     0.899  66.55   2
       211    613.9250    485.3558 300.2108478 +22.7072601      497.221     72.18604      1.230     3.42     5.591057     20.37107     45.67947         5     0.772     0.437 -17.87   2
       212    899.2103    486.4926 300.2994162 +22.7930214     4269.189     72.14925      1.475     2.73      5.41244     20.37107     498.2259        33     1.248     1.123 -84.32   0
       213    453.0583    488.4616 300.1597383 +22.6599557     354.2017     72.25959      1.264     2.59     5.768835     20.37107     52.93021         6     0.754     0.496   5.42   0
       214    560.4473    482.5090 300.1951126 +22.6904217     364.6075     72.20444      1.551     4.74     5.607095     20.37107     40.20871         8     1.277     0.499  -1.37   0
       215    991.1257    477.1126 300.3311395 +22.8178390     658.6277     72.35142      1.507     3.98     5.365252     20.37107     63.41883        14     1.107     0.892   3.42   0
       216    131.3860    476.5716 300.0635200 +22.5601208     981.3373     72.22282      1.539     3.50     5.587287     20.37107     123.7593        16     1.072     0.980  70.81   0
       217    930.5481    474.5110 300.3130822 +22.7989577     334.3282     72.22283      1.507     3.80     5.388918     20.37107     39.08079         6     0.971     0.427 -72.93   0
       218    761.0972    474.3703 300.2602811 +22.7481822     153.8418     72.14925      1.259     3.45     5.390247     20.37107     32.11178         5     0.786     0.437  18.39   0
       219    792.5648    470.8281 300.2712419 +22.7565869     295.2397     72.22282      1.359     3.51     5.368388     20.37107     41.86572         5     0.964     0.368  -5.43   0
       220    436.8447    468.4689 300.1611805 +22.6493542      366.591     72.16765      0.713     1.23     5.806195     20.37107     225.3231         5     0.621     0.380 -59.62   0
       221    124.0109    466.9192 300.0643602 +22.5551387     413.2307     72.18604      1.594     3.64     5.587287     20.37107     51.75076         8     0.934     0.778  32.94   0
       222    986.9517    466.5009 300.3332819 +22.8135378     356.8631     72.24121      1.283     4.29     5.366478     20.37107     54.06223         6     1.065     0.493   5.08   0
       223    731.8732    461.0158 300.2555060 +22.7355919     521.3297     72.20444      1.367     3.16     5.408069     20.37107     65.35367        10     0.896     0.758 -80.52   0
       224    620.3217    458.7266 300.2214851 +22.7015239     399.0858      72.3147      1.391     3.00     5.553998     20.37107     58.56184         6     0.725     0.656  50.84   0
       225    340.0924    459.2028 300.1340741 +22.6176981        246.5     72.11243      1.412     2.16     5.601917     20.37107     36.24642         5     0.910     0.699  -3.23   0
       226    672.7152    457.0034 300.2383703 +22.7167216     775.0946     72.13084      1.342     2.49     5.405288     20.37107     109.8343        11     0.828     0.809 -83.58   0
       227    733.3888    449.0345 300.2598676 +22.7326017      860.746     72.18604      1.423     3.09     5.408116     20.37107     95.42193        15     1.045     0.891  52.01   0
       228    987.3590    449.5437 300.3389136 +22.8087826     404.4016     72.18604      1.191     3.09     5.365784     20.37107     74.59015         7     0.820     0.678  10.33   0
       229    890.7187    445.6136 300.3100376 +22.7787246     1078.365     72.18604      1.520     3.12     5.403477     20.37107     121.7812        16     1.044     0.931  89.41   0
       230    855.3360    441.9598 300.3001874 +22.7670814     359.8625     72.16765      1.278     3.62     5.414634     20.37107     49.36546         8     1.099     0.472  89.25   0
       231    875.0381    441.6817 300.3064228 +22.7728998     744.8571     72.16765      1.526     3.84     5.412782     20.37107     74.00259        13     1.171     0.808  58.51   0
       232    619.2753    439.7557 300.2273167 +22.6957585     3183.136     72.18604      1.325     2.34     5.540502     20.37107     433.8197        28     1.088     1.050 -68.26   0
       233    765.6851    439.3073 300.2730930 +22.7394765     291.3996     72.38811      1.355     4.49     5.399883     20.37107     45.64894         5     0.778     0.736 -44.55   0
       234    979.8344    439.2622 300.3399028 +22.8035734     455.6588     72.22282      1.403     3.65     5.366383     20.37107     71.44958         6     1.037     0.386  12.67   0
       235    459.1715    426.4888 300.1817572 +22.6439842     477.6159     72.18604      1.507     3.70     5.859883     20.37107     47.89849         8     0.896     0.640  52.21   0
       236    902.7419    418.6237 300.3225485 +22.7745624     515.8529     72.20444      1.456     2.94     5.383146     20.37107     67.51719        10     0.977     0.718  53.54   0
       237    989.1315    417.8263 300.3497616 +22.8001904     1085.474     72.18604      1.380     2.70     5.364463     20.37107     129.8173        15     1.069     0.881  11.79   0
       238    729.7913    413.5615 300.2702595 +22.7213271     1119.553     72.22282      1.378     2.56     5.409504     20.37107     160.5076        16     1.049     0.875  72.87   0
       239    525.5877    414.2196 300.2064206 +22.6603565     412.4104     72.16765      1.240     2.61      5.84112     20.37107     68.11197         7     0.836     0.558 -13.40   0
       240    233.9185    411.7854 300.1164312 +22.5722580     777.2343     72.18604      1.474     3.29     5.339237     20.37107     83.81454        12     0.959     0.863  86.09   0
       241    296.2135    407.4695 300.1372108 +22.5896895     3642.016     72.22282      1.431     2.60     5.634396     20.37107     419.0177        28     1.166     1.097  43.51   0
       242    243.3638    402.1624 300.1224919 +22.5723256      7660.84     72.27797      1.532     2.80     5.391891     20.37107       801.16        42     1.284     1.220  41.16   0
       243   1009.4105    397.2791 300.3627589 +22.8003489     1858.292     72.18604      1.564     3.16     5.364436     20.37107     202.0387        26     1.224     1.095 -57.27   0
       244    384.2126    396.4574 300.1681685 +22.6128970     4885.243     72.16765      1.419     2.67     5.847899     20.37107      544.782        31     1.165     1.117  82.22   0
       245    645.9665    393.7951 300.2505494 +22.6905429     807.0467     72.18604      2.171     5.18     5.463028     20.37107     70.99043        16     1.674     0.898 -41.13   0
       246    628.4211    393.2158 300.2452704 +22.6851218     18766.55     72.16765      1.376     2.48     5.501521     20.37107     2184.825        60     1.316     1.203  58.95   0
       247    474.8199    394.7502 300.1969295 +22.6395535     350.6762     72.18604      1.906     4.70      5.89068     20.37107     43.66134         6     1.060     0.591  51.06   0
       248    255.0990    391.2643 300.1296786 +22.5727131     224.0541     72.29633      1.410     3.66     5.474889     20.37107     41.91744         5     0.809     0.519 -53.81   0
       249    872.4810    389.3842 300.3225984 +22.7570954     251.9831     72.18604      1.483     5.31     5.402485     20.37107     34.93541         9     1.161     0.686 -41.19   0
       250    825.4017    383.8037 300.3097263 +22.7413974    -199.1172     71.98341      1.176     2.81     5.417214     20.37107     50.56313         6     0.719     0.616  36.51   0
       251    248.3659    380.3883 300.1311132 +22.5675716     431.9954     72.18604      1.534     3.94     5.448921     20.37107     43.61271         6     0.871     0.511 -40.71   0
       252    962.0880    375.9096 300.3549260 +22.7800399     744.3199     72.36977      1.496     3.53     5.364436     20.37107     98.76132        15     1.181     0.869 -38.56   0
       253    498.8198    375.1337 300.2107681 +22.6411065     263.8426     72.16765      1.051     2.44     5.902301     20.37107     47.02648         6     0.720     0.561 -45.89   0
       254    183.1669    373.2619 300.1131473 +22.5459832      2162.85     72.22282      1.531     2.98     5.368696     20.37107     213.0008        25     1.173     1.107  70.79   0
       255    569.0776    362.6639 300.2366962 +22.6585674     6726.991     72.29633      1.382     2.49     5.769321     20.37107     895.2902        34     1.187     1.056  69.47   0
       256    982.6539    363.2178 300.3654619 +22.7825436     1153.977     72.18604      1.467     3.08     5.364436     20.37107      125.563        18     1.153     0.933  -4.06   0
       257    283.9268    361.9924 300.1481446 +22.5729455     671.4139     72.16765      1.367     2.54     5.750545     20.37107     120.7523        10     0.910     0.679  66.68   0
       258    141.6182    355.2772 300.1060629 +22.5283646     503.8167     72.20444      1.264     2.89     5.407639     20.37107     84.21224        10     0.955     0.761 -35.39   0
       259    829.0783    354.8113 300.3202805 +22.7341607     377.1897     72.18604      1.308     3.19     5.423116     20.37107     47.71513         6     0.886     0.466 -32.79   0
       260    773.3589    351.7541 300.3038983 +22.7166014     1180.831     72.25959      1.493     2.73     5.440871     20.37107     139.1779        20     1.193     0.941  62.55   0
       261    682.8990    352.9057 300.2753267 +22.6898485      493.464     72.38811      1.273     2.58     5.411486     20.37107     78.23422        10     0.856     0.729 -87.16   0
       262    475.7460    348.9097 300.2120918 +22.6266590     6103.469     72.24121      1.380     2.45     5.910986     20.37107     839.9625        34     1.197     1.065 -87.33   0
       263    965.1798    343.9576 300.3662585 +22.7717739     623.4258     72.24121      1.400     3.49     5.368642     20.37107     65.92233        10     0.936     0.714  10.64   0
       264    867.6061    343.4571 300.3359806 +22.7424278      1424.56     72.16765      1.469     2.55     5.395906     20.37107     171.8811        19     1.075     1.004  54.74   0
       265    460.3304    337.7904 300.2108994 +22.6188459     417.2369     72.18604      1.333     3.02     5.874303     20.37107     58.53979         9     1.034     0.677 -67.50   0
       266    542.9407    335.5093 300.2373652 +22.6429348      424.273     72.27797      1.365     3.44      5.82142     20.37107     54.84177         8     0.866     0.681  53.16   0
       267    820.6518    334.6655 300.3241891 +22.7258448     195.0433     72.24121      0.957     3.22     5.424446     20.37107     49.52153         5     0.951     0.467   4.52   0
       268    840.4491    331.1372 300.3315078 +22.7307560     445.9489     72.25959      1.324     3.14     5.408241     20.37107     75.44617         9     1.044     0.698 -35.27   0
       269    363.2939    328.1283 300.1838276 +22.5869993       2542.5      72.3147      1.373     2.64     5.824872     20.37107     303.2961        26     1.169     1.067  51.75   0
       270     81.7285    325.6203 300.0970653 +22.5018963     1023.853     72.22282      1.586     3.47     5.511545     20.37107     102.3191        16     1.139     0.882 -13.45   0
       271    332.6411    317.5327 300.1777255 +22.5747712     30093.21     72.18604      1.482     2.56     5.811417     20.37107     3924.195        68     1.364     1.223  60.58   0
       272    867.4205    315.2573 300.3450717 +22.7342615     1398.308     72.20444      1.344     2.62     5.374244     20.37107     167.8007        17     1.020     0.883  69.58   0
       273    823.1954    313.0569 300.3319927 +22.7203917     242.7206     72.16765      1.302     3.32     5.418468     20.37107     41.51905         5     0.797     0.491 -43.08   0
       274     28.9718    305.2246 300.0872840 +22.4802249     4887.837     72.18604      1.658     3.21     5.453135     20.37107     438.7444        40     1.356     1.314  82.55   0
       275    782.7348    303.9402 300.3223337 +22.7056587       674.53     72.24121      1.525     2.52     5.444717     20.37107     86.59336        11     0.845     0.817  33.32   0
       276    206.9870    303.5721 300.1431634 +22.5331083     582.8171     72.20444      1.777     3.00     5.330359     20.37107     66.11954         8     0.832     0.789  34.87   0
       277    431.3211    302.9657 300.2131650 +22.6001489     544.7257     72.14925      1.383     3.12     5.803093     20.37107     65.68899         9     0.971     0.682  28.72   0
       278    743.1094    297.3954 300.3121029 +22.6919148     2052.496     72.11242      1.381     2.39     5.448606     20.37107     267.5053        23     1.066     1.029 -49.30   0
       279    551.3609    292.2898 300.2540082 +22.6330341     470.0669     72.18604      1.304     2.16     5.548805     20.37107      53.4781         5     0.681     0.461  74.48   0
       280    958.3055    290.4496 300.3814727 +22.7543234     575.3691     72.25959      1.422     3.12     5.385261     20.37107     81.26067        10     0.974     0.755 -30.43   0
       281    811.5698    283.7669 300.3378687 +22.7084880     337.5365     72.22282      2.456     4.62     5.427365     20.37107     35.58161         6     1.106     0.549  25.85   0
       282    404.8603    281.8859 300.2117652 +22.5861650     2053.614      72.3147      1.540     3.42     5.740525     20.37107     228.9012        26     1.318     1.035  72.49   0
       283    617.0053    280.8557 300.2781669 +22.6494044     238.3653     72.18604      1.237     4.73      5.43794     20.37107     41.09565         8     1.011     0.651 -25.14   0
       284    844.0645    275.0823 300.3508193 +22.7157157     895.2468      72.3147      1.809     3.61     5.381556     20.37107     91.80991        15     1.115     0.962 -42.07   0
       285    836.5056    275.6096 300.3482909 +22.7136051      328.589     72.14925      1.365     4.42     5.391026     20.37107     46.03913         7     1.061     0.523  44.60   0
       286    726.5400    272.4364 300.3150336 +22.6797773     396.8057     72.22282      1.615     4.21     5.449124     20.37107     58.68185        10     1.130     0.810  24.09   0
       287    694.5701    271.8390 300.3052624 +22.6700349     280.5699     72.20444      1.204     3.45     5.447374     20.37107     45.40308         5     0.749     0.460  72.04   0
       288    480.7423    261.3635 300.2420460 +22.6029957     1230.117     72.20444      1.343     2.52     5.467339     20.37107     144.2896        17     1.065     0.888 -71.24   0
       289    288.1457    261.6523 300.1820055 +22.5453856     368.3164     72.24121      1.353     3.03     5.803323     20.37107     46.52264         5     0.742     0.440 -17.71   0
       290    565.7639    259.4264 300.2691537 +22.6279004     283.3863     72.22282      1.506     3.37     5.474211     20.37107     33.10098         5     0.742     0.442 -21.80   0
       291    992.0712    257.2100 300.4027911 +22.7548625     299.2405     72.18604      1.333     5.46     5.376354     20.37107     42.02592         9     1.133     0.741  45.55   0
       292    221.2144    256.3434 300.1629063 +22.5238060     200.7639     72.18604      1.155     4.14     5.348933     20.37107     30.67833         5     0.929     0.526 -52.78   0
       293    725.5947    253.2068 300.3209758 +22.6739645     2298.765     72.05716      1.414     2.62     5.448397     20.37107     259.1418        23     1.227     0.918  58.20   0
       294    986.9634    247.6804 300.4042879 +22.7505923     3081.652     72.16765      1.525     2.86     5.355883     20.37107     405.6824        31     1.257     1.168 -61.00   0
       295    434.0399    237.1904 300.2353444 +22.5820606     658.7934     72.20444      1.261     3.12     5.339661     20.37107      86.6412        11     0.963     0.775 -50.91   0
       296    108.8630    231.1582 300.1361367 +22.4829034     1350.045     72.18604      1.739     3.94     5.615326     20.37107     117.1358        23     1.394     1.060 -21.79   0
       297    139.6891    231.0057 300.1457701 +22.4920978     656.6061     72.11243      1.548     3.29     5.612608     20.37107      84.7826        12     1.091     0.831 -41.23   0
       298   1002.6602    228.1020 300.4155361 +22.7496545     487.4467     72.27797      1.365     4.19      5.34207     20.37107     57.20138        11     1.069     0.784  11.77   0
       299    192.7117    223.4392 300.1647116 +22.5058132     352.8546     72.18604      1.394     5.09     5.489252     20.37107     40.82957        11     1.209     0.728   8.76   0
       300    987.7859    220.9319 300.4132193 +22.7431414     317.9906     72.22282      1.341     3.01     5.326475     20.37107     54.58393         7     0.862     0.696 -79.07   0
       301    868.8650    217.0450 300.3773772 +22.7064422     358.2724     72.20444      1.463     3.86     5.348217     20.37107     34.70519         5     0.821     0.520  37.51   0
       302    797.0914    214.5850 300.3557911 +22.6842560     644.0184     72.13084      1.443     3.57     5.405867     20.37107     94.46796        13     1.056     0.942  22.39   0
       303    895.3687    203.8810 300.3899132 +22.7105853     2076.582     72.20444      1.425     2.62     5.321877     20.37107     248.4489        24     1.134     1.093 -60.84   0
       304    314.0320    200.8434 300.2097785 +22.5356689     2143.238     72.25959      1.425     2.78     5.470843     20.37107     255.1042        25     1.179     1.028  80.10   0
       305    391.9156    196.0603 300.2355680 +22.5576231     1180.459      72.3147      1.577     3.75     5.244159     20.37107     108.8663        20     1.267     0.995  32.80   0
       306    143.3581    196.1830 300.1582018 +22.4831950     391.5865     72.22282      1.613     6.00     5.616539     20.37107     35.97072        12     1.032     0.982 -77.55   0
       307   1013.1275    196.3441 300.4291014 +22.7436464     2143.583     72.22282      0.629     0.92     5.395907     20.37107     1216.587         5     0.477     0.365  82.97   0
       308    793.4493    195.6022 300.3608109 +22.6777056     567.4905     72.18604      1.410     3.27     5.384857     20.37107      77.4957         9     0.916     0.725  25.07   0
       309    901.0365    192.4681 300.3953820 +22.7089974     412.0347     72.20444      1.732     4.39     5.326177     20.37107     42.10972         6     0.823     0.666 -27.05   0
       310    208.7081    188.2276 300.1811034 +22.5004907     766.2665     72.14925      1.415     2.81     5.408657     20.37107     115.2894        14     1.138     0.837 -67.12   0
       311    326.8307    187.9685 300.2179355 +22.5358030     337.2115     72.20444      1.788     3.91     5.350007     20.37107     29.87928         5     0.833     0.526 -32.65   0
       312    746.5397    185.0778 300.3495977 +22.6606393      1732.66     72.25959      1.413     2.72     5.380885     20.37107     197.8353        22     1.308     0.949  74.85   0
       313    811.3714    184.9545 300.3698518 +22.6800059     600.6506     72.24121      1.275     2.40     5.367496     20.37107     87.28477        11     0.916     0.712 -15.91   0
       314    178.3996    183.6719 300.1731543 +22.4901009     322.3732     72.07558      1.473     3.94      5.53674     20.37107     29.13159         5     1.045     0.424 -75.17   0
       315    229.8276    181.3132 300.1899139 +22.5048316     594.7587     72.20444      1.474     4.49     5.348577     20.37107     64.91948        10     1.040     0.850 -18.14   0
       316   1018.0129    177.5304 300.4367265 +22.7396931     984.3997     72.22282      1.712     4.14     5.431131     20.37107     99.70066        18     1.239     1.074  83.62  16
       317    520.1000    177.4461 300.2815142 +22.5906591     382.2274     72.22282      1.570     3.21     5.307708     20.37107     53.68214         8     1.039     0.549 -57.89   0
       318    750.5938    176.6561 300.3535921 +22.6594302     903.4308     72.18604      1.709     2.96     5.367663     20.37107     102.2678        14     1.022     0.932 -13.44   0
       319    671.0288    175.7774 300.3290765 +22.6353634     1356.734     72.20444      1.360     2.71     5.364515     20.37107     192.4564        16     1.005     0.910  31.54   0
       320    492.5434    172.2085 300.2746304 +22.5809021     432.3383     72.18604      1.212     3.08     5.251851     20.37107     51.56541         6     0.863     0.558  19.76   0
       321    597.3837    167.6042 300.3087786 +22.6109675      1054.71     72.11243      1.257     2.20      5.34317     20.37107     152.7262        17     1.078     0.844 -71.71   0
       322    878.3992    166.5827 300.3967132 +22.6947765     899.0262     72.11243      1.555     3.79     5.351824     20.37107      109.189        15     1.161     0.976  46.11   0
       323    866.4944    167.2878 300.3927713 +22.6914174     1478.999     72.38811      1.463     2.53     5.353603     20.37107     185.7494        19     1.194     0.915  78.30   0
       324    924.9145    166.2631 300.4113278 +22.7086010      299.239      72.3147      1.310     3.83     5.346339     20.37107     37.64635         8     0.894     0.857 -86.17   0
       325    995.2504    156.9504 300.4362947 +22.7269614     1222.157     72.24121      1.404     2.78      5.43163     20.37107      147.404        17     1.041     0.964  47.22   0
       326     19.4092    153.3700 300.1335516 +22.4337534     621.2147     72.20444      1.563     3.76     5.282877     20.37107      62.9411         9     1.033     0.731 -59.98   0
       327    229.5082    149.7237 300.2000552 +22.4956596     757.7645     72.35142      1.424     2.58     5.451514     20.37107     89.26637        13     0.920     0.857 -58.84   0
       328     91.2501    144.2509 300.1588368 +22.4526633     2258.501     72.24121      1.652     3.14      5.70901     20.37107       236.93        29     1.313     1.217  50.15   0
       329    914.5019    141.5889 300.4160785 +22.6983856     734.4894     72.09401      1.483     3.21     5.357017     20.37107     84.71046        13     1.015     0.904 -59.34   0
       330     40.5638    141.6572 300.1439227 +22.4367293     616.3546     72.20444      1.744     4.74     5.484806     20.37107     60.71677         9     1.234     0.567   8.43   0
       331    248.5945    137.6673 300.2099004 +22.4979129     5566.381     72.18604      1.533     2.77     5.501485     20.37107     715.3166        36     1.284     1.146  66.70   0
       332     32.5325    131.8630 300.1446012 +22.4315094     1319.155     72.25959      1.752     3.64     5.533105     20.37107     139.1703        23     1.353     1.117  62.85   0
       333    232.0649    128.8611 300.2076130 +22.4904309     573.2316     72.24121      1.313     3.11     5.664219     20.37107     72.56398         9     0.903     0.692  15.97   0
       334    892.7648    119.4940 300.4164597 +22.6855246     3532.342     72.18604      1.477     2.52      5.32857     20.37107     475.4156        29     1.243     1.089  72.99   0
       335    996.4285    118.2964 300.4491930 +22.7161883     2812.557     72.14925      1.623     2.70     5.431303     20.37107     344.8598        30     1.281     1.129 -74.63   0
       336    442.1573    114.9425 300.2775049 +22.5493519      450.341     72.14925      1.247     2.52     5.275115     20.37107     80.38944        10     0.911     0.666 -27.89   0
       337    195.2883    115.3644 300.2005488 +22.4755357      331.297     72.18604      1.274     4.65     5.911341     20.37107     38.43211         8     1.166     0.526 -23.14   0
       338    556.5349    112.1411 300.3140322 +22.5827902     353.7209     72.24121      1.260     3.96     5.428987     20.37107     47.98714         8     0.996     0.587  48.59   0
       339    366.3940    106.6192 300.2566181 +22.5242721     701.3425     72.16765      2.256     3.80     5.285048     20.37107      68.0097        11     1.239     0.659 -25.77   2
       340    132.3167    103.4846 300.1848171 +22.4532569     606.8145     72.33306      1.509     3.42     6.082798     20.37107     75.00616        11     0.987     0.887 -12.30   0
       341    493.5608    101.9167 300.2977325 +22.5609975     1744.674     72.16765      1.407     2.56     5.314544     20.37107     234.2659        20     1.094     0.953 -88.68   0
       342    421.7178    102.7495 300.2750933 +22.5397264     447.6914     72.22282      1.162     2.01     5.286932     20.37107     70.57732         6     0.672     0.574 -30.76   0
       343     30.3384    102.8984 300.1533068 +22.4225325     280.4855     72.27797      1.352     4.56     5.770757     20.37107     46.00826         7     1.042     0.566 -19.49   0
       344    555.4291    101.0956 300.3172678 +22.5792829     438.6595     72.14925      1.555     3.71     5.445858     20.37107     46.09277         6     0.800     0.495  88.42   0
       345    317.9670     97.9953 300.2443423 +22.5072905     203.1778     72.18604      1.399     3.69     5.396024     20.37107     26.54249         5     0.640     0.612  -0.25   0
       346    237.1349     96.9302 300.2195391 +22.4827740     398.7993     72.24121      1.450     4.25     5.951619     20.37107      46.5609         6     1.149     0.449  63.00   0
       347    782.0856     91.6515 300.3909659 +22.6443999     414.1162     72.22282      1.171     2.62     5.372703     20.37107     55.27774         7     0.731     0.634   4.53   0
       348    267.5291     81.5994 300.2339626 +22.4874720      5947.77     72.11243      1.564     2.72     5.673903     20.37107     767.8791        39     1.344     1.172  70.61   0
       349    118.6207     81.2851 300.1877531 +22.4427756     648.7031     72.14925      1.247     2.68     6.166219     20.37107     80.62795        10     0.924     0.661  -5.01   0
       350    897.2824     79.6798 300.4307735 +22.6754182     387.6454     72.33306      1.339     3.78     5.318915     20.37107     46.57774         5     0.846     0.485 -45.90   0
       351    239.5903     75.2889 300.2273162 +22.4772903     391.6389     72.14925      1.630     4.36     5.924743     20.37107      39.3042         7     0.927     0.583 -36.12   0
       352    283.1008     73.5374 300.2414198 +22.4898187     406.4558     72.29633      1.795     3.97     5.539524     20.37107     48.33761         5     0.912     0.495  -4.26   0
       353     29.7968     72.4253 300.1630136 +22.4136170     323.6772     72.16765      1.175     4.18     6.361445     20.37107     38.99915         6     1.024     0.487  -5.46   0
       354    513.6905     67.0414 300.3153039 +22.5569955     6270.277     72.20444      1.449     2.69      5.47758     20.37107     731.1014        37     1.275     1.115  76.76   0
       355    399.2469     66.9109 300.2797127 +22.5226949     572.0087     72.18604      1.282     2.84     5.363429     20.37107     83.24686        11     0.876     0.832  12.88   0
       356    570.7041     61.4972 300.3348591 +22.5724673     326.1847     72.38811      1.428     3.65     5.655251     20.37107     43.12913         7     0.855     0.661  73.47   0
       357    766.2382     57.0516 300.3972379 +22.6297032     805.7747     72.22282      1.578     3.35     5.553235     20.37107     105.7965        14     1.141     0.879 -83.99   0
       358    707.8756     58.3867 300.3786112 +22.6126244     349.1337     72.22282      1.389     3.64     5.549208     20.37107     46.89142         6     0.931     0.467 -39.40   0
       359    858.3976     55.8837 300.4263558 +22.6569381     721.3173     72.13084      0.903     1.90     5.250931     20.37107     225.9991        10     0.931     0.636  -1.74   0
       360    925.8899     53.4585 300.4481961 +22.6764282     308.7064     72.27797      1.662     4.26     5.408556     20.37107      34.2582         5     1.198     0.432  63.36   0
       361    206.5257     51.1608 300.2248500 +22.4604526     418.9469     72.16765      1.452     4.23     6.064127     20.37107     44.24322         7     1.105     0.461 -38.08   0
       362    564.9019     49.7437 300.3368603 +22.5673502     522.3434     72.29633      1.516     3.71     5.699733     20.37107     73.88195        12     1.254     0.752 -11.02   0
       363    642.1175     47.1894 300.3617455 +22.5897253     6200.071     72.16765      1.431     2.68     5.711582     20.37107     826.9812        38     1.282     1.134 -86.97   0
       364    417.0119     46.1762 300.2919618 +22.5220526     1518.052     72.20444      1.560     2.99     5.399715     20.37107     160.1757        20     1.113     1.000   3.90   0
       365    683.1744     44.6310 300.3753697 +22.6012756     869.4131     72.20444      1.315     2.84     5.675567     20.37107     132.4512        13     1.041     0.824 -74.10   0
       366    753.1685     42.3986 300.3979114 +22.6215767     370.5814     72.16765      1.482     2.52     5.600178     20.37107     43.53646         6     0.722     0.603 -64.63   0
       367    699.2929     40.9548 300.3815847 +22.6050412     585.9708     72.22282      1.099     2.00     5.660443     20.37107     88.34485         7     0.665     0.648 -75.82   0
       368     12.3289     39.5897 300.1682244 +22.3989507     318.7869     72.18604      1.622     5.00      7.24562     20.37107     36.42659         6     1.151     0.614 -20.92   0
       369    968.8420     38.6898 300.4663840 +22.6850230      555.285     72.22282      1.528     2.51     5.427822     20.37107     72.33972         8     0.848     0.627  11.85   0
       370    165.9043     38.2571 300.2163977 +22.4445770     729.2359     72.27797      1.516     3.53      6.06368     20.37107     93.93851        14     1.173     0.857  69.75   0
       371    737.4806     36.0970 300.3950625 +22.6150698     471.5587     72.33306      1.311     4.00     5.584628     20.37107     59.22285         8     1.043     0.556  58.20   0
       372    701.4520     31.1606 300.3854312 +22.6028694     897.0545     72.18604      1.781     4.59     5.710528     20.37107     90.90628        13     1.433     0.734  51.41   0
       373    686.2184     32.0615 300.3803912 +22.5985704     2785.123     72.18604      1.449     2.82     5.748571     20.37107     314.6652        27     1.248     1.049 -84.06   0
       374    326.9622     32.7572 300.2682817 +22.4912320     446.1196     72.29633      1.541     4.82     5.485773     20.37107     48.38508        10     1.171     0.676  87.04   0
       375    812.9141     30.9086 300.4202635 +22.6361446      639.851     72.36977      0.453     1.90     5.677605     20.37107     451.7029         5     0.417     0.272  17.38   0
       376    205.2739     27.6623 300.2320743 +22.4533245     870.5775     72.24121      0.729     0.98     6.057577     20.37107     392.0576         5     0.531     0.439 -36.04   0
       377    772.7504     23.7635 300.4100548 +22.6220731     1529.491     72.22282      1.425     2.58     5.749662     20.37107     201.3966        20     1.096     1.002  36.94   0
       378    710.6335     16.7342 300.3929674 +22.6014660     693.1896     72.20444      1.439     3.09     5.752207     20.37107     87.86322        12     0.923     0.887 -39.33   0
       379    806.3528   1022.0845 300.0963819 +22.9190936     350.2142     64.38804      1.930     5.71     4.230287     20.37107     33.29829         6     1.157     0.793   3.73  16
       380     89.3425     16.1689 300.1997494 +22.4152954     351.2759     72.22282      1.308     2.16     6.539683     20.37107     61.72769         7     0.756     0.595 -59.60   0
       381    752.0521   1014.5701 300.0818986 +22.9006574     605.9312     72.22282      2.346     7.55      3.84833     20.37107     54.23925        10     1.455     1.098  24.61  16
       382    802.6302     13.1305 300.4228169 +22.6279521     446.6685     72.20444      1.629     2.70     5.892334     20.37107      54.4653         7     0.799     0.617  55.99   0
       383    315.5788   1013.0007 299.9464855 +22.7692930     1802.362     72.13084      5.561     5.77     6.988614     20.37107     79.98339        35     1.701     1.452   2.61  16
       384    154.6848   1009.0189 299.8977423 +22.7198646     897.7039     72.13084      1.951     3.91     92.49338     20.37107     40.77865         5     1.476     0.297 -58.33   2
       385     99.9889    949.7682 299.9000123 +22.6864587      5918.89     72.20444     22.626    92.35     30.89852     20.37107     1213.337      2875    17.110    13.831  10.98  19
