#   1 NUMBER                 Running object number                                     
#   2 X_IMAGE                Object position along x                                    [pixel]
#   3 Y_IMAGE                Object position along y                                    [pixel]
#   4 ALPHA_J2000            Right ascension of barycenter (J2000)                      [deg]
#   5 DELTA_J2000            Declination of barycenter (J2000)                          [deg]
#   6 FLUX_APER              Flux vector within fixed circular aperture(s)              [count]
#   7 FLUXERR_APER           RMS error vector for aperture flux(es)                     [count]
#   8 FLUX_RADIUS            Fraction-of-light radii                                    [pixel]
#   9 FWHM_IMAGE             FWHM assuming a gaussian core                              [pixel]
#  10 BACKGROUND             Background at centroid position                            [count]
#  11 THRESHOLD              Detection threshold above background                       [count]
#  12 FLUX_MAX               Peak flux above background                                 [count]
#  13 ISOAREA_IMAGE          Isophotal area above Analysis threshold                    [pixel**2]
#  14 A_IMAGE                Profile RMS along major axis                               [pixel]
#  15 B_IMAGE                Profile RMS along minor axis                               [pixel]
#  16 THETA_IMAGE            Position angle (CCW/x)                                     [deg]
#  17 FLAGS                  Extraction flags                                          
         1    746.4202     22.5940 300.4100173 +22.6220299     1440.477     72.01362      1.597     3.22      7.09306     20.32241     154.3704        21     1.289     0.994  70.35   0
         2    490.0560     15.3566 300.3324823 +22.5432464     1149.479     72.03197      1.625     2.82     6.243729     20.32241     107.0101        17     1.058     0.931 -16.06   0
         3     62.8601     14.8079 300.1997497 +22.4151903     595.9359     71.99526      2.249     4.55     7.523116     20.32241     46.28428         7     1.014     0.754 -18.61   0
         4    393.7164     13.1621 300.3031980 +22.5137816     774.2219     72.01362      1.486     3.57     6.561256     20.32241     86.41315        13     1.047     0.818  14.36   0
         5    776.0957     12.2833 300.4226089 +22.6279386     468.8918     72.21521      1.400     5.04     7.266282     20.32241     45.12148         9     1.136     0.633  23.27   0
         6    733.3671      4.0630 300.4119497 +22.6127927     508.2819     68.78467      1.461     3.35     7.403887     20.32241      71.4688        13     1.112     0.779  42.83  16
         7    165.1985      3.1257 300.2353502 +22.4424815      3491.23     65.01138      1.620     3.06     6.747271     20.32241     344.8194        34     1.423     1.120   9.24  24
         8    161.0848    972.8792 299.9193943 +22.7196728     1549.038      72.1786     11.571    12.54     61.98402     20.32241     50.44426        36     3.371     1.297  42.38   3
         9    962.1539   1023.7880 300.1523339 +22.9744746     289.9702      55.3725      2.227     4.39     4.634083     20.32241     30.78217         5     1.419     0.387  -5.55  24
        10     78.1684   1009.8832 299.8815874 +22.7054007     5239.389     72.03197     16.925    93.79     73.83457     20.32241     167.8559      2428    18.776    16.169  34.64  27
        11     69.9088    945.4041 299.8999856 +22.6844337     5991.557     71.94017     33.886   124.32     21.61684     20.32241     1251.834      5366    24.283    17.661 -51.15  19
        12      7.2635    974.9981 299.8708978 +22.6741175     1525.507     72.03197     19.576    24.19    -7.700443     20.32241     37.36503        63     4.399     3.693  79.85  19
        13    231.4592    972.4606 299.9414135 +22.7406680     7308.404     72.08699      8.246    29.82     49.79534     20.32241      152.184       644     9.463     4.832  62.57  18
        14      2.4361   1010.7214 299.8577821 +22.6829095     1629.567     61.99367      3.891    12.66    -22.53178     20.32241     52.01763        40     2.546     1.752  -5.09  27
        15    919.9313    970.4019 300.1565245 +22.9464890     786.2197     71.99526      2.224     7.79      4.75104     20.32241     38.49699        19     1.393     1.219 -37.74   0
        16    135.8033    951.2026 299.9185823 +22.7058702     1204.899     71.81146     14.046    16.21     39.99942     20.32241     41.47622        18     4.599     1.588  16.65   3
        17    140.0869    957.0869 299.9180008 +22.7088431      1698.69     72.16029     12.364    14.24      46.0077     20.32241     52.78832        35     3.344     1.686  18.51   3
        18    137.7897    953.7440 299.9183736 +22.7071951     1538.083     72.03197      9.371    12.79     43.01337     20.32241     54.80725        29     3.106     1.466 -47.88   3
        19      6.4964    981.9166 299.8684100 +22.6758707     1632.502     72.19691     20.060    29.57    -10.21369     20.32241     49.01057       104     7.262     3.343  89.91  27
        20    645.4109    953.2677 300.0765119 +22.8593001       6734.5     72.03197      2.053     4.67     5.009851     20.32241     363.6454        53     1.662     1.503  31.20   0
        21    540.4302    990.9761 300.0315487 +22.8386512     2375.933     72.03197      2.159     5.78     5.010159     20.32241     120.8971        36     1.590     1.481 -37.01   0
        22    157.2160    944.4008 299.9274506 +22.7103445     1039.279     71.90342      5.847     7.23     34.94634     20.32241     37.62315        10     1.646     0.890 -46.33   2
        23    553.9484    943.9173 300.0510607 +22.8291969     1502.716     72.05032      1.919     4.95     4.985135     20.32241     99.78528        27     1.416     1.295  18.33   0
        24    447.7339    940.3973 300.0191327 +22.7963392     1115.668     72.03197      1.861     5.68     5.054569     20.32241     78.98678        21     1.326     1.195 -40.38   0
        25    378.2973    938.3765 299.9981774 +22.7749359     6513.645     71.95854      2.037     4.66     5.480173     20.32241     411.5145        53     1.622     1.525 -20.66   0
        26      3.4781   1003.9209 299.8603172 +22.6812728     2230.696     66.71695     18.455    31.75    -19.22029     20.32241     57.86908       157     7.366     3.797  35.83  27
        27    411.0627    925.2950 300.0126278 +22.7810083      620.898     72.12365      1.991     6.63     5.333516     20.32241      31.6997        10     1.292     0.956  65.90   0
        28    924.8199    917.3214 300.1753090 +22.9327044     2115.432     72.03197      2.203     5.51     5.510549     20.32241     92.63524        34     1.539     1.469 -79.74   0
        29    595.3664    918.0621 300.0723674 +22.8341911     1661.011     72.03197      0.617     0.73     4.983202     20.32241     920.3634         7     0.513     0.376   7.12   0
        30    574.1783    914.1725 300.0670320 +22.8267228     376.7093     72.03197      1.800     5.59     4.968888     20.32241     29.11378         6     1.255     0.701  33.51   0
        31    714.0697    906.4517 300.1131284 +22.8664359     883.4241     72.01362      2.464     7.33     5.015858     20.32241     48.00988        19     1.754     1.188  27.91   0
        32      3.4041   1019.1103 299.8553549 +22.6856048     2757.869     66.29965     31.861    37.62    -23.57782     20.32241     64.43053       186     7.895     4.974 -41.67  27
        33    161.2907    977.6691 299.9179008 +22.7211083     1818.136      72.1786      5.433    13.53     66.59045     20.32241     53.75727        48     2.957     1.723  28.94   3
        34    748.6879    900.7990 300.1257562 +22.8751867     1087.914     71.94017      1.918     5.46      5.05509     20.32241      71.4725        21     1.417     1.111  17.10   0
        35    526.3225    901.8130 300.0561455 +22.8088281     457.1939     72.05032      1.774     4.91     4.935584     20.32241      40.4267         6     1.306     0.522  -7.53   2
        36    206.9907    900.9957 299.9570376 +22.7128277     893.7327     71.86665      6.652     6.87     11.79768     20.32241     35.33264        10     2.063     0.640  56.00   0
        37    288.7961   1011.5314 299.9465426 +22.7690769     1196.148     71.99526      2.235     5.12     6.628797     20.32241      81.3103        28     1.531     1.446  45.90   0
        38    125.7075    899.3754 299.9322918 +22.6879769      674.299     71.97691      5.577     4.89     13.37238     20.32241     33.22863         5     1.061     0.637 -60.03   1
        39    770.5997    894.0359 300.1347853 +22.8798103     11460.93     71.99526      1.955     4.42     5.118721     20.32241     652.0476        58     1.561     1.526 -15.93   0
        40    194.0325   1004.7672 299.9192696 +22.7387043     1098.263     72.10532      4.437    10.03     88.93085     20.32241     37.50298        15     1.989     1.410 -31.58   3
        41    961.7736    894.7631 300.1941717 +22.9372922     494.4076     72.05032      2.190     5.63     5.524883     20.32241     26.39167         9     1.132     0.790  35.38   0
        42    816.3416    894.0214 300.1490514 +22.8935117     430.2776     72.03197      1.727     4.51     5.269504     20.32241     41.95507        10     1.231     0.696  14.53   0
        43     82.1225    885.7815 299.9231627 +22.6710006      1301.45     72.03197      8.460     7.39     8.397145     20.32241     60.48586        25     1.715     1.489  62.92   1
        44    192.4736   1000.3954 299.9202065 +22.7369827     1307.082     71.97691      3.612     9.82     84.33955     20.32241     49.60663        19     2.041     1.317 -70.74   3
        45    223.4999    999.7891 299.9300519 +22.7461183       727.65     71.94017      1.844     6.81     81.82034     20.32241     55.50082        17     1.383     1.150  86.79   0
        46    125.6480   1006.4827 299.8974509 +22.7186752     1118.967     72.05032      2.522     9.39      93.1302     20.32241     44.72549        28     1.911     1.759 -28.06   0
        47    116.5220    885.7968 299.9338500 +22.6813263      756.421     71.94017      5.669     4.97     10.75175     20.32241     29.52133         5     1.102     0.635  23.96   1
        48    475.3064    882.3363 300.0465914 +22.7879421     429.0242     72.14197      1.683     5.99     4.928581     20.32241     39.89742        11     1.219     0.827 -36.26   0
        49    822.3528    881.7498 300.1549149 +22.8917877     421.8925     72.06866      1.824     6.57     5.355564     20.32241     30.74783         9     1.344     0.902  15.64   0
        50    349.5620    997.8418 299.9699000 +22.7833788      523.963     72.12365      1.673     6.24     5.098625     20.32241     38.30812        11     1.479     0.740 -89.09   0
        51    779.1895    876.2779 300.1432359 +22.8772834     1541.707     72.01362      1.916     4.68     5.186508     20.32241     103.7377        28     1.467     1.235  10.51   0
        52    962.4891    876.2354 300.2004179 +22.9321827     368.9256     72.01362      1.486     3.78     5.535618     20.32241     35.31593         5     1.015     0.404   8.05   0
        53    629.9763    872.8120 300.0978591 +22.8315728     461.4519     72.03197      2.127     4.46     4.999885     20.32241     32.26343         6     0.839     0.675  87.42   2
        54    817.7028    869.9325 300.1573064 +22.8869999     915.2537     72.12365      2.398     6.53     5.384853     20.32241     50.83825        16     1.460     1.012 -26.76   2
        55    925.3222    867.1750 300.1917676 +22.9184468     356.1986     72.03197      1.756     5.16     5.585836     20.32241     28.24829         5     1.051     0.715  12.63   0
        56    865.4972    861.2313 300.1750391 +22.8988185     445.8401     71.99526      1.643     5.76     5.721488     20.32241     46.39145        10     1.128     1.024  55.09   0
        57    717.1611    859.5966 300.1293227 +22.8539058     726.2357     72.06865      2.133     7.05     5.080503     20.32241      42.9879        16     1.282     1.086 -67.12   0
        58    429.5644    856.1054 300.0408771 +22.7666983     4190.711     72.03197      1.837     4.01     4.969485     20.32241        289.3        38     1.430     1.338   7.50   0
        59    728.5688    857.2128 300.1336531 +22.8566394     586.5215     72.01362      2.034     6.60     5.116355     20.32241     49.72624        11     1.467     0.834  27.20   0
        60    155.1618    841.9875 299.9601002 +22.6803521     858.7219     72.03197      2.162     5.91     8.732615     20.32241     72.18187        16     1.429     1.220  73.26   0
        61    131.9478    838.8575 299.9539003 +22.6724903     1596.283     72.08699      1.977     4.28     7.574276     20.32241     150.6194        28     1.507     1.248   7.50   0
        62     64.1368    840.2776 299.9323612 +22.6525533     516.0094     72.10532      1.874     4.09     5.830711     20.32241     34.98998         6     0.770     0.620 -75.75   0
        63   1003.6451    828.2319 300.2288631 +22.9307130     2232.278     72.08699      2.114     5.20     5.479293     20.32241      113.494        33     1.553     1.349   6.65   0
        64    958.0041    826.6919 300.2151219 +22.9166021     2215.843     71.94017      2.060     4.90     5.590774     20.32241     113.5279        31     1.457     1.390  -1.30   0
        65    663.2929    827.5098 300.1229637 +22.8285480     432.7599     72.19691      1.916     4.97     5.210408     20.32241     36.30957         7     1.098     0.637 -18.21   0
        66    741.5588    820.0085 300.1497936 +22.8498452     678.2733     72.05032      1.874     5.14     5.420592     20.32241     56.80062        11     1.157     1.005 -61.77   0
        67    609.6104    814.2679 300.1105412 +22.8086574     4849.252     72.03197      1.789     3.79     5.289734     20.32241     371.4614        36     1.353     1.309  42.39   0
        68    193.6975    985.3346 299.9254845 +22.7330306     3841.952     72.14197      7.243    20.52      69.9155     20.32241     87.71123       237     4.916     4.425 -55.83   3
        69    411.7788    811.4081 300.0498666 +22.7485357     507.1768     72.01362      1.678     4.73     5.246349     20.32241     61.27591         8     1.166     0.643  -6.52   0
        70    159.8334    807.7632 299.9726737 +22.6719350      1379.98     72.06865      1.949     4.62      6.50068     20.32241     99.55427        28     1.415     1.337  26.56   0
        71    630.4633    806.7714 300.1194739 +22.8127538     729.1589     72.03197      1.771     5.02     5.329397     20.32241     63.60078        16     1.212     1.005  80.95   0
        72    179.4604    805.2896 299.9795801 +22.6771125     489.2453     72.12365      1.740     4.03     6.270929     20.32241     43.09949         6     0.862     0.539 -47.15   0
        73    785.8361    794.1666 300.1719943 +22.8556867     4284.077     72.08699      1.852     4.05     5.700816     20.32241     276.3361        40     1.472     1.394  48.37   0
        74   1002.6838    794.5995 300.2394930 +22.9207584     1067.754     71.90342      1.901     5.27     5.493682     20.32241     66.31973        20     1.306     1.136  10.71   0
        75    194.5669    788.2149 299.9898252 +22.6767444      385.641     72.01362      1.517     4.90     5.981969     20.32241     38.47245         8     0.847     0.802 -34.98   0
        76    502.6863    786.3647 300.0863056 +22.7685980     552.4102     72.01362      1.634     5.02     5.276021     20.32241      50.0863         9     1.046     0.712   7.55   0
        77    148.9382    783.9321 299.9770292 +22.6618298     962.0062     72.08699      1.902     4.71     5.846635     20.32241     71.36713        18     1.379     1.090  31.66   0
        78    564.2857    780.0356 300.1075459 +22.7852432     530.4307     72.01362      1.942     5.33     5.363394     20.32241     48.47819        11     1.151     0.917 -55.51   0
        79    298.6487    776.4078 300.0260345 +22.7045693     53795.52     72.03197      1.847     3.83       5.7454     20.32241     4176.945        97     1.589     1.509  20.89   0
        80    556.6566    775.6384 300.1065984 +22.7816940     1763.164     72.03197      1.786     3.82     5.363394     20.32241     152.1922        24     1.302     1.113  50.90   0
        81    969.4209    775.2317 300.2354069 +22.9052311       723.01     72.03197      1.848     5.24     5.661633     20.32241     62.15134        21     1.398     1.166  66.50   0
        82    227.4574    774.8388 300.0043996 +22.6827704     394.9252     72.03197      1.232     3.43     5.892831     20.32241     47.49728         5     0.749     0.453 -69.69   0
        83    585.4363    771.7256 300.1168340 +22.7891953     936.1452     71.97691      1.702     3.84     5.363394     20.32241     86.47155        15     1.203     0.901  10.13   0
        84    596.4427    769.9445 300.1208412 +22.7919822     549.7213     72.03197      1.679     5.55     5.363394     20.32241     49.45094        12     1.185     0.872  33.81   0
        85    701.9372    766.7875 300.1547378 +22.8226859     412.6949     72.01362      1.540     3.94     5.499784     20.32241     31.88657         6     0.946     0.469  34.05   0
        86    739.4310    756.6907 300.1697045 +22.8310182     811.2748     71.97691      1.703     4.10     5.552824     20.32241     59.21571        15     1.090     0.993  -5.22   0
        87    348.4200    753.6819 300.0489036 +22.7129695     31796.44     71.99526      1.774     3.76     5.373225     20.32241     2985.182        77     1.494     1.450  22.25   0
        88    362.7288    754.3674 300.0531337 +22.7174562      1992.87     72.03197      1.751     3.76     5.323533     20.32241     151.4189        25     1.292     1.140 -21.75   0
        89    871.6254    749.8672 300.2131399 +22.8686544     2796.667     72.01362      1.808     3.95     5.848816     20.32241     182.4624        34     1.362     1.328  30.68   0
        90    359.9357    748.4971 300.0541715 +22.7149337     835.9675     72.14197      2.511     4.62     5.308778     20.32241     54.66305        11     1.085     0.801  40.08   1
        91    230.9055    745.5556 300.0149851 +22.6754010     923.3979     72.05032      1.783     4.12     5.611836     20.32241     71.93013        17     1.296     0.961  26.30   0
        92    629.2558    745.5972 300.1389739 +22.7948220     926.2583     71.99526      1.664     4.07     5.412648     20.32241     71.41133        17     1.182     1.000  65.00   0
        93    465.7741    745.9766 300.0879342 +22.7459373     398.9502     71.99526      1.637     4.15     5.234792     20.32241     59.77409         6     1.272     0.386 -14.45   0
        94     36.2534    741.4304 299.9558108 +22.6158346     439.7113     72.05032      1.760     5.23     5.547401     20.32241     42.35257         8     1.274     0.607 -33.02   0
        95    476.6954    740.5143 300.0931090 +22.7476424     900.1487     72.21521      1.799     3.46     5.231301     20.32241     87.63438        17     1.078     1.056  81.42   0
        96    877.4694    738.0139 300.2188135 +22.8669981     445.7881     72.05032      1.373     4.18     5.863697     20.32241     48.07942         9     1.134     0.629  36.29   0
        97    422.2853    735.8038 300.0777004 +22.7299808     446.3087     71.95854      1.535     5.26     5.249679     20.32241     49.23949        11     1.082     1.002 -22.08   0
        98    378.7137    737.3409 300.0636394 +22.7173606     335.0338     72.14197      1.707     3.95     5.264726     20.32241     37.10201         5     0.997     0.720 -26.29   0
        99    334.9200    736.3609 300.0503296 +22.7039500     286.8199     71.99526      1.556     3.44     5.429489     20.32241     36.86853         5     0.787     0.435 -18.05   0
       100     65.4820    734.3801 299.9671843 +22.6225800     580.8747     71.99526      1.664     4.09     5.567949     20.32241     47.54837         7     1.153     0.414 -74.90   0
       101    855.2947    733.0344 300.2135152 +22.8589260     485.5374     72.01362      1.885     3.43     5.845775     20.32241     55.99633         9     1.113     0.602   4.77   0
       102    228.9321    729.8906 300.0194598 +22.6703135     563.9275     72.16029      1.873     6.32     5.516662     20.32241     62.29206        12     1.385     0.810  13.45   0
       103    551.9920    720.6161 300.1230206 +22.7644945     384.9142     71.95854      1.478     4.29     5.545847     20.32241     39.63174         7     0.868     0.605 -22.56   0
       104    521.7051    718.5848 300.1142479 +22.7548348     791.4121     71.95854      1.876     4.00      5.49864     20.32241     77.81194        13     1.250     0.734 -20.29   0
       105    938.1090    715.2830 300.2451140 +22.8786237      4517.12     72.16029      1.819     3.80     5.878826     20.32241      313.254        41     1.432     1.396 -85.34   0
       106    430.8824    717.3245 300.0863793 +22.7272521      435.106     72.14197      1.722     5.65     5.360287     20.32241     40.55663         8     1.463     0.614  79.30   0
       107    543.6038    716.0881 300.1218789 +22.7606804     1306.157     71.95854      1.628     3.53      5.62072     20.32241     121.6944        22     1.161     1.104  37.10   0
       108    463.6271    715.8043 300.0970670 +22.7366301     274.9377     71.99526      1.004     2.82     5.361131     20.32241     41.52761         5     0.734     0.442  70.46   0
       109    926.5518    706.6776 300.2443038 +22.8726895     1798.723     72.03197      1.852     4.37     5.901024     20.32241     133.4462        26     1.317     1.225  33.35   0
       110    289.2383    700.2623 300.0478420 +22.6798919      822.623     72.03197      1.642     3.84      5.80719     20.32241     90.80676        16     1.212     0.976   8.23   0
       111    957.7773    696.9017 300.2572213 +22.8792289     1783.793     71.95854      1.899     4.60     5.889796     20.32241     106.8412        28     1.480     1.248  36.75   0
       112    752.9779    697.7723 300.1930672 +22.8181479     2636.962     72.03197      1.766     3.65     5.627153     20.32241        219.4        35     1.551     1.240   4.79   0
       113    835.4672    683.7672 300.2233354 +22.8388290     662.5712     72.03197      2.079     5.27      5.84543     20.32241     41.31477         8     0.950     0.827 -62.46   0
       114    137.7206    683.8453 300.0060522 +22.6297468     630.4238     72.01362      1.926     6.66     5.728656     20.32241     58.34813        13     1.311     1.189  17.21   0
       115    871.3061    674.8088 300.2374222 +22.8469865     148765.7     71.95854      1.734     3.56     5.872236     20.32241     10660.16       163     1.597     1.544 -42.56   0
       116   1018.1985    676.8307 300.2825953 +22.8915475     1176.867     71.99526      1.782     4.24     5.926662     20.32241     88.61298        21     1.234     1.145 -31.76  16
       117    633.2140    678.1649 300.1621108 +22.7766375     278.0988     72.03197      1.259     4.59     5.550756     20.32241     39.92163         5     0.827     0.723  76.92   0
       118    723.5729    675.4527 300.1911505 +22.8029267     693.6078     72.05032      1.582     3.76     5.582982     20.32241     65.08207        14     1.037     0.918 -58.58   0
       119    903.7487    667.9086 300.2497827 +22.8547175     462.4738     72.08699      1.625     4.58     5.918257     20.32241     43.38399         7     1.209     0.492  20.23   0
       120    557.6052    663.4180 300.1433464 +22.7497480     1635.521     71.97691      1.574     3.11     6.057953     20.32241     184.2824        19     1.158     1.038 -83.38   0
       121    738.7829    660.9082 300.2006152 +22.8033032     9458.938     71.95854      1.598     3.29      5.61961     20.32241      847.814        45     1.343     1.272  13.04   0
       122    240.2136    655.6934 300.0470660 +22.6524000     4959.063     71.95854      1.722     3.31     5.543958     20.32241     537.2087        40     1.383     1.297  13.88   0
       123    322.2215    653.8834 300.0731657 +22.6764657     1193.863     71.99526      1.691     3.18     5.559887     20.32241     130.7941        22     1.178     1.148 -84.76   0
       124    198.3112    651.2266 300.0354844 +22.6385544     568.7017     71.99526      1.509     3.35     5.612675     20.32241     95.84775         8     1.067     0.628   1.06   0
       125    530.6031    649.4800 300.1394629 +22.7376536     707.8269     71.94017      1.591     3.51     6.091401     20.32241     80.92625        15     1.134     0.891 -56.83   0
       126    522.3038    641.5618 300.1394495 +22.7328925     3380.008     72.01362      1.609     3.09     6.044631     20.32241     369.5843        30     1.230     1.172 -36.39   0
       127    512.3699    635.0809 300.1384604 +22.7280543     1517.715     72.03197      1.598     3.48     5.998107     20.32241     144.1475        21     1.354     0.983  66.85   0
       128    441.0495    635.0446 300.1162659 +22.7066719     355.3721     72.06865      1.424     4.00     5.667112     20.32241      36.6071         7     0.919     0.697   6.85   0
       129    906.3558    633.6884 300.2617092 +22.8456608      525.566     72.03197      1.619     3.90     5.951166     20.32241     46.36512        12     1.145     0.707  43.20   0
       130    422.6673    632.8183 300.1112664 +22.7005236     296.4951     72.01362      1.967     3.55     5.606953     20.32241     42.28483         6     1.073     0.606  -9.20   0
       131    175.7696    631.3264 300.0349364 +22.6260838     641.9186     72.05032      1.656     4.23     5.725704     20.32241     68.60117        13     1.131     0.886  35.60   0
       132    189.5858    629.9577 300.0396771 +22.6298335     586.5771     72.05032      1.877     6.03     5.657932     20.32241     61.07738        13     1.274     1.079  17.65   0
       133    246.5962    626.9954 300.0583696 +22.6460755      490.071     71.86665      2.085     4.47     5.506064     20.32241     53.76025         7     1.137     0.728 -57.04   0
       134    959.0841    627.1276 300.2802899 +22.8595605     458.4145     72.14197      1.357     3.39     5.944285     20.32241     57.75095         9     0.913     0.699  -9.37   0
       135    437.2414    625.0961 300.1183106 +22.7026736     1704.944     72.05032      1.531     2.89     5.662523     20.32241     190.5634        22     1.199     1.063  21.52   0
       136    215.8343    626.9296 300.0488232 +22.6368341     586.1995     72.03197      1.457     3.70     5.530513     20.32241     66.96309        11     1.039     0.734   8.08   0
       137   1012.7002    622.9319 300.2983835 +22.8744037      535.321     72.12365      1.515     4.53     5.944285     20.32241     64.76065        16     1.243     0.958 -42.73   0
       138     91.1596    619.7340 300.0123956 +22.5973856     19923.66     71.99526      1.910     3.78     6.161345     20.32241     1892.136        79     1.646     1.539  39.64   0
       139    522.2532    620.2364 300.1463583 +22.7267518     1042.698     72.05032      1.607     3.87     6.100048     20.32241      108.466        19     1.254     1.002 -57.91   0
       140    940.1553    606.8849 300.2809571 +22.8480738     982.5112     72.01362      1.606     3.79      5.93548     20.32241     88.44622        19     1.188     1.074  23.68   0
       141     37.2800    603.9172 300.0007849 +22.5766886     1672.191      72.1786      2.133     5.33     6.332046     20.32241     120.2307        30     1.626     1.265  87.13   0
       142    807.0188    604.6037 300.2401721 +22.8075567      354.306     71.97691      1.388     5.38     5.867694     20.32241     46.32787        11     1.128     0.723  46.41   0
       143     13.1246    621.6428 299.9875241 +22.5745303     567.6669     72.01362      1.605     2.87      6.37675     20.32241       52.769         7     0.847     0.571 -81.26   0
       144    485.5045    601.0268 300.1411517 +22.7102229     501.9598     71.95854      1.712     4.69     5.974957     20.32241     40.59233        10     1.033     0.877  66.90   0
       145    879.1187    599.3934 300.2643490 +22.8276469     1000.296     71.95854      2.356     8.64     5.976305     20.32241     69.86574        20     2.311     0.945  -1.62   0
       146    277.9948    599.6682 300.0770090 +22.6476427      292.732     71.99526      1.532     5.19     5.446483     20.32241     34.45945         7     1.309     0.582  41.11   0
       147    442.3479    593.2631 300.1302357 +22.6950612     791.1423     72.08699      1.709     3.23     5.728727     20.32241     86.44458        13     1.091     0.797  31.27   0
       148    591.5273    591.2760 300.1773379 +22.7391862     1148.935     72.10532      0.792     3.84     6.064683     20.32241     773.8539        10     1.065     0.398 -26.53   0
       149    637.5765    590.7010 300.1918713 +22.7528151      482.218     71.97691      1.652     2.91     5.887399     20.32241     56.05674         8     0.899     0.646  89.39   0
       150    608.1002    590.0848 300.1828876 +22.7438085     582.1768     72.19691      1.608     3.61     5.996556     20.32241     54.04886        10     0.923     0.744   8.16   0
       151    486.5721    589.2136 300.1453194 +22.7071495     941.2238     72.03197      1.611     3.52     6.022405     20.32241     83.14441        17     1.121     1.016 -51.65   0
       152    920.3378    584.8092 300.2819420 +22.8357940     3327.271     71.97691      1.683     3.57     5.855292     20.32241     268.0763        33     1.326     1.254 -73.34   0
       153    452.0722    584.4720 300.1361171 +22.6954501     1860.044     72.08699      1.596     3.07     5.812295     20.32241     183.9905        23     1.161     1.118  21.15   0
       154   1018.2984    583.3441 300.3129847 +22.8646951      681.207     72.12365      1.639     4.88     5.829823     20.32241     63.72552        14     1.189     0.947  46.46  16
       155    817.0704    582.4507 300.2504989 +22.8041986     109.4987     72.03197      1.257     4.55     5.923754     20.32241     41.65574         6     0.855     0.688 -19.77   0
       156     13.9982    577.8398 300.0020154 +22.5622233     4973.468     72.05032      1.908     3.74     6.443625     20.32241     448.0918        42     1.475     1.432 -21.58   0
       157    481.2855    575.7446 300.1480459 +22.7016965     349.6988     72.10532      1.523     4.45      6.04443     20.32241     44.90198         6     0.882     0.664  18.79   0
       158    315.4396    571.1928 300.0979028 +22.6506902     9102.189     72.06865      1.632     3.08     5.436741     20.32241     936.7976        47     1.344     1.308  66.98   0
       159    573.4432    572.9565 300.1776520 +22.7285054     269.3437     72.10532      1.884     3.56     6.197423     20.32241     31.00804         5     0.761     0.600  -6.37   0
       160    437.8741    568.3348 300.1369355 +22.6865607     9157.304     72.06865      1.540     2.94      5.73565     20.32241     960.7271        45     1.308     1.221  18.53   0
       161    685.2109    565.0346 300.2150473 +22.7597066      248.091     72.01362      1.178     3.94     5.809536     20.32241     44.13258         5     1.006     0.442 -21.55   0
       162     82.4531    564.6807 300.0275612 +22.5789748     177.9315     72.05032      0.873     3.36     6.005382     20.32241     39.60541         5     0.759     0.431 -66.53   0
       163    849.5291    562.4967 300.2670991 +22.8081806     1847.938     72.14197      1.644     2.91     5.909322     20.32241     206.3933        27     1.257     1.154  53.53   0
       164    934.3685    559.9420 300.2943924 +22.8328439     12539.44     72.05032      1.694     3.35      5.72857     20.32241     972.9116        52     1.419     1.342 -49.86   0
       165    498.5235    557.9418 300.1591926 +22.7017472     11568.92     72.06865      1.532     2.96     6.174334     20.32241     1230.506        49     1.327     1.229  71.92   0
       166    226.0491    553.2000 300.0759353 +22.6187301     1420.426     72.01362      1.594     3.19     5.480632     20.32241     136.9281        24     1.311     1.091 -55.09   0
       167    668.0053    554.0606 300.2132478 +22.7513999     420.9722     71.99526      1.390     3.05     5.851468     20.32241     53.77287         9     0.813     0.731 -16.53   0
       168    384.1814    552.4586 300.1253758 +22.6659115     273.9069     71.99526      1.234     3.46     5.551855     20.32241     31.86845         5     0.785     0.441  20.90   0
       169    430.1613    546.0963 300.1417532 +22.6778619     4364.213     72.01362      1.513     3.00     5.691558     20.32241     429.9443        33     1.263     1.187  20.91   0
       170    773.1238    546.2358 300.2485530 +22.7806298      879.718     71.99526      1.572     3.05     5.938734     20.32241     104.1577        15     1.053     0.950  73.56   0
       171    408.4521    544.5234 300.1355059 +22.6709052     1145.925     72.03197      1.402     2.88     5.572015     20.32241     142.8155        16     1.069     0.887  55.92   0
       172    162.8058    544.0754 300.0592295 +22.5971517     772.2614     71.95854      1.915     3.27     5.480873     20.32241     80.32449        11     1.061     0.787 -19.66   0
       173    850.1113    541.7865 300.2740036 +22.8024008     1675.249     71.97691      1.704     3.80      5.85998     20.32241     133.4834        25     1.340     1.092 -43.07   0
       174    546.8525    533.6796 300.1821190 +22.7092550     207628.3     72.05032      1.534     2.88      6.35873     20.32241     23725.79       200     1.560     1.454 -21.50   0
       175    370.3943    539.9723 300.1251377 +22.6581938     296.1372     72.03197      1.299     3.49      5.57863     20.32241     41.00229         8     0.934     0.666 -10.23   0
       176    730.4720    538.7254 300.2376946 +22.7656994     816.7138     72.08699      1.493     2.88     5.835269     20.32241     102.2545        14     0.978     0.897  32.42   0
       177    232.8289    533.4165 300.0844651 +22.6150822     3597.826     72.03197      1.688     3.35     5.468203     20.32241     334.7592        32     1.333     1.193  39.57   0
       178    799.0962    530.0813 300.2618945 +22.7837623     523.3608      72.1786      1.612     3.02     5.863733     20.32241     50.57858         7     0.839     0.654  35.70   0
       179    437.4210    513.8851 300.1544678 +22.6707843      2809.09     71.97691      1.582     2.75     5.842004     20.32241     314.8688        29     1.241     1.170 -77.66   2
       180    281.4978    516.4344 300.1051160 +22.6247931     436.8991     72.01362      1.498     4.05     5.435995     20.32241     58.90341         7     0.987     0.489  -5.43   0
       181    849.1495    510.4737 300.2838672 +22.7931099     303.8775     72.05032      1.433     4.15     5.619378     20.32241     48.03621        10     0.990     0.886 -20.38   0
       182    542.6800    509.4714 300.1886764 +22.7010494     347.6757     72.14197      1.710     4.15     6.383314     20.32241     30.81163         6     1.115     0.441 -54.28   0
       183    754.3116    502.7301 300.2568090 +22.7624907     521.4301     72.19691      1.613     3.67     5.733554     20.32241     53.87065        10     1.051     0.715 -88.61   0
       184    834.5102    500.3152 300.2825987 +22.7858067     1884.724      72.1786      1.641     3.21     5.548599     20.32241     178.3968        22     1.182     1.054 -61.69   0
       185    705.7057    497.9241 300.2432177 +22.7465555     2613.411      72.1786      1.491     2.87     5.786719     20.32241     284.4606        27     1.226     1.077  86.31   0
       186    948.7623    491.4702 300.3211083 +22.8174613     993.6832     71.99526      2.554     4.71     5.588672     20.32241     66.38552        17     1.414     0.984  63.12   2
       187    915.1993    494.9977 300.3094922 +22.8084306     269.6825     71.81146      1.663     5.87     5.550058     20.32241     31.09276        10     1.275     0.761  -4.52   0
       188    610.9482    494.3836 300.2148388 +22.7171613     433.7438     72.03197      1.451     1.90     6.007216     20.32241     69.70947         7     0.681     0.646  56.92   0
       189    492.7629    493.8944 300.1781863 +22.6816209     626.9722     72.01362      1.455     3.15     6.370281     20.32241     79.68857        12     1.001     0.806  -7.03   0
       190    962.9794    492.2336 300.3252966 +22.8219358     1176.252     72.03197      1.504     3.11     5.613106     20.32241     125.5647        17     1.048     0.992 -15.17   0
       191    834.7548    490.3916 300.2858956 +22.7830266     2213.929     72.05032      1.885     4.01     5.465233     20.32241     202.1303        32     1.731     1.059  74.34   0
       192    872.9458    485.5579 300.2993754 +22.7930688     4436.487     72.03197      1.549     2.80     5.455613     20.32241     497.0449        34     1.253     1.200 -69.18   0
       193    588.1917    488.4304 300.2096812 +22.7086349     681.0978     72.03197      1.929     2.94     6.130009     20.32241     54.75096         8     0.845     0.660  43.70   2
       194    373.7058    488.0856 300.1430077 +22.6442830     372.9719     72.21521      1.482     4.30      5.69741     20.32241     43.72226         6     0.988     0.533  12.25   0
       195    513.7253    485.4831 300.1874437 +22.6854835     208.8481     72.14197      1.286     3.38     6.402424     20.32241     38.29297         5     0.751     0.440  22.87   0
       196    533.3327    481.3505 300.1948911 +22.6901692     273.5579     72.03197      1.213     3.66     6.409442     20.32241     43.73818         6     0.710     0.671  72.94   0
       197    964.8518    475.9125 300.3311775 +22.8178019     844.6406     72.06865      1.652     4.24     5.603859     20.32241     80.84838        18     1.320     1.060 -54.21   0
       198    105.1179    475.5158 300.0635432 +22.5601757     949.1403     72.16029      1.558     3.82     5.511663     20.32241     94.04298        18     1.209     1.043 -59.26   0
       199    904.5327    473.8026 300.3130431 +22.7991427     294.7424     72.01362      1.717     5.09     5.504349     20.32241      29.3546         5     1.035     0.708  15.76   0
       200    766.1343    470.0342 300.2711055 +22.7566308     385.1381     72.03197      1.624     3.08      5.61443     20.32241     41.44471         5     0.783     0.487 -23.11   0
       201     97.9002    465.2317 300.0646364 +22.5550596     437.9211     72.01362      2.052     5.55     5.593001     20.32241     40.21962         8     1.618     0.537  61.84   0
       202    961.1749    465.4759 300.3334170 +22.8136998     390.0519     72.05032      1.363     3.43     5.591362     20.32241     50.33247         5     0.751     0.458  19.53   0
       203    705.3998    460.2711 300.2553412 +22.7356402     622.6929     71.90342      1.568     4.78      5.78321     20.32241     54.46313         9     1.182     0.547 -10.77   0
       204    313.5781    458.3025 300.1339607 +22.6177116     315.9694     71.95854      1.402     5.09     5.631038     20.32241     42.24515         7     1.084     0.676  -0.58   0
       205    594.4020    457.6031 300.2216193 +22.7016355      269.866     71.81146      1.320     3.95     6.074463     20.32241     32.27722         5     1.025     0.436 -13.83   0
       206    646.4430    455.7511 300.2384344 +22.7166875     781.7877     72.06866      1.436     3.66     5.885324     20.32241     88.87085        13     1.118     0.812  50.47   0
       207    960.7780    449.1202 300.3386005 +22.8088766     578.7125     71.99526      1.436     2.86     5.583855     20.32241     71.24384         9     0.909     0.638  19.13   0
       208    707.4144    448.0717 300.2599275 +22.7327364     714.7018     72.03197      1.458     2.81      5.79029     20.32241     83.84367        12     0.976     0.760   3.98   0
       209    864.4149    444.4553 300.3100524 +22.7786956     1074.018     72.01362      1.564     2.98     5.608902     20.32241     121.5665        17     1.089     0.988 -86.69   0
       210    848.7950    440.8784 300.3063413 +22.7729917     577.0598     71.94017      1.354     4.44     5.630651     20.32241     73.15614        12     1.209     0.860  10.42   0
       211    829.1789    441.2015 300.3001189 +22.7672132     308.6026     71.95854      1.259     2.44     5.637975     20.32241      41.8747         6     0.717     0.560  40.68   0
       212    592.9137    438.6279 300.2273124 +22.6957361     3205.278     72.03197      1.472     2.71     6.077912     20.32241     400.1636        29     1.200     1.092  82.19   0
       213    953.5541    438.0027 300.3399538 +22.8035170     550.4845     72.03197      1.714     3.69     5.574124     20.32241     57.00426        10     1.042     0.724   9.17   0
       214    432.9880    426.0427 300.1815912 +22.6442198     346.2328     72.03197      1.275     4.39     5.956962     20.32241     45.61537         6     0.784     0.698  26.73   0
       215   1004.4488    417.9972 300.3623266 +22.8129912     1289.602     72.03197      1.689     4.15     5.570647     20.32241     111.3701        21     1.291     1.066 -33.78   0
       216    875.9448    418.0784 300.3222067 +22.7745607     585.6046     72.06865      1.679     3.54     5.717822     20.32241     62.87997         8     0.888     0.695  10.79   0
       217    962.6090    416.6335 300.3497125 +22.8000798     875.1271     72.03197      1.521     3.16     5.568841     20.32241      93.0294        16     1.075     0.947  23.53   0
       218    703.7254    412.6887 300.2702576 +22.7214597     1265.963      72.1786      1.574     2.70     5.823529     20.32241     145.7488        21     1.143     1.077 -31.83   0
       219    499.5476    413.0249 300.2065383 +22.6604160     434.9303     72.05032      1.438     4.70     6.392691     20.32241     41.02053         8     0.890     0.705  37.14   0
       220    207.3902    410.7617 300.1163515 +22.5722368     712.4457     72.03197      1.663     4.27     5.907054     20.32241     77.93549        14     1.314     0.751   9.31   0
       221    269.8090    406.2896 300.1372175 +22.5896569     3818.197     71.95854      1.592     3.14     5.817387     20.32241     396.2793        32     1.279     1.176  53.13   0
       222   1003.1075    405.1961 300.3660611 +22.8089071     4271.762      71.9218      1.637     3.23     5.573953     20.32241     418.6049        37     1.338     1.288  52.77   0
       223    217.0414    401.0507 300.1225032 +22.5723401     7619.472     72.03197      1.568     3.11     5.911804     20.32241     726.0888        40     1.313     1.259  38.86   0
       224    357.9142    395.3093 300.1681935 +22.6129000     4892.628     72.19691      1.519     2.87      5.87339     20.32241     549.0152        36     1.306     1.175  61.87   0
       225    602.0847    392.1784 300.2452386 +22.6851314     18847.74     71.97691      1.477     2.80     6.004702     20.32241     2055.092        58     1.323     1.276  41.96   0
       226    619.6083    392.1871 300.2506954 +22.6903810     903.6953      71.9218      2.260     6.79      5.96549     20.32241     62.94618        23     1.659     1.020 -40.87   0
       227    228.0536    389.9966 300.1295140 +22.5724652     235.6457     72.01362      1.577     4.89     5.909266     20.32241     33.45382         5     1.163     0.581  10.92   0
       228    983.0447    396.3119 300.3626822 +22.8003485     1857.722     72.03197      1.598     3.14     5.559895     20.32241     178.7402        26     1.269     1.178 -63.97   0
       229    935.5092    375.0101 300.3547599 +22.7799973     743.3618     71.97691      1.599     3.33      5.46685     20.32241     74.85966        13     0.988     0.877  34.49   0
       230    156.8788    372.1487 300.1131684 +22.5460103     1942.743     72.03197      1.567     3.10      5.98529     20.32241     201.0493        25     1.246     1.131  63.42   0
       231    956.5569    362.1754 300.3654902 +22.7826027     1229.783     72.06865      1.672     3.51     5.484488     20.32241     117.0469        20     1.195     1.058  11.89   0
       232    542.8171    361.5618 300.2367074 +22.6585837     6603.628     72.03197      1.477     2.62     6.077769     20.32241     873.7432        36     1.237     1.142  68.95   0
       233    257.8738    361.1074 300.1481598 +22.5731026     579.8713     72.16029      1.306     3.31     5.904339     20.32241     80.31885        10     1.008     0.698 -34.77   0
       234    803.0015    353.6158 300.3203691 +22.7341903     289.3976     71.88504      1.274     4.82     5.813923     20.32241     44.93856         9     1.030     0.780 -14.93   0
       235    114.9790    354.3479 300.1059144 +22.5283413     445.7716     72.03197      1.394     3.62     6.042538     20.32241     58.24594         7     0.969     0.606   9.79   0
       236    656.7986    352.2578 300.2752352 +22.6900367     588.3365     71.97691      1.440     2.68     5.962264     20.32241     75.51951         9     0.879     0.648  59.98   0
       237    746.8121    350.5451 300.3038463 +22.7164895     1210.282     72.03197      1.633     3.58     5.817198     20.32241     128.4722        19     1.246     0.951  47.47   0
       238    449.3834    347.8247 300.2120672 +22.6266546     6098.105     72.03197      1.480     2.72     6.174602     20.32241     728.8907        38     1.236     1.187  43.83   0
       239    841.4329    342.4313 300.3359813 +22.7424748     1301.304     72.05032      1.507     2.93     5.788422     20.32241     150.2452        20     1.252     0.950 -64.40   0
       240    938.7529    342.7420 300.3662384 +22.7716850     647.4343     72.08699      1.523     4.23      5.44006     20.32241     70.25686        12     1.100     0.835  72.45   0
       241    434.0976    336.8806 300.2108576 +22.6189315     399.3397     72.16029      1.430     2.28       6.0618     20.32241     54.79955         6     0.785     0.563   1.24   0
       242    516.3810    334.8839 300.2371262 +22.6429994     326.7996     71.95854      1.337     3.08     6.094084     20.32241     44.16299         5     0.803     0.467 -35.64   0
       243    497.4222    332.4959 300.2319965 +22.6366357     240.5557     71.94017      1.255     3.76     6.150152     20.32241     27.99387         6     0.983     0.413  18.42   0
       244    814.0094    330.1022 300.3314278 +22.7307219      548.106     71.94017      1.490     4.47     5.821335     20.32241     56.98486        11     1.139     0.700  49.84   0
       245    337.0083    326.9471 300.1838596 +22.5869963     2512.744     72.03197      1.477     2.99     5.955132     20.32241     256.6837        26     1.170     1.086  75.90   0
       246     55.6592    324.3330 300.0972086 +22.5019437     1007.327     72.06866      1.660     2.67     6.231143     20.32241     116.3936        14     1.017     0.882  51.80   0
       247    684.7409    322.1778 300.2936986 +22.6897526       373.43     72.03197      1.422     3.44     5.935177     20.32241     29.67011         5     0.980     0.350  46.49   0
       248    284.8140    320.3861 300.1697467 +22.5694756     137.8171     71.95854      1.190     3.49     5.903883     20.32241      26.4603         5     0.782     0.450 -16.90   0
       249    306.2999    316.3653 300.1777355 +22.5747570     29967.48     72.01362      1.569     2.84     5.920895     20.32241     3509.355        72     1.404     1.319  60.79   0
       250    841.1041    313.9367 300.3451199 +22.7341803     1440.855     72.12365      1.528     3.15     5.816614     20.32241     147.6693        22     1.258     1.028 -55.51   0
       251      2.8866    304.0358 300.0873898 +22.4802984      4387.88     64.06943      1.658     3.55     6.673174     20.32241     420.0818        37     1.454     1.246  83.96  24
       252    756.2259    303.0952 300.3221693 +22.7056612     612.8837     71.97691      1.379     3.75     5.849579     20.32241     64.88445         9     0.926     0.766  -6.89   0
       253    180.2728    302.7542 300.1429468 +22.5330896     534.2029     72.03197      1.537     4.51     5.994256     20.32241     61.65779        10     1.080     0.680  36.41   0
       254    404.5486    301.9901 300.2129732 +22.6000547     445.8874     72.05032      1.315     3.45     5.926115     20.32241     74.14465        11     1.097     0.763  17.44   0
       255    716.7071    296.2277 300.3120769 +22.6918584     1918.665     71.97691      1.506     2.86     5.886672     20.32241     243.3363        26     1.234     1.118  61.71   0
       256    525.0137    291.1155 300.2540077 +22.6330031     372.7146     71.97691      1.220     3.02     5.889603     20.32241     59.58044         7     0.843     0.562  44.77   0
       257    931.9083    289.2527 300.3814493 +22.7542479     519.7822     72.08699      1.525     5.24     5.560102     20.32241     54.51268         9     1.131     0.685 -13.30   0
       258    378.6472    280.8157 300.2117766 +22.5862122     2135.328     72.06865      1.652     3.23     5.940538     20.32241     218.7154        26     1.368     1.067  68.81   0
       259    817.9329    274.1852 300.3507838 +22.7158120     634.9579     72.01362      1.592     3.83     5.841148     20.32241     68.35175         9     1.029     0.743 -23.71   0
       260    699.9520    271.9649 300.3147216 +22.6798660     310.9777     72.06865      1.156     2.89     5.910512     20.32241     46.38102         5     0.667     0.535  -0.61   0
       261    668.6546    270.5960 300.3054112 +22.6701048     335.0944     71.99526      1.418     4.99     5.942285     20.32241     34.12648         8     1.106     0.638 -51.18   0
       262    454.3237    260.2950 300.2419877 +22.6029771     1308.533      72.1786      1.501     2.85     5.885826     20.32241     133.1072        18     1.037     0.954 -15.91   0
       263    539.3954    257.6297 300.2693438 +22.6276825     336.4435     72.01362      1.681     3.92     5.868495     20.32241     29.34806         5     1.000     0.440 -76.29   0
       264    965.8461    256.5951 300.4026275 +22.7550033     345.5175     72.01362      1.457     4.08     5.424248     20.32241     40.45599         7     1.276     0.372  15.21   0
       265    838.3752    253.8534 300.3637509 +22.7160797     418.1709     72.05032      1.604     3.30     5.807247     20.32241     41.61732         5     0.749     0.437 -70.05   0
       266    699.2761    252.0881 300.3209552 +22.6739473      2317.35     72.16029      1.520     3.04     5.905055     20.32241     234.1559        23     1.150     1.040  75.62   0
       267    960.6119    246.7999 300.4041699 +22.7506189     3247.625     71.84826      1.656     3.03     5.418365     20.32241     302.4233        36     1.297     1.284  32.13   0
       268   1021.4839    242.1516 300.4246738 +22.7674881     381.0268     66.75655      1.367     5.24     5.356903     20.32241     41.83477         9     1.037     0.748  67.78  16
       269    407.7388    235.9627 300.2353729 +22.5820335     594.3757     72.05032      1.422     4.24     5.903113     20.32241     75.19497        14     1.179     1.012   8.38   0
       270     82.5819    230.0789 300.1361341 +22.4829433     1344.484     72.03197      1.857     4.14     6.230315     20.32241      120.673        24     1.563     1.017 -45.65   0
       271    113.4052    230.2665 300.1456553 +22.4922328     534.3653     72.03197      1.541     2.80     6.095806     20.32241     73.68452         9     1.014     0.599 -43.58   0
       272    975.6944    227.1089 300.4152600 +22.7494636     625.6429     72.19691      1.851     4.54     5.387023     20.32241     46.87751        11     0.926     0.901   3.77   0
       273    820.2133    224.4110 300.3676318 +22.7021754     288.5062     71.94017      1.281     3.42     5.804114     20.32241      36.1086         5     0.739     0.458  18.02   0
       274    166.5581    222.0815 300.1648350 +22.5058064     550.9485     71.99526      1.711     3.36     6.037956     20.32241     50.37124         7     0.916     0.580 -35.26   0
       275    961.6642    220.1914 300.4131244 +22.7432764     402.5521     72.01362      1.503     3.83     5.413529     20.32241     47.93811         5     0.900     0.518  37.26   0
       276    842.4251    215.9283 300.3773086 +22.7063803     450.8094     72.05032      1.782     2.83     5.778368     20.32241      51.3959         5     0.837     0.515  42.47   0
       277    771.0730    213.9600 300.3556969 +22.6844657     626.2587     72.01362      1.341     2.56     5.835974     20.32241     101.8777        12     0.938     0.801  30.10   0
       278    361.4511    213.1279 300.2283673 +22.5616091     465.9288     72.03197      1.669     4.70     5.994013     20.32241     45.39207         7     0.887     0.705 -19.20   0
       279    869.0529    202.7969 300.3898703 +22.7105682     2226.374     72.03197      1.578     2.89     5.748265     20.32241     232.9522        27     1.188     1.122   0.81   0
       280    365.4371    195.0380 300.2354712 +22.5576033     1030.098     72.10532      1.564     3.53     5.980737     20.32241     96.28132        17     1.091     1.059  35.40   0
       281    767.4294    194.5410 300.3608553 +22.6777891     670.7653     72.05032      1.477     2.72     5.820139     20.32241     77.02053        10     0.884     0.720 -12.15   0
       282    117.5490    195.5241 300.1582042 +22.4834943     328.0181     72.03197      1.272     3.42     6.255461     20.32241     41.43354         6     0.916     0.409 -20.50   0
       283    287.6447    199.6464 300.2097701 +22.5356308     2327.688     72.06866      1.665     2.97     6.138518     20.32241     261.3318        30     1.333     1.178  73.98   0
       284    182.4667    186.9292 300.1811753 +22.5004729     754.9808     72.06865      1.566     4.18     6.197941     20.32241      76.4784        16     1.212     1.035 -30.18   0
       285    720.1373    184.1973 300.3494647 +22.6606628     1723.153     72.03197      1.464     2.66     5.798164     20.32241      197.131        26     1.203     1.109  63.74   0
       286    785.0750    183.9853 300.3697783 +22.6800319     609.4916     72.03197      1.523     3.69     5.821645     20.32241     85.14528        13     1.249     0.770   7.81   0
       287    203.6933    180.6298 300.1898183 +22.5050213     539.7527     71.97691      1.304     3.01     6.225367     20.32241     66.16329         9     0.907     0.688   0.60   0
       288    991.6912    176.7739 300.4365680 +22.7397609     941.9132     71.97691      1.834     3.39     5.600054     20.32241      103.111        13     1.116     0.907   8.59   0
       289    724.4488    175.6117 300.3535913 +22.6594832     801.5606     72.05032      1.605     3.74     5.782171     20.32241     103.8283        13     1.190     0.739 -47.31   0
       290    644.8137    174.7628 300.3290468 +22.6354084     1171.459     72.03197      1.409     2.51     5.770074     20.32241     170.1208        17     1.061     0.949  72.43   0
       291    459.5085    170.7570 300.2726247 +22.5787899     935.7161     72.03197      0.740     0.95     5.909545     20.32241     294.5223         5     0.567     0.426   8.20   0
       292    840.2256    166.3292 300.3926989 +22.6914513     1464.908     72.03197      1.620     3.09     5.816026     20.32241     160.1986        21     1.341     0.994 -42.15   0
       293    571.0024    166.5957 300.3086967 +22.6109685     946.5203     71.84826      1.474     2.89     5.821636     20.32241     95.44008        14     0.945     0.914 -59.65   0
       294    852.1417    165.6868 300.3966235 +22.6948310     784.4466     72.12365      1.401     2.62     5.811282     20.32241     108.2794        13     0.965     0.832 -78.19   0
       295   1013.2104    156.4864 300.4498592 +22.7403565      1614.19     71.97691      1.620     3.12     5.710549     20.32241     160.3923        23     1.164     1.115  57.12   0
       296    969.0016    156.0610 300.4362002 +22.7270136     1288.862     71.99526      1.576     2.95     5.758475     20.32241     146.1332        18     1.151     1.017  12.70   0
       297    203.0640    148.8362 300.1999255 +22.4956971     649.5952     72.03197      1.441     3.57     6.355462     20.32241     97.51022        12     1.119     0.792  -4.70   0
       298     64.6415    143.1302 300.1587358 +22.4525922     2219.637     71.99526      1.805     4.10     6.647817     20.32241     192.2185        35     1.586     1.325  64.66   0
       299    888.3483    140.6959 300.4160159 +22.6984694     707.9338     72.10532      1.508     3.54     5.871422     20.32241     96.94833        15     1.133     0.930  -4.28   0
       300     14.8571    140.8830 300.1439911 +22.4370308     349.7416     72.12365      1.298     2.95     6.810874     20.32241     53.43059         6     0.829     0.574  -2.68   0
       301    222.2717    136.5364 300.2098851 +22.4979154     5684.041     72.06866      1.652     3.08     6.393699     20.32241     670.7221        42     1.400     1.280  66.13   0
       302      6.5078    131.1560 300.1445482 +22.4317352     1318.526     72.01362      1.711     3.64     6.920581     20.32241     115.0896        16     1.246     0.871 -10.00  16
       303   1021.2681    124.5285 300.4627304 +22.7335661     18119.02     67.62202      1.718     3.38     6.123448     20.32241     1822.596        58     1.545     1.340 -88.58  24
       304    205.7794    127.5713 300.2076603 +22.4903996     565.3378     72.03197      1.562     3.38     6.423049     20.32241     80.85738        11     1.075     0.845  56.57   0
       305    866.4621    118.3940 300.4164156 +22.6855050     3621.737     72.01362      1.637     2.97      5.86374     20.32241      385.376        34     1.350     1.198 -78.53   0
       306    970.1757    117.3397 300.4491144 +22.7162189     2883.111     72.01362      1.691     2.99     6.190119     20.32241     309.3705        34     1.340     1.274 -86.52   0
       307    415.9719    113.8039 300.2775252 +22.5493817     599.7599     71.99526      1.536     2.91     6.313823     20.32241     76.30592        11     0.970     0.744 -37.95   0
       308    169.0299    114.1468 300.2005808 +22.4755351     389.9494     72.03197      1.437     3.82     6.469804     20.32241     34.56124         5     0.815     0.513 -54.36   0
       309    530.4735    111.2576 300.3140042 +22.5829239     246.9369     72.06866      1.237     4.44     6.097665     20.32241     40.15305         7     0.870     0.645   6.81   0
       310    340.1721    105.3639 300.2566666 +22.5242616     778.6671     72.05032      2.331     5.08     6.388863     20.32241     64.44437        12     1.280     0.848  -9.13   2
       311    106.4760    102.4445 300.1849222 +22.4534358     714.3139     72.01362      1.780     3.81     6.601927     20.32241     66.09019        14     1.213     0.811 -20.86   0
       312    467.2555    100.6044 300.2977685 +22.5609383     1823.823     71.99526      1.537     2.83     6.095993     20.32241       223.05        23     1.190     1.057 -85.48   0
       313    394.9380    101.0244 300.2751179 +22.5394106      494.035     72.03197      1.415     3.81     6.409428     20.32241     63.08093         9     1.070     0.702  64.51   0
       314    529.1020     99.7548 300.3173038 +22.5792054     316.7111     72.05032      1.100     2.52     6.141184     20.32241     54.15884         7     0.711     0.664 -11.62   0
       315    290.8634     96.6120 300.2441586 +22.5069818     209.0227     72.01362      1.302     3.48     6.438845     20.32241     27.51251         5     0.808     0.432  19.29   0
       316    210.6302     96.3739 300.2192765 +22.4828869     426.8248     72.03197      1.520     3.92     6.524968     20.32241     45.96604         6     0.932     0.473  -7.38   0
       317    755.7491     90.6884 300.3908675 +22.6444152      387.456     72.03197      1.425     2.46     5.990985     20.32241     43.47564         5     0.713     0.447  12.55   0
       318    900.7256     84.0195 300.4382412 +22.6858591     369.6074     72.03197      1.514     5.15     6.202496     20.32241     36.23724         8     1.115     0.673  40.48   0
       319    652.0002     82.4319 300.3612042 +22.6110002     257.3127     71.99526      1.373     3.70     6.105588     20.32241     31.12892         5     0.766     0.602  89.96   0
       320    241.2681     80.4741 300.2339572 +22.4874922     6071.739     72.10532      1.687     3.02     6.547597     20.32241     676.0588        40     1.410     1.244  78.78   0
       321    747.7881     81.4290 300.3913854 +22.6393694     222.9709     72.03197      1.157     3.01     6.149297     20.32241     36.41521         5     0.729     0.447 -21.63   0
       322     92.5813     80.2475 300.1877934 +22.4428960     725.8112     72.06866      1.698     5.37     6.843008     20.32241     65.14599        10     1.203     0.683  -9.24   0
       323    871.0358     78.3143 300.4308280 +22.6753378     516.6541     72.01362      1.508     4.38     6.081705     20.32241     48.45722         6     0.875     0.624 -41.09   0
       324    257.2674     72.0910 300.2416499 +22.4898736     224.4728     72.16029      1.648     3.91     6.556909     20.32241     32.82521         5     0.870     0.503  36.70   0
       325      3.2597     70.6249 300.1631484 +22.4133740     337.0419     65.73914      1.344     4.55     7.291764     20.32241     34.04362         6     1.138     0.516  47.54  16
       326    487.4059     65.8876 300.3152899 +22.5569861     6352.138     71.94017      1.570     2.98     6.113862     20.32241     634.3451        38     1.354     1.213  72.92   0
       327    372.9761     66.1121 300.2795920 +22.5227982     462.6613     71.99526      1.284     2.92     6.496724     20.32241     76.56458        10     0.990     0.657  -9.84   0
       328    681.1707     57.2306 300.3784590 +22.6124774     349.7971     72.03197      1.445     2.33     6.549922     20.32241     48.13253         6     0.725     0.542  42.32   0
       329    739.8383     55.9300 300.3971674 +22.6296540     788.6237     71.99526      1.385     3.62     6.554275     20.32241     98.78197        13     1.043     0.925 -22.20   0
       330    831.9943     54.7759 300.4262764 +22.6568867     486.6581     72.01362      1.458     2.79     6.425026     20.32241      68.8402         8     0.982     0.506  51.83   0
       331    900.6181     52.2185 300.4485098 +22.6766732     230.7473     72.03197      1.398     3.14     6.359782     20.32241     30.18004         5     0.728     0.456 -72.78   0
       332    180.5349     50.0552 300.2249206 +22.4605623     512.0193     72.08699      1.611     4.63     6.636072     20.32241     57.41642        13     1.103     1.012 -73.04   0
       333    538.6124     48.3355 300.3369233 +22.5672629      473.099     71.97691      1.327     4.27     6.195431     20.32241     67.41336         7     1.199     0.433  78.49   0
       334    615.8504     46.1025 300.3617083 +22.5897326     6314.385     72.10532      1.525     2.88     6.317686     20.32241      728.899        41     1.357     1.208 -89.75   0
       335    390.6301     44.9970 300.2919266 +22.5220119     1370.927     71.99526      1.442     3.05     6.517667     20.32241      155.325        20     1.124     1.020  85.51   0
       336    727.0020     42.5006 300.3975160 +22.6219498     436.2484     71.90342      1.882     6.77     6.767406     20.32241     36.36438        11     1.277     1.005  83.59   0
       337    656.8817     43.2976 300.3754025 +22.6012020     967.6422      72.1786      1.513     3.08     6.651874     20.32241     116.0741        18     1.138     0.988  87.56   0
       338    672.9128     39.7137 300.3815595 +22.6049670      554.092     72.16029      1.426     3.73     6.819804     20.32241     72.17812        11     1.098     0.713  79.32   0
       339    943.1310     37.3727 300.4665824 +22.6851117     586.8593     72.03197      1.656     3.55     6.447976     20.32241      63.0427        10     0.982     0.764  28.93   0
       340    139.6241     37.7715 300.2161775 +22.4447802     627.7674     72.03197      1.383     2.99     6.878338     20.32241     81.06252         7     0.794     0.648   9.71   0
       341    711.3163     35.1272 300.3950148 +22.6151359     379.9074     72.14197      1.372     3.90     6.897932     20.32241     52.40087         9     0.970     0.762 -45.55   0
       342    660.0370     31.0321 300.3803587 +22.5986170     2750.621     72.05032      1.507     2.91     6.843452     20.32241     285.5093        28     1.220     1.141  69.25   0
       343    300.6387     31.6535 300.2682418 +22.4912352       300.61     72.03197      1.170     3.80     6.662435     20.32241      53.0668         7     1.005     0.528  44.93   0
       344    674.7804     29.6804 300.3853913 +22.6026389     688.7192     72.01362      1.604     4.22     6.977549     20.32241     76.82516        12     1.458     0.661  45.35   0
       345    212.9868    984.0029 299.9319158 +22.7384363     4832.238     71.86665      8.623    26.84     67.14911     20.32241     99.32848       388     6.736     4.699 -48.85  19
       346    684.4615     15.9803 300.3928458 +22.6015930     759.1987     71.99526      1.469     2.53      7.20002     20.32241     89.00434        11     0.944     0.680 -22.24   0
       347     37.1081   1014.0279 299.8674797 +22.6942649     1164.895     71.99526      9.569    11.69     22.75431     20.32241     44.63677        24     2.952     1.288 -65.95  27
       348    627.8350    986.2414 300.0603137 +22.8634977     10494.35     72.08699      2.496     6.33      5.01054     20.32241     453.8687        47     1.833     1.482   8.44   3
       349    632.6672    984.0613 300.0625282 +22.8643205     9797.138     72.06866      2.180     5.44     5.015101     20.32241     497.7936        57     1.763     1.525  13.92   3
       350    727.6327    986.9245 300.0911899 +22.8936091     690.9324     72.03197      2.154     7.06     5.000884     20.32241     37.84054        12     1.620     0.861   3.70   0
       351    166.6501    996.1678 299.9135520 +22.7280216     2998.685     72.06865      4.295    33.89     82.66457     20.32241     61.60488       213     8.300     3.840  73.00  18
