#   1 NUMBER                 Running object number                                     
#   2 X_IMAGE                Object position along x                                    [pixel]
#   3 Y_IMAGE                Object position along y                                    [pixel]
#   4 ALPHA_J2000            Right ascension of barycenter (J2000)                      [deg]
#   5 DELTA_J2000            Declination of barycenter (J2000)                          [deg]
#   6 FLUX_APER              Flux vector within fixed circular aperture(s)              [count]
#   7 FLUXERR_APER           RMS error vector for aperture flux(es)                     [count]
#   8 FLUX_RADIUS            Fraction-of-light radii                                    [pixel]
#   9 FWHM_IMAGE             FWHM assuming a gaussian core                              [pixel]
#  10 BACKGROUND             Background at centroid position                            [count]
#  11 THRESHOLD              Detection threshold above background                       [count]
#  12 FLUX_MAX               Peak flux above background                                 [count]
#  13 ISOAREA_IMAGE          Isophotal area above Analysis threshold                    [pixel**2]
#  14 A_IMAGE                Profile RMS along major axis                               [pixel]
#  15 B_IMAGE                Profile RMS along minor axis                               [pixel]
#  16 THETA_IMAGE            Position angle (CCW/x)                                     [deg]
#  17 FLAGS                  Extraction flags                                          
         1    700.1971     14.3394 300.3941788 +22.6016907     10584.86      72.2791      0.668    -1.10     5.893895     20.39732     6747.708        23     0.889     0.668 -21.93   0
         2    503.4647     15.5665 300.3324822 +22.5431761     1014.528     72.29752      1.411     2.72     6.245739     20.39732     124.0955        15     0.983     0.901  52.81   0
         3    407.4106     13.5289 300.3032320 +22.5138401     917.0283     72.29752      1.756     3.46     5.452513     20.39732     105.1948        15     1.083     1.009  39.71   0
         4    746.8644      4.3943 300.4119490 +22.6127910     615.9888     70.07186      1.392     3.15      5.72157     20.39732     68.78255        10     0.882     0.826  30.46  16
         5    178.9215      3.4668 300.2353924 +22.4425380     3724.711     66.92313      1.641     2.89     6.088678     20.39732     420.2715        37     1.399     1.242  17.49  24
         6    135.3031   1009.9365 299.8951429 +22.7182402     906.4126     72.38953      2.357     5.00     90.89533     20.39732     37.44633         5     1.450     0.488  88.43   2
         7     94.1991   1012.0220 299.8816869 +22.7065007     5001.544     72.22382     16.484    95.48     84.26529     20.39732     148.6544      2117    17.877    16.847  63.79  27
         8     83.8956    944.0151 299.9006013 +22.6839196     6028.111     72.22382     31.354   119.58     21.05274     20.39732     1366.008      5121    22.417    17.697 -62.46  19
         9    173.7644    972.1273 299.9193983 +22.7189465     1352.928     72.26067      2.975    10.25       58.624     20.39732     44.96011        25     2.184     1.341 -30.05   3
        10      2.8757    993.6880 299.8592693 +22.6738344     2435.429     64.38838      5.457    17.85    -26.91034     20.39732     60.89532        86     3.672     2.412 -72.32  27
        11    245.7749    973.3953 299.9413809 +22.7409176     8238.679     72.26067     10.851    36.91     37.11889     20.39732     171.7414       941    12.964     5.334  68.59  18
        12    932.6630    970.5169 300.1562943 +22.9460437     555.3573     72.38953      1.724     6.52     4.241741     20.39732     42.94085        11     1.256     0.949  61.24   2
        13    935.3116    970.6426 300.1570797 +22.9468734     411.8665     72.29752      1.293     3.02     4.245091     20.39732     42.53347         5     0.860     0.433  72.69   3
        14    139.3703   1005.6105 299.8978145 +22.7182211     1301.122     72.29752      1.843    10.91     87.78706     20.39732      53.7376        25     3.158     1.051  43.82  18
        15    151.4042    955.5867 299.9178249 +22.7074955     2074.285     72.15004     10.111    16.46     44.85899     20.39732     53.54685        64     3.141     2.397   2.95   3
        16    539.7413    947.4579 300.0413127 +22.8216534     381.8945     72.37114      1.975     4.38     3.714767     20.39732     37.84274         5     0.914     0.599  48.43   0
        17    659.2037    953.7458 300.0764842 +22.8592740     6774.506     72.26067      1.982     4.57     4.045646     20.39732      393.924        50     1.558     1.475  30.27   0
        18    185.5652   1004.4453 299.9125568 +22.7317507     1112.788     72.33434      3.746    12.60      85.6208     20.39732     47.48121        19     2.547     1.735 -31.26   3
        19    567.7810    944.3966 300.0510418 +22.8291825     1449.089     72.26067      1.861     5.24     3.843584     20.39732     85.00458        25     1.362     1.237  47.90   0
        20    461.4974    940.7401 300.0191324 +22.7962633     1013.202     72.37114      1.912     4.95     3.833758     20.39732     66.33735        23     1.400     1.175  74.53   0
        21    392.0958    938.7550 299.9981735 +22.7748796     6523.266     72.31593      1.965     4.30     4.218864     20.39732     497.9647        46     1.528     1.461  55.84   0
        22    181.1468   1000.2660 299.9125422 +22.7292270     2004.391     72.33434      4.758    13.85     82.66026     20.39732     61.21631        44     4.041     1.321 -23.86  19
        23    424.8454    926.0091 300.0125122 +22.7810463     449.5435     72.31593      1.728     5.78     4.065943     20.39732     38.53167         9     1.154     0.815  21.36   0
        24    363.0084    999.0981 299.9694955 +22.7834583     325.3385      72.1685      1.505     3.82     4.657799     20.39732     30.80615         5     0.820     0.510 -60.98   0
        25    938.6745    917.7841 300.1753200 +22.9327041     2028.235     72.29752      1.986     4.93     4.297363     20.39732     104.2417        31     1.462     1.367 -35.43   0
        26    176.1828    997.6843 299.9118384 +22.7269973     2246.422     72.26067      4.858    12.14     81.51254     20.39732     61.01258        40     2.254     1.819  61.66   3
        27    436.2036    913.2795 300.0201872 +22.7808015     341.4748     72.20538      1.576     3.79     3.992913     20.39732     29.20907         5     1.232     0.335 -79.11   0
        28    588.6633    915.0415 300.0670926 +22.8270211     326.7728      72.2791      1.808     4.50     3.998156     20.39732     35.15705         6     1.260     0.456  33.56   0
        29    727.3076    906.4089 300.1131033 +22.8661030     835.0229     72.22382      2.206     6.59       4.0296     20.39732     42.73337        17     1.234     1.163 -46.15   0
        30    554.3705    991.3927 300.0315798 +22.8386433     2361.416     72.29752      1.959     4.90      3.54846     20.39732     139.5374        30     1.447     1.263  -8.36   0
        31    181.4020    989.7434 299.9160440 +22.7262876     1953.668     72.24225      6.746    13.75     73.70655     20.39732     69.17354        43     2.943     1.787 -70.36   3
        32    762.0680    900.9877 300.1257021 +22.8749645      1068.11     72.29752      1.794     4.28     4.007088     20.39732     86.37374        19     1.290     1.028  14.63   0
        33    540.2742    902.0334 300.0562497 +22.8087814     261.4836      72.2791      1.428     3.90     3.923164     20.39732      36.0533         5     0.877     0.497  44.83   0
        34      5.1877   1014.3087 299.8532808 +22.6804363      3882.32     71.90976     19.137    68.44    -33.29532     20.39732     76.34523       799    17.591     7.387 -84.16  26
        35    831.6405    896.0074 300.1490146 +22.8943830      562.192     72.33434      2.334     6.19     4.014404     20.39732     29.00587         6     2.367     0.454 -87.11   2
        36    917.6956    898.1890 300.1751468 +22.9207925     385.5893     72.22382      2.476     4.95     4.218871     20.39732     30.37863         5     1.122     0.619 -24.22   0
        37    230.3961    893.0419 299.9627259 +22.7132668     567.6312     72.31593      4.411     4.82     8.307554     20.39732     24.88253         5     1.428     0.462 -83.16   0
        38    207.1683   1002.9016 299.9197769 +22.7377911     1999.861      72.2791      2.940    26.40     82.09835     20.39732     59.03958       108     5.162     3.747  12.67  19
        39    784.4050    894.4886 300.1347794 +22.8797928     11426.55     72.20538      1.921     4.35     3.976587     20.39732     676.5941        59     1.547     1.515 -39.14   0
        40    227.8379    983.8053 299.9324163 +22.7385197     5134.215     72.31593     10.003    38.13     59.61715     20.39732     102.5472       516     7.590     6.213  76.00  19
        41    836.1191    882.2062 300.1548987 +22.8917627     474.8599     72.22382      1.648     6.21     3.962105     20.39732     35.20613        11     1.086     0.997 -29.75   0
        42    489.1004    882.9186 300.0465280 +22.7879541      513.623      72.4263      2.153     5.54     3.894437     20.39732     40.75819         9     1.293     0.668   1.05   0
        43     96.4392    885.5113 299.9235218 +22.6709159     1326.398      72.2791      5.539     6.53     7.447611     20.39732      52.0512        18     1.603     1.044 -79.52   3
        44    793.0776    876.5083 300.1433296 +22.8772300     1364.187     72.44469      1.867     4.47     3.929777     20.39732     93.12093        24     1.354     1.169  82.53   0
        45    640.8829    986.8592 300.0600054 +22.8632826     8772.136     72.38953      2.126     5.09     4.045646     20.39732     454.5922        51     1.648     1.548  -0.94   3
        46    646.4633    984.5942 300.0624809 +22.8643058     9316.158     72.26067      2.007     4.73     4.045646     20.39732     482.4757        48     1.589     1.475  39.61   3
        47    975.0249    875.4613 300.2004241 +22.9314395     477.3805     72.29752      1.709     4.03     4.472826     20.39732     36.70779         8     0.952     0.834 -69.12   0
        48    509.4159    874.2722 300.0556653 +22.7915647     347.3864     72.29752      1.805     3.44     3.959554     20.39732     30.51809         5     0.741     0.460  72.36   0
        49    645.1035    873.5698 300.0981613 +22.8320395      400.721     72.24225      2.044     5.44     4.027988     20.39732     44.04974         8     1.257     0.664   8.51   0
        50    831.0750    869.7393 300.1573790 +22.8866721     975.5707     72.35274      2.213     6.75     3.910866     20.39732     59.88298        21     1.508     1.130  49.70   0
        51    879.0915    861.4561 300.1750477 +22.8986797     530.5085     72.35274      2.032     7.43     3.994778     20.39732     43.74598        13     1.653     0.998 -23.68   0
        52    730.8815    860.2663 300.1292199 +22.8539296     742.8755     72.40792      1.695     5.50     4.005134     20.39732      56.5795        14     1.186     0.938   7.72   0
        53    443.4247    856.4092 300.0409248 +22.7666534     4339.625     72.29752      1.813     3.68     3.984594     20.39732     333.7508        42     1.437     1.369  73.40   0
        54    742.2410    857.3841 300.1336979 +22.8565064     650.0566     72.31593      1.837     5.84     4.014466     20.39732     48.16407        12     1.205     0.796 -41.64   0
        55    222.0965    845.6602 299.9755474 +22.6971914     368.2486     72.37114      1.746     5.83     6.124189     20.39732     39.81729         8     1.197     0.800 -33.78   0
        56    486.7786    844.8055 300.0581953 +22.7763234     416.5409      72.2791      1.788     4.44     4.121264     20.39732     32.48683         7     1.078     0.520 -23.55   0
        57    169.6069    842.2603 299.9603290 +22.6804701     764.7443     72.26067      1.876     3.56     7.098738     20.39732     64.00135        10     1.091     0.710 -88.02   2
        58    740.7031    987.9670 300.0907545 +22.8935247     722.9769      72.2791      2.269     6.44     4.061491     20.39732     41.86574        10     1.372     0.848 -13.81   0
        59    145.7107    838.8448 299.9540090 +22.6723218     1708.984     72.31593      1.942     4.59       6.7675     20.39732     126.9703        28     1.421     1.334  19.25   0
        60   1017.6266    828.6641 300.2289334 +22.9307579     2099.235      72.2791      1.947     4.80     4.613866     20.39732     132.6644        31     1.479     1.329 -38.34  16
        61     21.3160    829.1645 299.9184894 +22.6322222     413.5905      72.2791      1.823     5.21     5.180953     20.39732     34.39277         6     1.035     0.741  77.26   0
        62    971.9000    827.0505 300.2151876 +22.9165996     2109.032     72.38953      1.979     5.01     4.518976     20.39732     110.4137        30     1.437     1.385  51.52   0
        63    677.3637    827.6609 300.1231386 +22.8285319     506.8185     72.31593      1.690     4.82     4.253059     20.39732     35.12911         8     1.421     0.462 -40.11   0
        64    755.5714    821.1995 300.1496162 +22.8501132     604.6588     72.26067      1.682     3.96     4.207055     20.39732     64.54881        12     1.017     0.836 -19.88   0
        65    171.7776    968.3653 299.9200040 +22.7172719     1169.901     72.31593      3.181     5.73     55.36447     20.39732     40.98014        11     1.214     0.762 -41.52   3
        66    623.4092    814.7017 300.1105381 +22.8086420     4937.768     72.20538      1.710     3.91     4.375628     20.39732     423.0703        35     1.298     1.275 -65.57   0
        67    174.9285    976.8984 299.9182086 +22.7206633     1682.814     72.44469      5.439    12.11     62.93105     20.39732     52.01595        40     2.469     1.655  86.85   3
        68    425.7228    811.9126 300.0498775 +22.7485804     573.6221     72.44469      1.542     4.86     4.350996     20.39732     48.09913        12     1.135     0.884 -43.23   0
        69    173.5026    808.3483 299.9725624 +22.6719155     1439.349     72.37114      1.849     4.62     5.591399     20.39732     96.49416        25     1.393     1.207  47.22   0
        70    643.7053    807.3224 300.1192606 +22.8126068     689.2223     72.40792      1.721     5.37     4.422297     20.39732     55.96516        15     1.146     1.009  -4.45   0
        71    193.5428    805.8286 299.9796132 +22.6772045      328.171     72.29752      1.201     3.37     5.358848     20.39732     36.05857         5     0.749     0.439  67.23   0
        72    560.5079    797.7349 300.0964570 +22.7849192     320.2488     72.40792      1.526     6.14     4.472678     20.39732     40.22918         8     1.132     0.937  -3.76   0
        73   1016.4137    794.9048 300.2395284 +22.9206970     1024.307     72.22382      1.871     4.66     4.600912     20.39732     67.55268        21     1.338     1.135  18.75  16
        74    799.4066    794.4921 300.1719642 +22.8555788     4222.128     72.20538      1.779     4.04     4.362607     20.39732     308.1272        37     1.357     1.316 -14.49   0
        75    208.3271    788.3630 299.9898871 +22.6766307     339.6508     72.24225      1.534     4.22      5.08027     20.39732     38.99832         7     1.092     0.465  61.72   0
        76    516.1801    786.7972 300.0862054 +22.7684929     565.4901     72.24225      1.697     5.15     4.545459     20.39732     67.66328        14     1.311     1.058  71.17   0
        77    162.9149    784.8784 299.9768974 +22.6620096     975.2966     72.40792      1.677     3.94     5.263227     20.39732     85.48517        18     1.245     0.991 -43.13   0
        78    577.8612    780.2722 300.1075378 +22.7851088      388.457     72.33434      1.587     5.77     4.531493     20.39732     38.64503         8     1.156     0.812  71.99   0
        79    312.4872    776.8727 300.0260231 +22.7045742     54000.16     72.44469      1.767     3.67     4.740744     20.39732     4670.331        99     1.549     1.493   7.87   0
        80    570.3586    776.1992 300.1065244 +22.7816911     1657.781     72.29752      1.702     3.69     4.543376     20.39732     150.2809        25     1.267     1.161  33.90   0
        81    983.2019    775.6367 300.2354258 +22.9052161     784.3107     72.31593      1.764     4.82     4.682769     20.39732     59.50333        18     1.269     1.045 -10.17   0
        82    287.0000    774.9542 300.0187166 +22.6963806     240.6716      72.2791      1.227     3.76     4.687241     20.39732     31.46456         5     1.408     0.289  90.00   0
        83    241.4652    775.2108 300.0044681 +22.6827981     441.9478     72.24225      2.014     4.10     4.916715     20.39732     32.53781         7     0.992     0.484 -82.06   0
        84    599.2355    772.1462 300.1168373 +22.7891826     820.7415     72.31593      1.618     3.83     4.560924     20.39732     75.86838        18     1.123     1.073  64.43   0
        85    610.1046    770.5310 300.1207485 +22.7919765     643.4189     72.42631      1.993     5.40     4.566597     20.39732      51.8986        13     1.133     0.908  86.18   0
        86    715.8001    766.9236 300.1548588 +22.8226139     355.6061      72.1685      1.460     5.26     4.580489     20.39732     35.80468         9     1.137     0.687 -49.44   0
        87    509.4681    764.4351 300.0913822 +22.7600637     213.8058     72.29752      1.699     4.38     4.603022     20.39732     34.46848         5     0.961     0.568 -46.81   0
        88    753.5167    757.2400 300.1697630 +22.8311339     843.1805     72.26067      1.742     5.29     4.612595     20.39732     73.07861        19     1.428     1.042  40.57   0
        89    362.1775    754.1390 300.0488733 +22.7129526     31692.48      72.2791      1.696     3.35     4.912094     20.39732     2866.422        74     1.450     1.424  27.92   0
        90    376.4604    754.6176 300.0531630 +22.7173723     1993.305     72.24225      1.731     3.87     4.847503     20.39732     175.8841        27     1.346     1.131  23.07   0
        91    885.2991    750.2928 300.2131163 +22.8686152     2845.458     72.48143      1.759     4.01     4.427353     20.39732     201.5575        31     1.325     1.263  20.73   0
        92    373.2026    748.5369 300.0541249 +22.7146510     641.4531     72.29752      1.877     6.21      4.88449     20.39732     41.56987        13     1.103     0.983  34.22   0
        93    643.4139    746.4234 300.1389610 +22.7950384     960.7258      72.2791      1.664     3.47     4.690213     20.39732     90.56481        17     1.113     1.004 -26.31   0
        94    244.7186    745.9796 300.0149783 +22.6753900     902.8396     72.26067      1.763     5.44     4.934792     20.39732     73.73787        15     1.076     1.065  14.84   0
        95    479.7743    746.2531 300.0880437 +22.7459451     466.1733     72.31593      1.757     4.71     4.648566     20.39732     42.87139         6     0.831     0.774 -31.79   0
        96    537.9768    743.7785 300.1069733 +22.7626806      314.641     72.29752      1.716     4.75     4.639318     20.39732     24.32064         5     0.933     0.686 -25.84   0
        97    490.5269    741.0886 300.0930700 +22.7476861     850.1395     72.46306      1.585     3.35     4.653046     20.39732     93.65077        15     1.064     0.943  40.86   0
        98    891.5172    738.1935 300.2189876 +22.8670023      573.254     72.22382      1.913     3.64     4.473343     20.39732     57.28927        11     1.077     0.871   6.27   0
        99     77.7075    735.7266 299.9663781 +22.6223554     566.3328     72.42631      1.915     6.38     5.066785     20.39732     50.10519         8     1.546     0.739 -44.64   0
       100    436.5555    735.7903 300.0779870 +22.7299870     326.7974     72.31593      1.340     3.52     4.737043     20.39732     43.74504         7     0.852     0.610  19.95   0
       101    869.3066    732.8351 300.2138007 +22.8588110     494.7291     72.26067      1.895     5.71     4.379323     20.39732     45.77366        10     1.220     0.889  63.84   0
       102    242.6315    730.5034 300.0193574 +22.6703250     527.5056     72.26067      1.754     3.53      4.94931     20.39732     54.46371         9     1.040     0.748 -21.03   0
       103    565.3102    720.7753 300.1229613 +22.7642701     387.6233     72.24225      1.567     2.55     4.772338     20.39732     49.73911         6     0.726     0.570 -37.85   0
       104    535.0463    718.8042 300.1141751 +22.7546342     679.9866      72.2791      1.789     4.32     4.780539     20.39732      58.7701        14     1.141     0.949 -31.23   0
       105    951.7745    715.6386 300.2451159 +22.8785689     4369.542     72.31593      1.740     3.82     4.930455     20.39732      327.601        35     1.351     1.303 -49.28   0
       106    557.2468    716.4732 300.1218473 +22.7606187     1420.256     72.29752      1.594     2.97     4.803687     20.39732     152.1743        20     1.114     1.035  26.03   0
       107    444.6431    717.5485 300.0864317 +22.7271768     408.7946     72.33434      1.821     3.25     4.815658     20.39732     43.70925         6     0.886     0.681  13.25   0
       108    476.6581    715.9594 300.0969162 +22.7363173     476.2823     72.29752      1.578     4.90     4.801382     20.39732     32.39322         9     1.081     0.628 -36.43   0
       109    639.3147    711.4796 300.1490376 +22.7837783     240.6437     72.44469      1.156     3.51     4.817413     20.39732     43.59512         6     0.890     0.462  86.29   0
       110    940.2801    707.1362 300.2442919 +22.8726843     1702.013     72.40792      1.737     4.04     4.979523     20.39732     116.3287        24     1.302     1.129 -14.80   0
       111    303.2464    700.5614 300.0479422 +22.6799121     867.6998     72.35274      1.711     3.38     4.925108     20.39732     87.10615        18     1.191     0.975  -2.39   0
       112    971.3303    697.2349 300.2571975 +22.8791374     1676.481     72.29752      1.719     3.83     5.107383     20.39732     129.5074        24     1.273     1.175  38.72   0
       113    766.7859    698.2341 300.1930723 +22.8181651     2651.603      72.2791      1.715     3.50     4.792164     20.39732     207.4525        30     1.535     1.081  -7.50   0
       114    849.2056    684.2950 300.2233019 +22.8388484     509.5448     72.18694      1.721     4.94     4.783318     20.39732      58.3468        13     1.269     0.946  16.97   0
       115    151.7722    684.6481 300.0059969 +22.6299239     601.6075     72.31593      1.683     5.07     4.986852     20.39732     74.03355         7     0.959     0.759   9.68   0
       116    885.0574    675.2003 300.2374392 +22.8469728     149050.8     72.22382      1.666     3.36     4.972042     20.39732     11613.11       179     1.577     1.553 -53.56   0
       117    648.4886    678.6827 300.1625511 +22.7771109     290.9858     72.40792      1.182     3.24     4.900924     20.39732     43.97767         5     1.005     0.330 -66.69   0
       118    737.3919    675.5261 300.1912856 +22.8028387     714.3414     72.26067      1.519     4.75     4.809029     20.39732     65.35003        12     1.007     0.919  42.00   0
       119    918.2465    668.1934 300.2500691 +22.8548985     284.5415     72.31593      1.227     3.38     5.235519     20.39732     40.65131         7     0.810     0.741 -51.56   0
       120    571.2066    663.8427 300.1432934 +22.7496940     1559.924     72.31593      1.488     3.13      5.17381     20.39732     170.9042        22     1.197     1.084  -7.18   0
       121    752.5334    661.2987 300.2006276 +22.8032884     9515.469     72.38953      1.594     3.08     4.842605     20.39732      862.134        47     1.311     1.279  89.11   0
       122    253.8680    656.0773 300.0470296 +22.6523447     4860.347     72.38953      1.610     3.28     4.931458     20.39732      450.795        37     1.354     1.227  31.02   0
       123    336.0202    654.2963 300.0731686 +22.6764639     1207.257     72.20538      1.607     3.33     4.971232     20.39732     111.3236        21     1.151     1.090  13.95   0
       124    212.0672    651.6154 300.0354767 +22.6385307      513.062     72.29752      1.680     4.10     4.951698     20.39732     44.44345         8     1.025     0.564  43.62   0
       125    544.1652    649.7346 300.1394527 +22.7375407     761.2607     72.29752      1.543     3.26      5.36207     20.39732     77.80829        13     0.995     0.930 -56.07   0
       126    535.9585    641.9951 300.1394103 +22.7328597     3281.633     72.31593      1.486     2.97     5.404323     20.39732      317.622        29     1.224     1.141 -57.34   0
       127    526.2733    635.8203 300.1383993 +22.7281848     1393.611     72.29752      1.493     3.03      5.38787     20.39732     160.5089        16     1.073     0.903  12.67   0
       128    919.7195    633.8219 300.2616935 +22.8454644     413.0066     72.26067      1.368     4.24     5.467853     20.39732     52.40962         8     0.942     0.847 -46.40   0
       129    189.4851    632.0769 300.0347991 +22.6261544     746.7694     72.40792      1.664     4.12     4.951438     20.39732     74.01191        15     1.298     0.896 -14.93   0
       130    203.8988    630.4957 300.0397953 +22.6300228     615.0858     72.48143      1.616     3.24      4.94188     20.39732     66.40678        11     0.995     0.898   8.70   0
       131    229.2430    627.4459 300.0486685 +22.6367472     676.8796     72.33434      2.056     4.36      4.92576     20.39732     52.38842        14     1.287     0.977 -43.41   0
       132    972.6155    627.3959 300.2802855 +22.8594551     500.0581     72.15004      1.749     5.08     5.176895     20.39732     41.19228         8     1.086     0.671 -10.28   0
       133    550.1207    626.2213 300.1489446 +22.7325750     350.4644     72.29752      1.209     4.49     5.631034     20.39732     48.53947         8     0.875     0.656 -35.66   0
       134    451.0378    625.3080 300.1183850 +22.7026206     1774.414     72.29752      1.536     3.15     5.019559     20.39732     168.9535        23     1.180     1.070  50.35   0
       135     25.8071    622.2676 299.9871003 +22.5742530     766.8052     72.26067      1.993     6.34     5.320646     20.39732     77.15358        14     1.515     1.049 -29.94   0
       136    104.8645    620.1780 300.0123517 +22.5973651     19707.67      72.2791      1.784     3.64     5.054083     20.39732     1709.684        61     1.516     1.423  44.32   0
       137    535.7363    620.8738 300.1462008 +22.7267296     1028.525     72.33434      1.579     3.77     5.617176     20.39732     93.00517        17     1.098     1.038 -67.36   0
       138    571.0466    620.0104 300.1574800 +22.7370620     348.0148     72.31593      1.476     3.65      5.58909     20.39732      33.2621         5     0.640     0.598 -89.47   0
       139    289.9019    611.9453 300.0725726 +22.6504860     386.3523     72.38953      1.888     5.32      4.89889     20.39732     32.94424         6     1.198     0.668  37.01   0
       140     50.9605    604.2283 300.0007754 +22.5766241      1493.47     72.33434      2.122     5.23     5.276056     20.39732      117.345        28     1.705     1.213  78.58   0
       141    821.2947    605.3424 300.2402422 +22.8078098     468.1747     72.37114      1.604     5.77     5.349874     20.39732     57.02247        10     1.175     0.818 -16.84   0
       142    117.7965    605.0721 300.0212774 +22.5969106     411.4807     72.24225      1.683     3.40     5.030222     20.39732     50.83817         6     0.924     0.422 -52.40   0
       143    499.2380    601.6856 300.1410652 +22.7102842     535.8572      72.2791      1.551     3.45     5.315553     20.39732     63.54375         9     1.023     0.668 -36.28   0
       144    954.1288    607.1520 300.2810916 +22.8481033     1083.078      72.2791      1.771     3.91     5.362825     20.39732     95.52407        21     1.225     1.108 -29.04   0
       145    892.9075    599.8279 300.2643695 +22.8276692     1061.878     72.24225      2.384     7.09     5.568932     20.39732      80.6116        21     2.094     0.810   8.67   0
       146    456.0526    593.6947 300.1302126 +22.6950491     706.9008     72.37114      1.427     3.23     5.141206     20.39732     86.55831        14     1.017     0.933  81.32   0
       147    604.0667    592.2287 300.1767891 +22.7389780     477.7517     72.29752      1.444     4.46     5.542857     20.39732     58.54877         7     1.004     0.563  19.06   0
       148    651.3511    590.7631 300.1919985 +22.7527223      499.093     72.29752      1.602     4.80     5.304878     20.39732      49.4805         8     0.946     0.691 -65.93   0
       149    621.8885    590.5908 300.1828738 +22.7438468     530.6524     72.22382      1.397     3.33     5.452913     20.39732     60.42516        11     1.016     0.771  13.51   0
       150    500.1434    589.4796 300.1453108 +22.7070514     924.3486     72.33434      1.563     3.96     5.450383     20.39732     96.04232        13     1.165     0.764  57.75   0
       151    934.0715    585.2034 300.2819612 +22.8357913     3388.004     72.24225      1.587     3.28     5.566898     20.39732      297.808        30     1.272     1.204 -45.77   0
       152    465.8221    584.7944 300.1361446 +22.6954218     1725.612      72.2791      1.466     2.73     5.263284     20.39732      214.504        22     1.134     1.010  28.69   0
       153    831.1450    582.0333 300.2508837 +22.8040631     290.4387     72.31593      1.380     3.88     5.369511     20.39732     34.26836         5     0.848     0.509  30.68   0
       154     27.7638    578.3552 300.0019669 +22.5622467     5157.931     72.35274      1.936     3.73     5.396992     20.39732     434.5845        47     1.504     1.474  71.52   0
       155    815.8361    581.3301 300.2463378 +22.7992768     162.8027      72.2791      1.180     4.31     5.313223     20.39732     28.50278         7     0.865     0.612  26.70   0
       156    973.5308    575.3483 300.2974742 +22.8447719     289.7344      72.2791      1.431     3.65     5.331571     20.39732     47.75158         7     1.141     0.467  -5.26   0
       157    494.8434    575.4833 300.1482050 +22.7014451     307.5812     72.26067      1.250     4.53     5.550544     20.39732     36.34715         5     0.821     0.709  49.00   0
       158    329.1852    571.5787 300.0979034 +22.6506780     9331.493      72.2791      1.590     2.98     4.935124     20.39732     1042.095        43     1.306     1.247  40.00   0
       159    451.6649    568.7000 300.1369625 +22.6865591     8910.282     72.38953      1.508     2.91     5.332765     20.39732     1062.932        38     1.209     1.186  74.49   0
       160    697.9501    565.0255 300.2148788 +22.7592885     388.8075     72.31593      1.256     3.63     5.145882     20.39732     37.09158         5     0.656     0.578   0.75   0
       161    863.4070    563.0845 300.2670989 +22.8082789       1881.5     72.22382      1.526     3.27     5.461203     20.39732      163.123        21     1.164     0.993  44.80   0
       162    948.0878    560.3142 300.2944166 +22.8328349     12532.02     72.42631      1.626     3.16     5.501893     20.39732     1177.546        53     1.396     1.311 -55.92   0
       163    512.2402    558.3148 300.1591972 +22.7017286     11621.82      72.2791      1.454     2.72     5.780159     20.39732     1228.762        45     1.265     1.171  55.67   0
       164    681.8607    554.4637 300.2132934 +22.7514358     501.6876     72.33434      1.369     4.65     5.323727     20.39732     60.93508        10     1.176     0.714 -89.44   0
       165    239.5915    553.6307 300.0758556 +22.6186708     1536.154     72.29752      1.739     3.49     4.898894     20.39732     154.1608        20     1.230     1.040  66.34   0
       166    397.7092    553.3153 300.1251601 +22.6659736     307.9004     72.46306      1.506     4.92     5.066527     20.39732     35.34376         8     1.144     0.598  75.25   0
       167    486.8941    551.5527 300.1534994 +22.6921928     430.3909     72.31593      1.388     4.38     5.776399     20.39732     51.03643         9     0.885     0.773 -25.19   0
       168    786.9407    546.7064 300.2485697 +22.7806771     864.8907     72.35274      1.552     4.27     5.158749     20.39732     76.74197        15     1.161     0.957 -34.25   0
       169    443.9676    546.4813 300.1417797 +22.6778742     4425.957     72.29752      1.481     2.83     5.428896     20.39732     476.3142        27     1.194     1.067  63.09   0
       170    422.1292    544.8845 300.1354992 +22.6708716     1269.038     72.40792      1.467     2.89     5.184256     20.39732     135.4759        18     1.097     0.931  47.74   0
       171    176.4256    544.3101 300.0592355 +22.5970595     736.2382     72.22382      1.444     3.89     4.813685     20.39732     91.05495        12     1.141     0.886 -14.11   0
       172    863.6457    542.2726 300.2739308 +22.8023704     1558.029     72.29752      1.578     3.49      5.41537     20.39732     148.0515        23     1.290     1.030 -25.26   0
       173    560.5546    534.0748 300.1821156 +22.7092434     206679.9      72.2791      1.479     2.73     5.830921     20.39732     23208.22       202     1.522     1.444 -21.07   0
       174    109.8781    540.9526 300.0396335 +22.5761432     395.4052     72.29752      1.696     5.29     5.035542     20.39732     46.20115         7     1.227     0.645  49.79   0
       175    744.3348    539.0330 300.2377773 +22.7657139     828.8655     72.29752      1.445     3.53     4.926405     20.39732     93.39755        15     1.201     0.920 -24.80   0
       176    384.4980    539.9849 300.1253756 +22.6581880      303.688     72.18694      1.468     5.02     5.047459     20.39732     38.04454         7     1.033     0.691  -2.53   0
       177    948.9656    536.1235 300.3025449 +22.8261454     181.0653      72.2791      1.234     4.43      5.47668     20.39732     47.26412         6     1.133     0.544  20.17   0
       178    813.5870    535.1578 300.2606283 +22.7853379     294.9886     72.31593      1.375     2.60       5.2288     20.39732       33.887         5     0.719     0.449 -68.84   0
       179    246.5782    533.8649 300.0844458 +22.6150933     3457.544      72.2791      1.600     3.23      4.89716     20.39732     378.7182        32     1.258     1.202  42.34   0
       180    812.9621    530.4994 300.2619458 +22.7838124     442.0573     72.31593      1.363     3.78     5.199553     20.39732     49.02022         8     0.870     0.682  48.05   0
       181    451.1895    514.2567 300.1544896 +22.6707867     2855.985     72.26067      1.618     2.77     5.518475     20.39732     276.9489        26     1.219     1.065  66.93   2
       182    295.4812    516.7084 300.1052294 +22.6248281     409.0542     72.42631      1.289     2.98     4.902855     20.39732     56.09752         8     0.995     0.605 -12.54   0
       183    901.2462    514.2978 300.2947422 +22.8055880     293.4456     72.33434      1.371     3.83     5.292237     20.39732     44.00078         5     0.865     0.486  46.32   0
       184    862.9795    511.3569 300.2837599 +22.7932871     221.8267     72.33434      1.185     3.25     5.171701     20.39732     48.25789         7     0.743     0.684  33.55   0
       185    848.1566    500.9355 300.2825196 +22.7858547     1675.492      72.2791      1.402     2.90     5.079406     20.39732     182.3871        23     1.216     1.004  73.91   0
       186    768.2792    503.1708 300.2568848 +22.7625812     439.4961     72.29752      1.476     3.33     5.060288     20.39732     49.00564         8     0.773     0.722 -46.17   0
       187    719.3145    498.3181 300.2431950 +22.7465248     2636.977     72.44469      1.420     2.80     5.180077     20.39732      276.544        25     1.176     1.039  70.75   0
       188    963.5677    496.2722 300.3200389 +22.8190621     371.4905     72.29752      1.392     5.00     5.262826     20.39732     38.85077         9     1.024     0.746  -2.55   0
       189    623.8361    494.7203 300.2146063 +22.7168968     528.5072     72.24225      1.560     3.85     5.519274     20.39732     55.94576         7     0.944     0.549  57.29   0
       190    506.5792    494.1779 300.1782553 +22.6816167     746.6194     72.29752      1.411     3.04     5.791454     20.39732     89.03987        15     1.032     0.937  37.96   0
       191    976.7479    492.5054 300.3253747 +22.8219242     1248.932     72.37114      1.606     3.04      5.24603     20.39732      125.727        20     1.116     1.065   2.94   0
       192    848.4774    490.8562 300.2858915 +22.7830543     2163.789     72.33434      1.665     3.46     5.009091     20.39732     200.0526        29     1.470     1.110  80.17   0
       193    962.8079    491.5569 300.3213325 +22.8174793      714.084     72.31593      1.518     3.26     5.242193     20.39732     83.38577        13     1.123     0.828  13.11   0
       194    601.8413    488.9410 300.2096291 +22.7086490     804.0587     72.29752      2.184     3.20     5.585176     20.39732     64.28472        11     0.919     0.813  23.52   2
       195    387.5953    488.8513 300.1429382 +22.6444376     402.2907      72.2791      1.423     4.48     5.146323     20.39732     34.59765         7     0.919     0.621  12.81   0
       196    886.6976    485.8390 300.2994420 +22.7930541     4412.856      72.2791      1.562     3.03      5.05864     20.39732     434.8837        37     1.292     1.230  66.90   0
       197    546.8562    481.6136 300.1948781 +22.6900744     470.2285      72.2791      1.733     3.00     5.875264     20.39732     40.48788         5     0.738     0.442  20.15   0
       198    978.7851    476.5713 300.3311827 +22.8179536     765.7391     72.31593      1.567     5.20     5.181851     20.39732     76.95909        15     1.265     0.907   3.41   0
       199    118.4950    476.1369 300.0633508 +22.5601314     956.2313     72.38953      1.673     4.30     5.154064     20.39732     101.3066        18     1.254     1.071 -20.49   0
       200    779.6743    470.0808 300.2711786 +22.7564855     340.4537     72.40792      1.348     2.70     4.965123     20.39732     38.22845         7     0.727     0.647  84.88   0
       201    974.5144    465.8567 300.3333277 +22.8135954      392.305     72.40792      1.555     3.44     5.169364     20.39732     51.36458         7     0.893     0.548  -7.63   0
       202    111.3421    465.9010 300.0644489 +22.5550500     428.0411     72.38953      1.319     4.43     5.216721     20.39732     48.74259         7     1.013     0.551  68.08   0
       203    718.8084    460.3855 300.2553495 +22.7354754     442.6659     72.20538      1.292     4.06     5.100307     20.39732     68.97825         9     1.095     0.784  64.48   0
       204    608.0007    458.0090 300.2215877 +22.7016093     370.5376     72.11313      1.397     3.97     5.469217     20.39732     38.36932         8     0.902     0.699  89.42   0
       205    660.1095    456.1637 300.2384242 +22.7166850     647.0957      72.2791      1.295     3.46      5.33977     20.39732     80.19109        10     0.939     0.726 -31.30   0
       206    974.4545    448.7704 300.3388546 +22.8086657     563.7833     72.29752      1.479     3.57     5.149641     20.39732      59.0392        15     1.058     0.938  62.81   0
       207    720.8747    448.7061 300.2597842 +22.7327384     906.9565     72.44469      1.357     2.70     5.017781     20.39732     109.6665        14     1.048     0.764 -31.91   0
       208    878.1703    444.9269 300.3100608 +22.7787431     1049.939     72.31593      1.428     2.76     4.860099     20.39732     135.3074        17     1.017     0.976 -18.91   0
       209    862.1864    441.4217 300.3062125 +22.7729512     642.5236      72.2791      1.417     2.72      4.79738     20.39732     77.10483        10     0.892     0.772  45.86   0
       210    843.0498    441.1049 300.3003465 +22.7671318     338.7975     72.35274      1.472     5.13      4.79738     20.39732     40.09469         9     0.974     0.764 -23.48   0
       211    606.7462    439.0077 300.2273634 +22.6957755     3265.892     72.29752      1.418     2.61     5.420153     20.39732     399.9119        25     1.123     1.043 -76.37   0
       212    966.9532    438.1458 300.3399619 +22.8033664      456.451     72.33434      1.471     2.92     5.119882     20.39732     58.80989         8     0.925     0.724   8.01   0
       213     83.4056    430.1636 300.0673609 +22.5364208     276.6851     72.31593      1.198     3.11     5.440507     20.39732     36.63155         5     0.723     0.466  73.72   0
       214    378.3707    426.6921 300.1602397 +22.6238277     247.2958     72.26067      1.099     2.84     5.248237     20.39732     40.93288         6     0.820     0.505  43.10   0
       215    446.1511    425.9213 300.1815905 +22.6439133     498.4158     72.29752      1.564     2.44     5.365456     20.39732     55.49467         6     0.777     0.596  -0.58   0
       216   1018.0975    418.3672 300.3623426 +22.8129848     1376.567      72.2791      1.661     3.35     5.277022     20.39732     124.7442        25     1.268     1.142 -49.61  16
       217    889.7774    418.3006 300.3223225 +22.7745641     664.2897     72.24225      1.486     3.17     4.807394     20.39732     57.08444        10     0.911     0.737  35.94   0
       218    976.3502    416.8319 300.3498113 +22.8000511     945.7638     72.33434      1.553     3.66     5.121632     20.39732     98.04729        16     1.176     0.922  84.12   0
       219    717.2374    413.0300 300.2702278 +22.7213987     1147.232     72.33434      1.446     2.98     4.842382     20.39732     130.1167        17     1.056     0.958  84.26   0
       220    513.1960    413.3514 300.2065471 +22.6603870     345.6853      72.2791      1.274     2.89     5.442675     20.39732     58.55836         7     0.813     0.607 -56.01   0
       221    221.0791    410.9987 300.1163896 +22.5721884     635.2048     72.18694      1.455     3.18     5.303489     20.39732     94.95666        10     0.950     0.866  -2.08   0
       222    283.5327    406.6180 300.1372398 +22.5896472     3911.568      72.2791      1.566     2.92     5.317908     20.39732     465.3824        33     1.333     1.088  59.51   0
       223   1016.7832    405.5679 300.3660857 +22.8089114     4342.171      72.2791      1.627     2.99     5.247915     20.39732     439.4631        34     1.307     1.163  85.14  16
       224    230.7921    401.4722 300.1225019 +22.5723649     7705.472      72.2791      1.545     2.90      5.33619     20.39732      892.563        40     1.276     1.235  55.88   0
       225    996.6934    396.3460 300.3628078 +22.8002486     1842.294     72.35274      1.705     3.28     5.160474     20.39732     187.3293        27     1.312     1.166  79.95   0
       226    371.5522    395.7200 300.1681669 +22.6128920     4902.564     72.31593      1.505     2.71     5.287251     20.39732     602.8287        34     1.234     1.135  67.64   0
       227    615.8386    392.5573 300.2452691 +22.6851546     18567.35     72.38953      1.429     2.65     5.343139     20.39732     2417.073        54     1.282     1.175  74.57   0
       228    633.3762    392.8625 300.2506348 +22.6904940     882.2772      72.2791      1.977     5.09     5.320211     20.39732     69.64445        18     1.549     0.849 -34.76   0
       229    463.4799    394.1509 300.1972948 +22.6399807     373.6259     72.33434      1.420     3.10      5.34593     20.39732     42.69206         5     0.749     0.457  70.22   0
       230    859.3652    388.8448 300.3223938 +22.7569948     302.0399     72.35274      1.441     3.44      4.81152     20.39732     44.80093         5     0.957     0.356   4.13   0
       231    812.6512    383.3635 300.3096028 +22.7414370     358.7238     72.31593      1.154     2.79     4.832729     20.39732     56.95292         7     0.796     0.669 -67.53   0
       232    236.5533    379.3737 300.1314635 +22.5677481     434.0726     72.31593      1.802     3.48     5.441737     20.39732      40.1099         5     0.766     0.456 -71.26   0
       233    949.3159    375.4644 300.3547979 +22.7800680     774.3406     72.38953      1.541     3.13     4.997517     20.39732     86.96208        14     1.074     0.835  24.71   0
       234    170.5333    372.4426 300.1131779 +22.5459730     1936.066      72.2791      1.572     3.05     5.563831     20.39732     245.1348        24     1.207     1.108  55.92   0
       235    556.4847    361.9799 300.2366980 +22.6585961     6638.892     72.22382      1.398     2.55     5.445311     20.39732     774.5287        35     1.204     1.089  67.98   0
       236    970.2335    362.6062 300.3654971 +22.7826301     1248.794     72.29752      1.576     3.30     5.037856     20.39732     133.1761        18     1.116     1.023  24.81   0
       237    271.2040    361.1740 300.1481473 +22.5729068     593.7748     72.26067      1.457     3.96     5.497725     20.39732     68.98919        14     1.112     0.923  31.28   0
       238    128.7239    354.8638 300.1058795 +22.5283968     466.3244     72.37114      1.528     4.66     5.535731     20.39732     53.89511         8     1.188     0.519 -26.92   0
       239    816.3792    354.0779 300.3202667 +22.7341354      392.213     72.29752      1.241     3.32     4.935241     20.39732     45.07031         5     0.770     0.414  67.10   0
       240    760.6311    350.9316 300.3039038 +22.7165443     1176.431      72.2791      1.515     2.97     4.766067     20.39732     137.1653        19     1.192     0.929  73.72   0
       241    670.4855    352.3795 300.2753335 +22.6899736     490.7148     72.22382      1.248     2.48     5.311333     20.39732     60.61897         7     0.759     0.638 -16.13   0
       242    463.0751    348.2074 300.2120738 +22.6266643     6133.976     72.24225      1.385     2.74     5.331735     20.39732     652.5461        35     1.232     1.054  72.29   0
       243    855.1721    342.7804 300.3360307 +22.7424983     1381.564     72.29752      1.384     2.76     4.966094     20.39732     174.0663        18     1.005     0.980  34.33   0
       244    952.6980    343.2323 300.3663103 +22.7718126     611.9145      72.2791      1.617     3.43     5.005416     20.39732     78.62599         9     1.039     0.672  -5.58   0
       245    447.7194    337.0132 300.2109236 +22.6188497      536.282      72.2791      1.418     2.54     5.332027     20.39732     75.71509         8     0.878     0.662  -1.97   0
       246    530.4655    335.3273 300.2372392 +22.6431476     394.8796     72.33434      1.259     2.24     5.426214     20.39732     65.87196         6     0.796     0.483 -43.45   0
       247    827.8291    330.4062 300.3315167 +22.7307579     536.9418     72.29752      1.197     2.80      5.06859     20.39732     96.81331         8     0.959     0.558  32.34   0
       248    350.7278    327.3809 300.1838549 +22.5870298     2601.041     72.29752      1.455     2.60     5.335274     20.39732     318.5716        26     1.156     1.057  59.93   0
       249     69.1605    324.7213 300.0971390 +22.5018931     1087.653      72.2791      1.909     3.70     5.491135     20.39732     106.9001        16     1.290     0.949  28.11   0
       250    319.9926    316.8167 300.1777162 +22.5747886     29979.24     72.24225      1.497     2.84     5.422999     20.39732     3342.391        71     1.381     1.268  53.38   0
       251    854.6965    314.6571 300.3450051 +22.7342711     1291.717     72.37114      1.423     2.60     5.042585     20.39732     153.9225        20     1.143     0.950  61.93   0
       252     16.2752    304.5284 300.0872505 +22.4802461     4795.574     72.37114      1.774     3.30     5.484225     20.39732     522.7313        42     1.432     1.373  22.25   0
       253    769.9725    303.7802 300.3221112 +22.7057879     502.3151     72.29752      1.226     2.30     5.016134     20.39732     71.60786         8     0.784     0.622 -37.65   0
       254    194.1903    303.6754 300.1428406 +22.5333229     550.2877      72.2791      1.735     4.60     5.581175     20.39732      49.3013         8     1.017     0.590  16.34   0
       255    418.0164    302.1353 300.2129884 +22.5999355     482.5422      72.2791      1.364     3.28     5.331468     20.39732     70.03384        11     1.004     0.902  18.80   0
       256    730.5219    296.6934 300.3121101 +22.6919428     2040.385     72.42631      1.508     2.59     4.725643     20.39732     250.8345        22     1.214     0.939  89.92   0
       257    538.8817    291.3200 300.2541342 +22.6330251     384.9005     72.44469      1.789     3.28     5.443666     20.39732     49.31588         6     0.979     0.549 -24.60   0
       258    945.4495    290.0275 300.3813066 +22.7543451     614.1479     72.31593      1.430     3.74     5.070112     20.39732     73.11595        11     1.048     0.788  26.08   0
       259    392.2888    281.2708 300.2117458 +22.5862369     2290.437     72.46306      1.564     3.31     5.331877     20.39732     225.8651        22     1.311     0.923  69.14   0
       260    603.9865    279.4760 300.2782577 +22.6491153     387.5971     72.31593      1.759     6.19     5.436964     20.39732     39.97257         9     1.093     0.985  76.75   0
       261    823.6095    275.1622 300.3481188 +22.7136137     352.3424     72.31593      1.387     4.58     5.351156     20.39732     44.04777         8     0.951     0.628  33.38   0
       262    831.5414    274.3568 300.3508539 +22.7157558     663.6536      72.2791      1.237     3.38     5.310556     20.39732     78.90357        10     1.061     0.644  -9.96   0
       263    731.0885    272.0706 300.3202723 +22.6850351     257.4505     72.46306      1.364     3.85     4.855565     20.39732     39.98129         7     0.861     0.676 -29.95   0
       264    713.9104    271.9659 300.3149512 +22.6798633     377.4695      72.2791      1.233     2.34     5.012026     20.39732     60.08208         9     0.770     0.731  78.90   0
       265    681.9630    271.3007 300.3052087 +22.6701093     275.4615     72.29752      1.329     4.42     5.304486     20.39732     39.48421         6     0.871     0.640  38.14   0
       266    182.5502    262.6708 300.1525177 +22.5180631      249.323     72.29752      1.561     4.63     5.617236     20.39732     27.55332         7     0.910     0.667 -17.58   0
       267    468.0477    260.5160 300.2420632 +22.6029641     1088.909     72.29752      1.311     3.02     5.339621     20.39732     153.7621        16     1.335     0.827  67.64   0
       268    553.5359    258.1536 300.2694547 +22.6278836     277.8827     72.33434      1.288     3.03     5.410292     20.39732      37.4065         5     0.738     0.457 -69.84   0
       269    851.4456    254.1273 300.3636222 +22.7158956     282.2588     72.29752      1.303     4.32     5.302021     20.39732     44.18933         6     0.860     0.617  57.14   0
       270    713.0464    252.6078 300.3209594 +22.6740406     2254.714     72.31593      1.421     2.53     5.097537     20.39732     301.0687        25     1.207     1.014  71.93   0
       271    974.2831    247.0013 300.4042580 +22.7505974     3145.296     72.18694      1.520     3.11     5.386792     20.39732     337.4488        33     1.354     1.180 -89.32   0
       272    521.2316    245.9769 300.2633407 +22.6147125     204.6031     72.29752      1.009     3.74     5.375399     20.39732     31.68698         5     0.818     0.492 -37.08   0
       273    421.3450    236.1664 300.2354171 +22.5819832     602.9868     72.31593      1.302     2.88     5.332485     20.39732     73.82417        10     0.896     0.728   3.20   0
       274    126.9184    230.4664 300.1456597 +22.4921481     515.8084     72.40792      1.574     3.92     5.675264     20.39732     59.21499        13     1.038     0.893  24.07   0
       275     96.2346    230.4424 300.1361275 +22.4829467     1357.094     72.35274      1.825     4.53     5.669303     20.39732     135.8585        24     1.415     1.214 -11.26   0
       276    990.3763    227.8005 300.4155066 +22.7498890     453.9346     72.22382      1.212     2.54     5.542678     20.39732     85.20319         8     0.938     0.555 -16.88   0
       277    833.1282    224.2109 300.3676097 +22.7018128     348.1842     72.31593      1.401     3.98     5.434928     20.39732     36.69973         6     0.938     0.483  33.34   0
       278    180.6349    222.7888 300.1648529 +22.5060387       473.21     72.29752      1.441     3.26     5.671393     20.39732     65.79183         9     1.112     0.538  10.73   0
       279    975.3967    219.8922 300.4133958 +22.7431336     281.5796     72.20538      1.414     4.94     5.553999     20.39732     44.12107         8     1.035     0.669  31.38   0
       280    856.2824    216.3736 300.3773728 +22.7064872      351.725      72.2791      1.340     3.30     5.434433     20.39732     50.48905         6     0.832     0.540 -39.44   0
       281    784.5485    214.1009 300.3557378 +22.6843696     757.4062     72.38953      1.454     3.97     5.373599     20.39732     81.80589        14     1.284     0.759  58.21   0
       282    374.8984    213.8101 300.2282066 +22.5616513     437.9445     72.18694      1.490     3.37      5.32923     20.39732     54.35163         7     1.037     0.529  39.85   0
       283    875.6111    207.0851 300.3864136 +22.7095991     327.7662     72.24225      1.560     4.81     5.451256     20.39732     38.00198         6     1.036     0.633 -36.67   0
       284    882.8265    203.0732 300.3899652 +22.7106041     2125.073     72.29752      1.431     2.79     5.462421     20.39732      235.799        25     1.227     1.025 -73.41   0
       285    301.3889    200.1492 300.2097577 +22.5357110     2182.903     72.33434      1.499     2.83     5.381565     20.39732     236.5336        24     1.167     1.049 -84.53   0
       286    379.3032    195.3239 300.2355707 +22.5576602     1093.188     72.44469      1.566     3.33     5.325039     20.39732     114.7781        17     1.170     0.916  -4.63   0
       287    130.7039    195.7757 300.1580830 +22.4833228     355.8322     72.18694      1.579     4.16     5.687304     20.39732     45.52944         6     0.834     0.764  62.75   0
       288    780.9772    194.7156 300.3609090 +22.6777274     506.7274     72.26067      1.295     3.00     5.351516     20.39732     72.52401         9     0.923     0.658  55.46   0
       289    426.4471    193.1089 300.2509651 +22.5711415     459.7459     72.29752      1.869     5.45     5.330298     20.39732     33.09565         8     1.237     0.678 -32.25   0
       290    196.2152    187.3476 300.1811880 +22.5005299     653.8691      72.2791      1.378     3.37     5.643052     20.39732      105.274        13     1.054     0.850  73.18   0
       291    798.5026    184.4071 300.3697159 +22.6800074     671.7715     72.18694      1.676     4.02      5.40252     20.39732     59.15151        12     1.197     0.772  32.14   0
       292    733.8873    184.4879 300.3495426 +22.6606956     1634.692     72.46306      1.377     2.73     5.209775     20.39732     223.3261        18     1.051     0.920  69.62   0
       293    217.5372    180.6864 300.1899793 +22.5050044     542.8126     72.40792      1.570     2.62     5.610782     20.39732     74.49552        11     0.923     0.792  15.05   0
       294   1005.4516    177.4099 300.4365492 +22.7399031     923.1028     72.29752      1.573     3.17     5.571076     20.39732     94.48407        15     1.103     0.815  45.41   0
       295    738.1483    176.3094 300.3535223 +22.6596193     824.9786     72.31593      1.412     2.62     5.213013     20.39732     97.71387        12     0.922     0.788  56.24   0
       296    507.4031    176.8477 300.2814458 +22.5907086     331.0823      72.2791      1.319     2.93     5.342764     20.39732     46.50201         7     0.834     0.595 -11.56   0
       297    658.4807    175.2535 300.3290314 +22.6354738      1351.22     72.33434      1.415     2.49     5.229463     20.39732      158.888        21     1.147     1.039 -32.03   0
       298    479.2689    171.3167 300.2744769 +22.5806961     517.1375     72.40792      1.640     3.97      5.34111     20.39732     44.83124         5     0.965     0.467  45.79   0
       299    854.1426    166.6538 300.3928242 +22.6915492     1379.825     72.35274      1.458     3.08     5.428803     20.39732     176.9579        22     1.362     1.030 -44.34   0
       300    584.5980    167.1046 300.3086506 +22.6110175     931.0919     72.20538      1.398     2.63     5.318878     20.39732     112.8646        14     0.941     0.879  18.69   0
       301    865.9584    165.9929 300.3967241 +22.6948940     804.2269     72.31593      1.474     3.15     5.437264     20.39732     85.56376        12     0.994     0.783  25.41   0
       302    982.5787    156.1065 300.4363162 +22.7269339     1188.476     72.22382      1.677     3.19     5.552548     20.39732     132.4129        18     1.165     1.053  64.47   0
       303      6.2784    152.9134 300.1332976 +22.4337346     539.6176     72.44469      1.514     3.26      5.46428     20.39732     79.23479        10     1.123     0.712 -14.28  16
       304    216.6708    149.0124 300.1999763 +22.4956487      786.916     72.31593      1.473     3.38     5.624173     20.39732     91.36402        14     1.048     0.943  40.47   0
       305     78.4862    143.5974 300.1587606 +22.4526966     2185.145     72.22382      1.742     3.56     5.741212     20.39732      229.244        29     1.360     1.236  60.28   0
       306    901.6697    141.3141 300.4158642 +22.6984788     637.1351     72.40792      1.445     3.35     5.502186     20.39732     85.62696        10     1.139     0.616   2.92   0
       307     28.0803    141.1833 300.1438750 +22.4369003     541.6974     72.31593      1.887     3.83     5.705462     20.39732     61.22622         8     1.280     0.579  -9.03   0
       308    236.0242    137.0499 300.2098736 +22.4980100     5744.996     72.29752      1.514     2.96     5.569667     20.39732     548.9771        39     1.355     1.179  74.54   0
       309     20.0807    131.3114 300.1445880 +22.4316693     1401.237     72.42631      1.802     3.64     5.855523     20.39732     150.8528        23     1.332     1.106  33.33   0
       310    219.7148    128.0569 300.2077146 +22.4905421     595.3383     72.40792      1.541     3.57     5.665246     20.39732     57.64225        10     0.929     0.798 -66.22   0
       311    880.1457    118.8549 300.4164286 +22.6855806      3522.16     72.33434      1.509     2.91     5.457893     20.39732     427.9856        33     1.268     1.161  73.05   0
       312    983.8087    117.7287 300.4491393 +22.7162611     2809.499      72.2791      1.595     3.04     5.429764     20.39732     280.6935        29     1.254     1.153  80.60   0
       313    182.8005    114.7555 300.2005434 +22.4756649     273.4081     72.29752      1.016     2.60     5.765655     20.39732     52.85868         5     0.871     0.351 -46.70   0
       314    429.5563    113.8404 300.2776259 +22.5492968     511.4648     72.37114      1.317     2.57     5.321795     20.39732     85.88736        10     0.845     0.773  84.12   0
       315    543.7894    112.4280 300.3136588 +22.5830873     201.2174     72.29752      1.106     4.75     5.320377     20.39732     37.53728         6     1.110     0.578  26.77   0
       316    355.1249    105.4838 300.2571635 +22.5246101     803.3379     72.38953      2.115     7.22     5.312129     20.39732      69.7719        15     1.938     0.753 -14.72   0
       317    119.8401    102.9540 300.1847887 +22.4534158     621.5018     72.37114      1.483     3.47      5.92657     20.39732     67.49982         8     0.932     0.623 -22.02   0
       318    480.9331    101.1746 300.2977283 +22.5610378     1674.848      72.2791      1.415     3.05     5.337233     20.39732     192.4298        22     1.147     1.027  26.59   0
       319    408.9780    101.8436 300.2751068 +22.5396885      404.016     72.35274      1.267     2.99     5.315262     20.39732     57.94548         8     0.838     0.694  10.80   0
       320    542.6560    100.5534 300.3171539 +22.5793350      442.006     72.33434      1.900     3.23     5.316969     20.39732     43.41195         6     0.861     0.475 -88.27   0
       321    224.0871     96.7751 300.2192117 +22.4828669     445.3106     72.24225      1.521     4.26     5.725069     20.39732     50.28719         7     0.777     0.667  -5.32   0
       322    697.3658     95.2393 300.3670847 +22.6241069     199.2257     72.33434      1.030     2.64      5.29429     20.39732      41.6215         5     0.734     0.434  69.35   0
       323    769.3892     91.1233 300.3908725 +22.6444724     336.6907     72.29752      1.343     2.45     5.444783     20.39732     59.62922         7     0.826     0.567   8.61   0
       324    915.1172     85.5225 300.4381412 +22.6864525     384.9226     72.38953      1.308     4.71     5.465922     20.39732      39.8446         7     0.992     0.635  17.35   0
       325    254.9774     80.8529 300.2339807 +22.4875446      6069.02     72.31593      1.596     3.10     5.562445     20.39732     617.1477        42     1.374     1.258  63.31   0
       326    106.1650     80.6768 300.1877551 +22.4429220     649.2512     72.26067      1.462     3.86     6.036064     20.39732       72.088        12     1.110     0.870  15.00   0
       327    884.1425     78.9789 300.4305980 +22.6753060     314.2004     72.31593      1.312     2.48     5.410556     20.39732     47.75969         5     0.768     0.481  27.19   0
       328    227.2283     74.9772 300.2272519 +22.4775464     363.3564     72.29752      1.458     2.29     5.802869     20.39732     52.80861         6     0.827     0.457  50.20   0
       329    270.4412     72.2718 300.2415722 +22.4897104     304.3579      72.2791      1.379     4.32     5.458908     20.39732     38.20796         7     0.960     0.554  28.41   0
       330     17.0215     71.7213 300.1629462 +22.4136445     395.5081     72.29752      1.425     3.11     6.391666     20.39732     56.58229         6     0.883     0.462 -43.57   0
       331    501.0559     66.2922 300.3152982 +22.5570358      6304.78     72.35274      1.491     2.92     5.684185     20.39732     696.9053        38     1.347     1.123  73.81   0
       332    386.6035     66.1097 300.2797202 +22.5227216     591.1336     72.20538      1.419     3.21     5.481421     20.39732     70.62969        10     0.939     0.801 -84.61   0
       333    558.0770     60.7010 300.3348711 +22.5724951     283.6854     72.44469      1.430     4.30     5.637891     20.39732     45.34871         6     1.213     0.599  42.41   0
       334    753.7122     56.0997 300.3973331 +22.6297101     896.1144     72.46306      1.796     4.64     5.567142     20.39732     79.43614        18     1.402     0.943  85.41   0
       335    846.4033     55.6399 300.4263880 +22.6573047     395.6642     72.31593      1.303     2.95     5.449358     20.39732     57.32813         7     0.871     0.552 -27.87   0
       336    194.4517     50.1486 300.2251007 +22.4605984     505.7157     72.33434      1.591     3.31      5.94528     20.39732     54.50985        10     1.010     0.758 -35.10   0
       337    552.7969     49.1250 300.3369768 +22.5675871     381.3693     72.20538      1.331     2.09     5.746609     20.39732     71.89935         8     0.777     0.622  38.52   0
       338    629.5075     46.5139 300.3617235 +22.5897923     6109.547     72.46306      1.458     2.47     5.755661     20.39732     761.2458        36     1.279     1.103  85.50   0
       339    404.3311     45.4216 300.2919416 +22.5220838     1541.216     72.29752      1.549     2.73     5.430085     20.39732     177.7748        22     1.211     1.029 -89.53   0
       340    670.5438     43.9144 300.3753547 +22.6013236     982.1601     72.38953      1.465     3.20     5.774457     20.39732      102.061        17     1.105     0.952  74.16   0
       341    740.2702     41.3985 300.3979053 +22.6214609     356.5605     72.22382      1.471     3.16     5.561006     20.39732     45.21843         6     0.710     0.638 -85.02   0
       342    686.6606     39.8910 300.3816816 +22.6049887     606.3642     72.38953      1.379     3.49     5.758155     20.39732     72.20415        11     0.961     0.813  38.76   0
       343    956.3387     37.6785 300.4665062 +22.6850150     564.7816     72.37114      1.448     2.81     5.345293     20.39732     63.25222        10     0.857     0.796  60.49   0
       344    153.3496     37.8352 300.2163067 +22.4447515     650.7491     72.31593      1.545     2.95     6.017892     20.39732     83.68014        12     1.061     0.824   4.92   0
       345    995.6527     37.2095 300.4789276 +22.6966354     326.3214     72.29752      1.452     3.40     5.336862     20.39732     31.39176         5     0.743     0.450 -74.69   0
       346    725.2717     35.7804 300.3950495 +22.6153582     418.7161     72.33434      1.307     2.84     5.616598     20.39732     53.76112         6     0.759     0.524 -43.81   0
       347    673.7310     31.3290 300.3804254 +22.5986583     2707.903     72.33434      1.502     2.77      5.90701     20.39732     339.5797        24     1.198     1.064  87.10   0
       348    314.3167     32.3272 300.2681660 +22.4913721     376.0825     72.42631      1.348     3.62     5.604918     20.39732     56.12325         6     0.873     0.477 -41.03   0
       349    688.8312     30.2097 300.3854947 +22.6028542     906.9857     72.29752      1.898     4.22      5.83646     20.39732     88.83149        17     1.392     0.813  44.11   0
       350    760.1750     23.0449 300.4100573 +22.6221368     1602.284     72.31593      1.527     2.87     5.733621     20.39732     166.5125        23     1.216     1.006  68.58   0
       351    254.6236   1018.2830 299.9295334 +22.7564401     1032.722     72.26067      3.568     8.43     52.96691     20.39732     37.01493        16     1.889     1.051  35.67  18
       352    258.1346   1016.3842 299.9312432 +22.7569493     997.6401      72.2791      3.782     7.25     47.98561     20.39732     35.27599        10     1.610     0.915 -62.64  19
       353     76.3694     15.4863 300.1996111 +22.4152755     603.3002      72.2791      1.783     4.27     6.300175     20.39732     59.00713        10     1.146     0.690  11.97   0
       354    302.7878   1012.1268 299.9465192 +22.7691269       1708.7     72.31593      4.971     5.91     6.328115     20.39732     91.28214        32     1.693     1.522   6.02   0
       355    789.8151     12.7857 300.4226233 +22.6280520     419.2887     72.24225      1.367     2.28     5.978395     20.39732     54.32147         6     0.701     0.563  47.69   0
       356    207.4933    986.5842 299.9251852 +22.7332116      4062.74     72.22382      7.513    22.97     67.46632     20.39732     79.99965       249     5.215     4.509  83.82   3
